BOXY.EXE: ISS Imagent and Oximeter Data Acquisition Program Version 0.80
Ascii Record File

#ACQ INFORMATION
2  Detector Channels 
16  External MUX Channels 
1  Auxiliary Channels 
5000  Waveform (CCF) Frequency (Hz)
1  Waveforms Skipped 
30  Waveforms Averaged 
1  Cycles Averaged 
16  Acquisitions per Waveform 
10.0806  Updata Rate (Hz) 

#FILE INFORMATION
TRUE -- External MUX Channel results are PARSED.
FALSE -- AC DC and Phase are NOT grouped.
TRUE -- Companion Program Settings File CREATED.
FALSE -- AC data not excluded
FALSE -- DC data not excluded
FALSE -- Phase data not excluded
FALSE -- Auxillary Chn. data not excluded
Tab delimiters

#CALIBRATION STATE
TRUE -- Waveform Calibration Values APPLIED.


#AUX CALIBRATION VALUES
Val Type	aux-1	

Term	1.0000e+00	
Factor	0.0000e+00	


#WF CALIBRATION VALUES
A = Detector Channel
Val Type	A-AC1	A-AC2	A-AC3	A-AC4	A-AC5	A-AC6	A-AC7	A-AC8	A-AC9	A-AC10	A-AC11	A-AC12	A-AC13	A-AC14	A-AC15	A-AC16	A-DC1	A-DC2	A-DC3	A-DC4	A-DC5	A-DC6	A-DC7	A-DC8	A-DC9	A-DC10	A-DC11	A-DC12	A-DC13	A-DC14	A-DC15	A-DC16	A-Ph1	A-Ph2	A-Ph3	A-Ph4	A-Ph5	A-Ph6	A-Ph7	A-Ph8	A-Ph9	A-Ph10	A-Ph11	A-Ph12	A-Ph13	A-Ph14	A-Ph15	A-Ph16	

Term	0.00000e+00	0.00000e+00	0.00000e+00	0.00000e+00	0.00000e+00	0.00000e+00	0.00000e+00	0.00000e+00	0.00000e+00	0.00000e+00	0.00000e+00	0.00000e+00	0.00000e+00	0.00000e+00	0.00000e+00	0.00000e+00	0.00000e+00	0.00000e+00	0.00000e+00	0.00000e+00	0.00000e+00	0.00000e+00	0.00000e+00	0.00000e+00	0.00000e+00	0.00000e+00	0.00000e+00	0.00000e+00	0.00000e+00	0.00000e+00	0.00000e+00	0.00000e+00	0.00000e+00	0.00000e+00	0.00000e+00	0.00000e+00	0.00000e+00	0.00000e+00	0.00000e+00	0.00000e+00	0.00000e+00	0.00000e+00	0.00000e+00	0.00000e+00	0.00000e+00	0.00000e+00	0.00000e+00	0.00000e+00	
Factor	1.00000e+00	1.00000e+00	1.00000e+00	1.00000e+00	1.00000e+00	1.00000e+00	1.00000e+00	1.00000e+00	1.00000e+00	1.00000e+00	1.00000e+00	1.00000e+00	1.00000e+00	1.00000e+00	1.00000e+00	1.00000e+00	1.00000e+00	1.00000e+00	1.00000e+00	1.00000e+00	1.00000e+00	1.00000e+00	1.00000e+00	1.00000e+00	1.00000e+00	1.00000e+00	1.00000e+00	1.00000e+00	1.00000e+00	1.00000e+00	1.00000e+00	1.00000e+00	X	X	X	X	X	X	X	X	X	X	X	X	X	X	X	X	

B = Detector Channel
Val Type	B-AC1	B-AC2	B-AC3	B-AC4	B-AC5	B-AC6	B-AC7	B-AC8	B-AC9	B-AC10	B-AC11	B-AC12	B-AC13	B-AC14	B-AC15	B-AC16	B-DC1	B-DC2	B-DC3	B-DC4	B-DC5	B-DC6	B-DC7	B-DC8	B-DC9	B-DC10	B-DC11	B-DC12	B-DC13	B-DC14	B-DC15	B-DC16	B-Ph1	B-Ph2	B-Ph3	B-Ph4	B-Ph5	B-Ph6	B-Ph7	B-Ph8	B-Ph9	B-Ph10	B-Ph11	B-Ph12	B-Ph13	B-Ph14	B-Ph15	B-Ph16	

Term	0.00000e+00	0.00000e+00	0.00000e+00	0.00000e+00	0.00000e+00	0.00000e+00	0.00000e+00	0.00000e+00	0.00000e+00	0.00000e+00	0.00000e+00	0.00000e+00	0.00000e+00	0.00000e+00	0.00000e+00	0.00000e+00	0.00000e+00	0.00000e+00	0.00000e+00	0.00000e+00	0.00000e+00	0.00000e+00	0.00000e+00	0.00000e+00	0.00000e+00	0.00000e+00	0.00000e+00	0.00000e+00	0.00000e+00	0.00000e+00	0.00000e+00	0.00000e+00	-2.03808e+02	-1.26914e+02	-1.21665e+02	-1.82284e+02	-9.97973e+01	-6.70612e+01	-1.58386e+02	-1.62015e+02	-9.23245e+01	-5.47240e+01	-1.79153e+02	-1.73355e+02	-1.82277e+02	-1.78265e+02	-9.35483e+01	-1.51023e+02	
Factor	4.16203e-05	1.29908e-04	3.88856e-05	1.52783e-01	1.56517e-06	1.40541e-06	1.69293e-01	4.87466e-02	1.56402e-06	1.54847e-06	1.08150e+00	2.87519e-02	2.79038e-02	8.23139e-03	1.38566e-06	1.17084e-02	2.55365e-06	2.72466e-06	7.60423e-07	8.14313e-02	2.95165e-08	3.00081e-08	8.46997e-02	2.60561e-02	2.96002e-08	2.99262e-08	4.46141e-01	1.47748e-02	1.49295e-02	4.41557e-03	2.97076e-08	6.06583e-03	X	X	X	X	X	X	X	X	X	X	X	X	X	X	X	X	



#DISTANCE SETTINGS
A = Detector Channel
A-1	A-2	A-3	A-4	A-5	A-6	A-7	A-8	A-9	A-10	A-11	A-12	A-13	A-14	A-15	A-16	

2.5000e+00	3.0000e+00	2.5000e+00	3.0000e+00	2.0000e+00	3.0000e+00	1.5000e+00	3.0000e+00	3.0000e+00	3.0000e+00	3.0000e+00	3.0000e+00	3.0000e+00	3.0000e+00	1.5000e+00	3.0000e+00	

B = Detector Channel
B-1	B-2	B-3	B-4	B-5	B-6	B-7	B-8	B-9	B-10	B-11	B-12	B-13	B-14	B-15	B-16	

1.0000e+01	1.0000e+01	1.0000e+01	1.4400e+00	1.0000e+01	1.0000e+01	1.5100e+00	1.9400e+00	1.0000e+01	1.0000e+01	1.9900e+00	2.4900e+00	2.4100e+00	2.9000e+00	1.0000e+01	2.9800e+00	




#DATA BEGINS
time	group	step	mark	flag	A-AC1	A-AC2	A-AC3	A-AC4	A-AC5	A-AC6	A-AC7	A-AC8	A-AC9	A-AC10	A-AC11	A-AC12	A-AC13	A-AC14	A-AC15	A-AC16	A-DC1	A-DC2	A-DC3	A-DC4	A-DC5	A-DC6	A-DC7	A-DC8	A-DC9	A-DC10	A-DC11	A-DC12	A-DC13	A-DC14	A-DC15	A-DC16	A-Ph1	A-Ph2	A-Ph3	A-Ph4	A-Ph5	A-Ph6	A-Ph7	A-Ph8	A-Ph9	A-Ph10	A-Ph11	A-Ph12	A-Ph13	A-Ph14	A-Ph15	A-Ph16	B-AC1	B-AC2	B-AC3	B-AC4	B-AC5	B-AC6	B-AC7	B-AC8	B-AC9	B-AC10	B-AC11	B-AC12	B-AC13	B-AC14	B-AC15	B-AC16	B-DC1	B-DC2	B-DC3	B-DC4	B-DC5	B-DC6	B-DC7	B-DC8	B-DC9	B-DC10	B-DC11	B-DC12	B-DC13	B-DC14	B-DC15	B-DC16	B-Ph1	B-Ph2	B-Ph3	B-Ph4	B-Ph5	B-Ph6	B-Ph7	B-Ph8	B-Ph9	B-Ph10	B-Ph11	B-Ph12	B-Ph13	B-Ph14	B-Ph15	B-Ph16	aux-1	digaux	

1671.560	1	1	0	256	0.12008	0.19696	0.18335	0.24849	0.31171	0.11115	0.17852	0.22738	0.27307	0.068645	0.067675	0.16103	0.24567	0.096044	0.41105	0.38267	-0.88542	-1.3583	-0.85417	-1.9438	-1.1542	-0.86458	-1.8667	-0.97708	-1.4125	-1.5896	-0.73333	-1.6167	-1.3104	-0.99792	-1.6979	-0.9875	-0.743	218.907	53.256	299.235	315.751	56.058	283.362	55.131	3.404	273.779	318.197	69.056	297.309	101.641	192.154	302.126	0.00059747	0.00062699	0.00015449	897.93	6.4286e-06	3.3226e-06	1637.8	174.44	6.538e-06	3.6708e-06	382.86	149.04	52.84	15.541	5.7585e-06	55.71	0.00066574	0.00067863	0.00018839	840.17	7.3993e-06	7.4323e-06	1516.1	164.92	7.4231e-06	7.4165e-06	392.73	139.6	51.505	15.265	7.4588e-06	52.396	57.289	64.491	207.128	11.408	150.419	57.813	12.836	16.676	110.388	256.028	17.723	21.495	20.610	23.997	154.173	24.454	-8191	255	
1671.654	1	1	0	0	0.26667	0.30295	0.20569	0.029096	0.13798	0.20682	0.29257	0.17695	0.40438	0.078892	0.026638	0.15745	0.34014	0.1596	0.099589	0.18561	-1.0708	-1.6354	-0.75833	-1.5917	-1.3521	-0.82292	-1.9729	-1.2667	-1.1667	-1.5938	-0.76042	-1.5562	-1.425	-0.80417	-1.7375	-1.15	36.710	289.059	114.622	16.696	175.344	115.254	318.482	4.275	295.697	143.607	335.602	36.613	90.672	245.686	153.242	240.353	0.00055309	0.00030714	0.00016761	909.19	6.2808e-06	6.6726e-06	1646	175.99	5.1076e-06	7.7492e-06	387.35	150.33	53.438	15.683	6.2793e-06	56.179	0.00069156	0.00068841	0.00019523	849.44	7.3511e-06	7.6588e-06	1530.1	166.46	7.6171e-06	7.7083e-06	398.67	140.83	52.069	15.487	7.9496e-06	52.97	64.292	101.189	51.170	11.892	173.405	79.784	12.789	15.982	89.299	134.322	16.837	21.511	21.227	24.219	38.144	24.799	-8191	255	
1671.727	1	1	0	0	0.10943	0.14073	0.12086	0.07442	0.059804	0.27002	0.35165	0.27656	0.025799	0.1661	0.022893	0.56249	0.25853	0.20164	0.099382	0.021615	-0.53958	-1.6667	-0.79375	-1.6396	-1.525	-0.79583	-1.9917	-1.1667	-0.89583	-1.7437	-0.81458	-1.5542	-1.5312	-0.78333	-1.7833	-1.1812	160.716	246.667	196.028	93.693	64.907	252.038	333.061	263.653	51.688	49.123	271.491	273.899	38.508	39.554	134.479	336.202	0.00069111	0.00051423	0.0003946	907.27	3.6076e-06	1.0538e-05	1650.5	173.49	5.2936e-06	7.1788e-06	379.63	148.85	53.31	15.652	1.0678e-05	55.658	0.00072505	0.00072777	0.00020152	846.83	7.6763e-06	7.712e-06	1526.5	165.07	7.693e-06	7.7508e-06	395.92	139.55	51.682	15.286	7.5348e-06	52.311	53.254	143.451	49.182	11.951	238.817	159.105	12.513	16.276	75.726	160.744	17.545	21.286	21.083	24.341	102.864	24.419	-8191	255	
1671.846	1	1	0	0	0.37669	0.12159	0.26883	0.11582	0.19666	0.17761	0.10662	0.27388	0.13592	0.20493	0.39868	0.21861	0.21433	0.09078	0.19665	0.12303	-0.52708	-1.725	-0.85417	-1.5208	-1.5	-0.81042	-1.6583	-1.3292	-0.83542	-1.55	-0.98333	-1.5042	-1.5688	-0.85208	-1.4729	-1.4188	167.861	203.652	200.233	54.969	163.138	272.774	258.650	10.133	13.342	145.995	318.804	196.714	197.153	79.122	116.241	291.067	0.0006011	9.9409e-05	0.00010315	907.84	3.2286e-06	3.3827e-06	1638.5	174.71	1.0058e-05	2.1061e-06	384.2	150.73	52.902	15.702	1.1001e-06	56.147	0.00068961	0.00069269	0.00019202	843.82	7.2948e-06	7.3874e-06	1523.6	165.27	7.2096e-06	7.3563e-06	390.39	140.65	51.578	15.365	7.0586e-06	52.651	59.592	336.280	56.363	11.890	64.027	251.828	12.522	15.888	219.483	263.212	16.297	21.035	21.345	24.696	74.968	24.747	-8191	255	
1671.942	1	1	0	0	0.17167	0.3472	0.30347	0.27273	0.16321	0.20048	0.13985	0.22348	0.20462	0.16916	0.1396	0.15366	0.1226	0.17702	0.075999	0.13918	-0.54167	-1.8375	-0.89583	-1.3604	-1.7708	-0.72708	-1.8917	-1.4125	-1.0958	-1.6229	-1.0833	-1.0271	-1.5583	-0.74167	-1.4229	-1.4312	350.748	173.556	87.411	281.514	79.071	15.987	357.851	3.981	191.195	226.783	134.134	313.026	350.989	206.322	244.423	3.755	0.00083624	0.00069694	0.00015139	916.82	9.0067e-06	6.7371e-06	1664.8	176.5	4.7623e-06	3.0709e-06	397.3	151.26	54.61	16.036	4.4874e-06	56.88	0.00064395	0.00064811	0.00017854	853.2	6.8676e-06	7.1117e-06	1540.5	167.75	6.9223e-06	7.079e-06	391.45	141.74	52.546	15.631	6.9153e-06	53.438	63.606	18.825	120.471	11.877	153.596	164.351	12.645	16.156	156.648	265.511	17.521	20.816	20.707	24.262	164.045	24.637	-8191	255	
1672.039	1	1	0	0	0.33669	0.10835	0.16212	0.13008	0.098312	0.18993	0.27911	0.22039	0.22625	0.20524	0.11601	0.32201	0.17857	0.12843	0.12111	0.055993	-0.44167	-1.5438	-1.0667	-1.1021	-1.6104	-1.0458	-1.5146	-1.7479	-0.55417	-1.7854	-1.1917	-1.0688	-1.6729	-0.84583	-1.1688	-1.6042	259.658	291.583	330.229	242.784	242.977	352.058	285.840	338.752	98.539	-1.398	313.378	16.672	342.913	171.883	47.446	310.640	0.00072037	0.00058736	3.7319e-05	923.93	8.6275e-06	5.9768e-06	1672.3	178.62	2.5981e-06	6.2585e-07	400.99	151.58	53.633	15.825	2.1318e-06	56.435	0.00063599	0.00063987	0.00017972	858.6	6.9639e-06	6.915e-06	1546.9	169.28	6.8932e-06	6.9864e-06	389.53	141.42	51.997	15.393	6.977e-06	52.882	51.972	60.515	310.867	11.552	216.465	115.443	12.605	16.024	294.607	130.056	16.466	20.934	21.160	23.894	231.146	24.672	-8191	255	
1672.159	1	1	0	0	0.28941	0.093573	0.24484	0.34236	0.068169	0.44273	0.22256	0.12023	0.18497	0.25756	0.068268	0.16667	0.11682	0.069454	0.22193	0.065299	-0.42292	-1.3104	-1.1417	-0.95208	-1.525	-0.85417	-1.4688	-1.625	-0.82917	-1.5375	-1.5375	-0.92292	-1.8792	-1.1021	-0.97083	-1.7625	143.553	284.170	45.758	301.332	74.003	192.199	282.449	209.132	248.551	124.953	344.151	233.417	20.892	121.995	205.030	213.436	0.00084815	0.0006088	0.00010021	914.86	7.6142e-06	5.2005e-06	1650.4	176.27	8.9731e-06	1.0208e-05	384	150.7	53.581	15.757	8.8241e-06	56.476	0.00063391	0.00063394	0.00017278	850	6.8617e-06	6.8724e-06	1529.8	166.88	6.7385e-06	6.6391e-06	378.73	140.91	51.515	15.313	6.5224e-06	52.837	55.602	148.549	54.747	11.473	142.257	243.596	12.687	16.004	111.857	210.503	17.147	21.441	20.586	24.477	162.785	24.592	-8191	255	
1672.255	1	1	0	0	0.19711	0.18506	0.16312	0.38443	0.12619	0.3376	0.099296	0.080345	0.21851	0.10164	0.12269	0.21899	0.131	0.19341	0.039561	0.1067	-0.37917	-1.5292	-1.3979	-0.95625	-1.825	-1.2188	-1.1729	-1.7938	-0.85625	-1.3583	-1.5604	-0.90625	-1.4	-1.1313	-1.0042	-1.8875	254.242	113.728	174.863	352.757	76.459	57.781	251.075	239.819	131.439	130.360	356.539	280.746	276.303	165.397	35.780	240.843	0.00063114	0.00047361	0.00012554	911.15	8.3695e-06	3.7876e-06	1652	176.66	3.1847e-06	1.3355e-05	377.99	151.01	53.603	15.859	5.7853e-06	55.949	0.00060688	0.00059614	0.00016298	848.25	6.4078e-06	6.5256e-06	1530.9	166.63	6.452e-06	6.5439e-06	377.59	140.49	51.736	15.385	6.3189e-06	52.593	68.813	99.101	37.760	11.797	173.440	134.840	12.643	16.453	40.154	116.408	16.082	21.275	21.100	23.946	73.353	24.541	-8191	255	
1672.352	1	1	0	0	0.24124	0.0869	0.14109	0.26382	0.13774	0.13525	0.31037	0.13904	0.14117	0.12054	0.24715	0.18583	0.12016	0.15269	0.21255	0.10865	-0.46042	-1.1396	-1.5958	-0.91667	-1.65	-1.1333	-1.0646	-1.6792	-0.8	-1.1917	-1.7604	-0.75	-1.5125	-1.4458	-0.93125	-1.7042	142.555	207.014	48.106	279.793	130.179	22.975	268.188	42.394	46.818	141.141	258.826	106.031	202.644	87.260	40.049	184.884	0.0008576	0.00092367	0.00023289	916.45	6.5827e-06	3.9896e-06	1659.6	176.59	2.3687e-07	7.4939e-06	384.73	150.57	53.225	15.781	6.6247e-06	56.327	0.00059483	0.00058551	0.00016194	854.39	6.3938e-06	6.3679e-06	1539.6	166.57	6.3529e-06	6.3384e-06	378.71	140.57	51.464	15.193	6.3093e-06	52.451	66.588	221.360	196.471	11.606	302.580	176.410	12.688	16.012	137.113	132.064	15.748	21.306	21.130	24.321	76.364	24.878	-8191	255	
1672.423	1	1	0	0	0.17967	0.11616	0.15589	0.24962	0.26155	0.11002	0.29029	0.17168	0.048647	0.25884	0.34137	0.12151	0.069551	0.077038	0.098139	0.28504	-0.67292	-1.0375	-1.5542	-0.92083	-1.3604	-1.3333	-1.0625	-1.6271	-0.83542	-1.0854	-1.6146	-0.86667	-1.6333	-1.5729	-0.76875	-1.8729	287.733	91.734	203.077	298.486	290.915	140.989	337.175	317.989	228.966	2.092	150.994	282.709	80.133	33.768	347.380	317.031	0.00030765	0.00080662	7.615e-05	920.04	5.1117e-06	2.2231e-06	1654	175.27	1.9831e-06	5.4701e-06	380.02	150.48	53.655	15.525	1.1613e-05	55.776	0.00056844	0.00057117	0.00015925	851.66	6.134e-06	6.2266e-06	1530.4	165.21	6.1374e-06	6.207e-06	372.5	140.23	51.447	15.069	6.2158e-06	52.156	73.021	109.631	200.227	11.532	60.355	335.711	12.623	16.195	102.100	175.922	16.338	20.814	21.387	24.514	169.633	25.078	-8191	255	
1672.542	1	1	0	0	0.074134	0.24629	0.07023	0.12864	0.074817	0.24501	0.017002	0.049914	0.34377	0.10373	0.078311	0.37968	0.268	0.092618	0.083356	0.062282	-0.64583	-1.025	-1.7021	-0.95	-1.4	-1.6021	-1.0542	-1.7917	-1.1354	-0.96458	-1.5979	-0.99792	-1.2021	-1.4062	-0.90625	-1.6542	167.261	294.341	179.608	279.161	76.480	330.904	182.943	7.370	9.959	283.996	198.853	8.907	237.385	1.591	324.204	57.964	0.000836	0.00085209	0.0001233	920.14	5.2973e-06	8.224e-06	1661.4	175.02	2.4302e-06	4.9225e-06	390.41	151.12	53.779	15.886	6.0175e-06	56.027	0.00056602	0.00057329	0.00015855	853.53	6.2651e-06	6.3068e-06	1534.4	165.76	6.3521e-06	6.3712e-06	377.31	140.17	51.792	15.299	6.4229e-06	52.402	57.625	67.629	261.936	11.657	16.655	208.534	12.628	16.192	338.112	316.735	17.928	21.603	21.430	24.152	174.791	24.870	-8191	255	
1672.638	1	1	0	0	0.068561	0.25955	0.31416	0.1779	0.25084	0.22812	0.34273	0.023572	0.1031	0.1454	0.10311	0.078049	0.064409	0.31599	0.11533	0.15325	-0.725	-0.82292	-1.6708	-1.175	-1.2083	-1.4333	-1.025	-1.6479	-1.3229	-0.81458	-1.6979	-0.98333	-1.1938	-1.5604	-0.88333	-1.6208	200.541	81.594	322.656	315.705	39.115	314.771	316.155	199.831	156.507	16.091	107.687	179.068	310.899	18.696	5.932	102.047	0.00092267	0.00010273	0.00034246	922.79	1.0834e-05	3.6241e-06	1662.7	175.95	7.2858e-06	1.3149e-06	389.01	150.3	54.147	15.982	1.7803e-06	56.112	0.00058794	0.00058493	0.00016608	858.73	6.4554e-06	6.4272e-06	1539	166.78	6.4118e-06	6.5386e-06	382.26	140.87	51.911	15.378	6.5171e-06	52.499	54.941	13.052	145.492	11.668	120.154	119.893	12.495	16.366	68.291	224.180	17.411	21.700	21.431	24.439	65.541	24.652	-8191	255	
1672.734	1	1	0	0	0.1122	0.033256	0.06846	0.13311	0.16574	0.32636	0.44379	0.12082	0.087036	0.13052	0.24042	0.3414	0.18508	0.065306	0.14056	0.13683	-0.81042	-0.90833	-1.5917	-1.3208	-1.0375	-1.6104	-1.2458	-1.5896	-1.4354	-0.62083	-1.7563	-1.3479	-1.0458	-1.7104	-0.81458	-1.4792	75.797	304.551	353.046	223.940	174.722	255.201	281.091	171.441	42.227	332.857	155.540	321.211	59.737	209.168	30.798	0.131	0.00067437	0.00068399	7.1035e-05	923	7.6909e-06	6.4698e-06	1649.1	176.49	8.1614e-06	1.0213e-05	394.32	150.6	53.442	15.808	2.5849e-06	55.637	0.00057291	0.00056865	0.00016291	858.75	6.4246e-06	6.3873e-06	1532.8	166.55	6.3503e-06	6.4434e-06	381.5	140.16	51.685	15.333	6.3376e-06	52.395	57.986	114.782	62.958	11.885	148.677	319.939	12.632	16.559	234.178	201.496	17.612	21.073	21.091	24.513	347.111	24.793	-8191	255	
1672.831	1	1	0	0	0.14301	0.17635	0.16261	0.14628	0.044407	0.063641	0.14463	0.090177	0.12516	0.12133	0.088964	0.20032	0.15853	0.11444	0.087889	0.14177	-1.1896	-0.9125	-1.6208	-1.4729	-0.81875	-1.7896	-1.2938	-1.3083	-1.7188	-0.67917	-1.6146	-1.4188	-1.1521	-1.9375	-0.75	-1.3312	216.182	162.508	293.185	37.295	112.312	255.224	334.727	254.812	171.009	330.305	345.941	242.160	265.215	213.472	24.578	293.574	0.0008387	0.00020656	7.2087e-05	924.6	4.2463e-06	4.731e-06	1666.8	175.31	1.0217e-05	8.2839e-06	396.59	150.69	54.487	16.007	4.1546e-06	56.204	0.00057674	0.0005845	0.0001649	860.03	6.3609e-06	6.5603e-06	1539.6	166.62	6.4771e-06	6.5038e-06	380.01	140.92	52.302	15.457	6.5246e-06	52.763	64.437	260.277	48.833	11.464	161.080	133.228	12.821	15.886	150.794	162.102	17.558	20.869	21.173	24.429	72.216	24.358	-8191	255	
1672.951	1	1	0	0	0.21297	0.27716	0.10843	0.1313	0.09765	0.13739	0.1391	0.12438	0.14207	0.19985	0.22913	0.034101	0.20478	0.19848	0.28739	0.16383	-1.1958	-0.75625	-1.725	-1.475	-0.83958	-1.6042	-1.2854	-1.1333	-1.6208	-0.75	-1.4542	-1.6	-0.63333	-1.5938	-0.93333	-1.1083	306.945	130.663	173.946	285.365	76.258	42.675	311.735	155.110	184.404	75.061	269.266	272.092	276.371	85.906	145.853	148.603	0.0007287	0.00064917	0.00024106	929.12	2.133e-06	9.7087e-06	1676	178.17	1.0352e-05	5.3949e-06	384.59	151.61	55.128	16.017	2.693e-06	56.492	0.00060986	0.00060045	0.00016998	863.59	6.5177e-06	6.6899e-06	1546.1	168.5	6.5613e-06	6.616e-06	379.72	141.52	52.709	15.574	6.4682e-06	52.939	68.614	114.347	128.261	11.626	232.431	228.625	12.550	16.294	89.829	162.790	17.822	21.344	21.109	24.557	214.675	24.939	-8191	255	
1673.023	1	1	0	0	0.30498	0.10805	0.3167	0.21429	0.094883	0.12993	0.3783	0.12916	0.14834	0.15269	0.17778	0.18245	0.1746	0.15449	0.08307	0.39601	-1.0917	-0.89167	-1.3687	-1.5958	-0.75	-1.7563	-1.3396	-1.0479	-1.625	-0.78125	-1.25	-1.6688	-0.81667	-1.5875	-1.1021	-0.88542	83.924	54.603	232.748	310.802	153.081	245.062	328.532	332.536	337.471	285.840	76.002	280.452	334.735	290.808	174.858	293.253	0.00073309	0.00073224	0.00020292	925.54	7.7679e-06	7.4995e-06	1652.3	176.57	1.1052e-05	7.6784e-06	390.13	149.65	53.709	15.8	2.9391e-06	56.191	0.00060841	0.0006026	0.00016816	861.35	6.4248e-06	6.5484e-06	1536.7	167.14	6.5459e-06	6.7265e-06	379.55	140.41	51.852	15.392	6.4041e-06	52.535	72.832	120.575	63.992	11.637	345.633	34.504	12.494	16.249	63.553	146.306	16.199	20.524	20.744	24.099	312.318	24.343	-8191	255	
1673.119	1	1	0	0	0.053603	0.33819	0.24958	0.2601	0.15225	0.26721	0.18827	0.16972	0.066078	0.053067	0.17337	0.1105	0.23384	0.26457	0.0615	0.21286	-1.3042	-0.92083	-1.1583	-1.7375	-0.88542	-1.7729	-1.4479	-0.67708	-1.5625	-0.91458	-1.0812	-1.8583	-0.82917	-1.6187	-1.4042	-0.89583	42.533	61.556	126.040	63.246	286.730	263.229	339.262	285.414	68.930	296.815	177.129	331.229	30.569	221.232	277.811	303.253	0.00066426	0.00056413	0.00016845	922.47	1.3891e-05	6.7591e-06	1648.1	176.02	5.5928e-06	3.8995e-06	393.73	150.16	53.824	15.947	4.2501e-06	55.818	0.00058995	0.00059128	0.00016423	856.43	6.53e-06	6.523e-06	1527.1	166.35	6.5144e-06	6.578e-06	380.5	140.59	52.016	15.398	6.4368e-06	52.318	57.929	54.417	61.940	11.332	137.021	96.329	11.943	16.249	110.161	6.904	16.972	21.155	20.969	24.087	111.033	24.514	-8191	255	
1673.240	1	1	0	0	0.1325	0.097224	0.089309	0.25964	0.21267	0.11885	0.19572	0.32374	0.13777	0.092854	0.23776	0.29525	0.14919	0.23472	0.035818	0.1621	-1.15	-0.90833	-1.1437	-1.8125	-0.80417	-1.4604	-1.8312	-0.97917	-1.5979	-1.0688	-0.88333	-1.8563	-0.72083	-1.2188	-1.3021	-0.85208	133.551	242.634	152.973	11.969	70.115	106.623	320.132	225.144	248.231	301.213	189.578	248.061	237.356	245.216	5.404	317.138	0.00063936	9.4886e-05	2.9759e-05	928.29	1.2014e-05	3.5962e-06	1665	177.69	9.2606e-07	6.0131e-06	381.98	151.24	55.064	15.772	8.5716e-06	56.126	0.00059403	0.00059532	0.0001638	862.73	6.5663e-06	6.594e-06	1541.2	167.65	6.4341e-06	6.5112e-06	377.3	141.59	52.862	15.431	6.5229e-06	52.634	47.644	216.213	251.345	11.354	90.875	210.214	11.926	16.132	62.349	123.347	16.797	21.243	20.091	23.944	111.145	24.132	-8191	255	
1673.336	1	1	0	0	0.18269	0.21566	0.47401	0.17801	0.10683	0.14122	0.27761	0.11199	0.28623	0.32702	0.16591	0.16632	0.073017	0.044789	0.13586	0.32033	-1.0375	-1.1333	-1.0146	-1.7708	-0.81042	-1.175	-1.7521	-0.93125	-1.4625	-1.15	-0.96042	-1.7437	-0.95	-1.1437	-1.6375	-0.85833	69.406	226.912	119.467	353.196	14.179	135.143	214.053	345.865	151.807	20.474	290.399	2.277	291.495	70.096	126.728	317.147	0.00076532	0.00027853	0.00017692	935.56	5.5622e-06	7.6308e-06	1669.9	177.08	6.4428e-06	6.5717e-06	387.56	150.8	54.186	15.678	6.5519e-06	54.982	0.00060268	0.00058527	0.00016432	870.5	6.3193e-06	6.462e-06	1544.7	167.38	6.5597e-06	6.3944e-06	379.07	140.62	51.978	15.228	6.407e-06	51.733	47.007	330.123	19.528	11.345	136.002	130.240	12.064	15.641	117.184	67.746	17.357	21.211	20.267	23.846	86.925	24.245	-8191	255	
1673.432	1	1	0	0	0.056304	0.40382	0.16594	0.31515	0.14193	0.073811	0.17721	0.126	0.16239	0.089243	0.1524	0.12131	0.05174	0.031257	0.097519	0.089217	-0.98333	-1.3458	-0.75833	-1.8771	-0.99583	-0.94583	-1.7812	-0.93333	-1.4438	-1.3354	-0.93542	-1.6667	-1.0729	-1.0229	-1.7021	-0.75	150.992	221.466	281.515	307.181	243.664	215.052	273.256	-0.105	161.648	258.902	213.992	55.315	128.100	46.362	175.986	283.611	0.00051014	0.0006298	0.00018479	931.75	1.0166e-05	3.033e-06	1653.4	177.14	3.6432e-06	4.8912e-06	384.22	150.47	53.597	15.761	5.9937e-06	55.14	0.00059204	0.00058417	0.0001643	868.11	6.327e-06	6.4966e-06	1533.1	167.01	6.4161e-06	6.2725e-06	378.69	140.21	51.812	15.227	6.517e-06	51.554	67.862	76.660	99.715	11.203	116.782	127.406	12.450	16.182	90.972	218.722	17.423	20.931	20.354	24.408	126.502	24.301	-8191	255	
1673.528	1	1	0	0	0.12664	0.082537	0.11463	0.36435	0.23982	0.22518	0.10907	0.10559	0.1054	0.081113	0.27672	0.22236	0.13084	0.085508	0.31269	0.24447	-0.83125	-1.4729	-0.72083	-1.5854	-1.0646	-0.91458	-1.8417	-0.75417	-1.2396	-1.6542	-0.8375	-1.7021	-1.1875	-0.78333	-1.8937	-1.075	313.659	167.926	158.970	337.464	76.122	21.746	45.835	226.366	295.138	253.737	39.122	297.206	112.939	222.149	303.952	64.403	0.0005262	0.00076449	0.00015276	941.02	1.1711e-05	2.8899e-06	1663.3	179.07	1.1076e-05	4.8049e-06	388.75	151.42	54.048	15.808	1.6208e-06	55.67	0.00059881	0.0005924	0.0001673	871.69	6.3817e-06	6.5818e-06	1539.4	168.21	6.4266e-06	6.5398e-06	386.33	141.23	52.362	15.413	6.4541e-06	52.245	58.330	187.974	164.382	11.369	108.527	76.541	12.420	15.966	145.411	89.499	17.106	21.064	20.717	24.680	20.511	24.556	-8191	255	
1673.622	1	1	0	0	0.10111	0.28987	0.12032	0.10635	0.30395	0.24403	0.14817	0.2005	0.055829	0.15544	0.061836	0.23954	0.22711	0.14201	0.1631	0.1878	-0.69375	-1.6396	-0.70625	-1.6979	-1.1333	-1.0021	-1.9604	-1.025	-1.1396	-1.6083	-0.80208	-1.6396	-1.1604	-0.74792	-1.5125	-1.2729	37.619	17.296	189.071	28.271	50.527	251.287	267.548	258.882	251.446	309.014	348.562	344.854	8.396	160.152	163.462	280.746	0.00059771	0.00049888	5.2524e-05	945.99	1.4152e-05	3.2749e-06	1673.8	180.43	1.3309e-06	3.4954e-06	396.66	151.65	54.306	15.969	5.5505e-06	55.641	0.00059941	0.00060195	0.00016901	881.61	6.5576e-06	6.6239e-06	1546.5	169.99	6.55e-06	6.5858e-06	386.02	141.21	52.638	15.464	6.4454e-06	52.138	70.443	230.763	105.705	11.513	180.028	226.596	12.459	16.073	214.124	266.496	16.783	20.916	20.597	24.037	125.337	24.025	-8191	255	
1673.719	1	1	0	0	0.067286	0.039397	0.092753	0.13809	0.27846	0.092424	0.36308	0.15812	0.19664	0.037998	0.19744	0.17932	0.21894	0.22274	0.064246	0.17104	-0.625	-1.7313	-0.80833	-1.4521	-1.3125	-0.79792	-1.9083	-1.2583	-1.0375	-1.7104	-0.98333	-1.4979	-1.6479	-0.86042	-1.5521	-1.35	157.039	51.588	41.290	223.841	243.862	96.739	287.808	265.942	292.926	59.794	312.940	306.949	20.111	67.713	293.043	303.163	0.00072146	0.00049734	0.00014495	940.94	7.5091e-06	7.0782e-06	1662.5	178.12	3.236e-06	9.6956e-06	380.83	150.39	54.703	15.904	1.3458e-05	55.478	0.00059459	0.00059542	0.00016829	873.3	6.4339e-06	6.4993e-06	1538.7	168.28	6.5687e-06	6.4911e-06	384.02	140.75	52.363	15.334	6.5413e-06	51.965	84.038	141.000	153.980	11.334	165.924	23.706	12.167	16.331	278.578	68.923	17.668	20.913	21.100	23.769	89.575	24.142	-8191	255	
1673.839	1	1	0	0	0.043095	0.13791	0.012676	0.15315	0.18394	0.11228	0.34169	0.39081	0.22092	0.12488	0.17863	0.2791	0.13857	0.08548	0.18196	0.1335	-0.74792	-1.7167	-0.88958	-1.4833	-1.5125	-0.86042	-1.7437	-1.3292	-0.97708	-1.7104	-0.92292	-1.1792	-1.6812	-0.85208	-1.6875	-1.5562	297.855	16.639	350.123	278.743	66.120	92.614	266.074	157.807	29.574	76.850	187.432	313.804	17.797	272.794	168.639	311.815	0.00053073	5.7969e-05	8.0066e-06	935.22	3.866e-06	8.4075e-06	1661.5	177.81	1.1108e-05	6.2348e-06	394.08	150.87	54.61	15.78	4.5207e-06	55.434	0.00058842	0.00060451	0.00016828	869.8	6.4982e-06	6.5738e-06	1536.7	168.39	6.6178e-06	6.5034e-06	381.98	141.24	52.442	15.352	6.5828e-06	52.039	52.278	180.218	13.484	11.588	95.875	104.978	12.600	15.724	182.744	39.728	16.941	21.313	20.545	23.838	172.988	24.450	-8191	255	
1673.935	1	1	0	0	0.10175	0.29418	0.38663	0.15755	0.17691	0.29551	0.20874	0.11374	0.070618	0.21967	0.19064	0.097068	0.14875	0.23453	0.25254	0.14488	-0.3125	-1.7062	-0.89583	-1.3125	-1.6083	-0.7125	-1.6646	-1.4813	-0.68333	-1.5438	-1.1063	-1.0271	-1.8021	-0.90833	-1.3771	-1.4354	183.360	145.310	357.555	32.665	165.944	37.979	291.695	91.493	260.108	276.778	193.924	77.479	202.073	31.833	231.753	280.328	0.0007399	0.00084617	9.3081e-05	937.88	8.3856e-06	4.2609e-06	1679.6	179.96	6.9944e-06	1.066e-05	388.7	152	54.694	15.834	3.4419e-06	55.118	0.00059625	0.00060037	0.00016588	875.79	6.4988e-06	6.7004e-06	1548.6	169.32	6.6921e-06	6.6641e-06	383.4	141.35	52.548	15.332	6.5743e-06	51.912	57.193	62.823	47.832	11.615	222.144	141.598	12.584	15.790	92.110	259.118	18.494	21.380	19.998	24.764	138.168	24.343	-8191	255	
1674.032	1	1	0	0	0.21382	0.29839	0.060293	0.2363	0.063454	0.13197	0.27317	0.078537	0.11497	0.086255	0.1697	0.39302	0.19694	0.086043	0.077863	0.28749	-0.38542	-1.6646	-1.1167	-1.1271	-1.6396	-0.92917	-1.3625	-1.5646	-0.80208	-1.4604	-1.2521	-0.975	-1.8583	-0.75625	-1.425	-1.7458	131.308	17.411	22.773	11.527	113.424	89.591	319.443	83.675	7.402	204.391	137.347	352.139	218.168	104.526	121.313	346.632	0.00063348	0.00040904	0.00016426	936.86	5.8167e-06	1.4492e-05	1646.5	177.5	3.3158e-06	5.0392e-06	377.43	149.3	53.547	15.608	7.3886e-06	54.844	0.00061996	0.00060006	0.00016917	869.35	6.7152e-06	6.7708e-06	1530.9	168.11	6.75e-06	6.8339e-06	382.22	139.8	52.062	15.211	6.8048e-06	51.464	83.198	174.029	343.760	11.330	131.171	185.372	12.509	16.109	156.961	128.863	15.899	21.208	20.878	24.078	105.308	24.259	-8191	255	
1674.128	1	1	0	0	0.20622	0.11891	0.41744	0.31122	0.19834	0.12222	0.16321	0.12918	0.085036	0.10076	0.30295	0.012917	0.17857	0.11934	0.16119	0.052271	-0.32292	-1.4667	-1.1792	-1.0271	-1.625	-0.94167	-1.3625	-1.7042	-0.60625	-1.4979	-1.3687	-1.1104	-1.7604	-0.8875	-1.1313	-1.8875	270.260	10.734	284.680	291.195	238.663	266.935	252.007	1.322	212.961	207.020	123.219	78.580	20.448	45.184	258.182	174.601	0.00044589	0.00063301	2.4623e-05	928.45	4.5e-06	3.029e-06	1645.9	177.56	4.8676e-06	9.2523e-06	392.83	148.5	53.853	15.558	4.4892e-06	54.499	0.0006341	0.00063277	0.00017604	865.5	6.9418e-06	6.9785e-06	1524.6	167.98	6.9836e-06	6.9898e-06	388.12	139.17	51.9	15.119	6.7918e-06	51.408	74.740	107.017	196.055	11.392	337.157	233.254	12.806	16.410	77.177	218.393	15.756	21.222	21.149	24.650	150.319	24.549	-8191	255	
1674.248	1	1	0	0	0.31739	0.13006	0.086938	0.17252	0.28757	0.19027	0.2172	0.26364	0.2264	0.044741	0.054285	0.18017	0.33597	0.06153	0.11014	0.3924	-0.47917	-1.4729	-1.4562	-0.95833	-1.6042	-1.2083	-1.2417	-1.8875	-0.88333	-1.2979	-1.3542	-0.975	-1.6146	-1.1792	-1.0312	-1.8583	43.924	299.310	19.831	20.804	233.743	287.635	315.819	335.540	236.394	266.327	137.141	42.447	336.276	46.437	83.565	279.229	0.00075421	0.00019007	0.00013372	931.54	6.3508e-06	3.6811e-06	1653	176.53	2.4568e-06	2.5592e-06	385.81	149.53	53.988	15.505	6.0894e-06	55.323	0.00063317	0.00062913	0.00017714	865.68	6.7542e-06	6.8914e-06	1531.1	167.88	6.7904e-06	6.7944e-06	387	140.24	52.306	15.206	6.8703e-06	51.705	64.380	39.480	138.844	11.453	94.377	0.388	12.277	16.524	217.650	158.392	16.838	21.174	21.011	24.564	131.111	24.310	-8191	255	
1674.320	1	1	0	0	0.16442	0.10294	0.29422	0.25737	0.2374	0.1901	0.2277	0.23681	0.16904	0.12764	0.35261	0.30122	0.11134	0.094753	0.31145	0.43109	-0.30208	-1.3125	-1.5104	-0.98958	-1.5333	-1.2708	-1.225	-1.7583	-0.91458	-1.4188	-1.8687	-0.98542	-1.5854	-1.5354	-0.81042	-1.875	273.969	56.248	219.777	333.782	315.016	112.720	271.093	213.070	329.371	4.592	93.598	324.574	326.320	91.945	281.675	294.523	0.00058816	0.00068117	0.00029715	932.78	4.6872e-06	1.2167e-05	1652.1	177.11	8.3263e-06	1.8472e-06	385.09	148.51	54.153	15.503	7.3567e-06	54.699	0.00061464	0.00062177	0.00017055	866.28	6.675e-06	6.6672e-06	1529.4	167.18	6.7433e-06	6.8101e-06	382.7	139.12	52.009	15.108	6.81e-06	51.275	53.482	112.049	108.527	11.838	209.143	135.990	12.382	16.339	189.093	81.166	16.457	21.461	21.124	23.723	133.229	24.234	-8191	255	
1674.416	1	1	0	0	0.20661	0.29194	0.16603	0.16253	0.1549	0.24498	0.36012	0.12949	0.080961	0.15124	0.12627	0.38737	0.12007	0.053352	0.20473	0.3765	-0.47917	-1.2938	-1.7375	-0.80417	-1.4312	-1.5229	-1.0187	-1.7521	-1.0417	-1.15	-1.55	-0.82083	-1.7354	-1.3854	-0.80417	-1.6979	82.548	164.431	39.596	4.601	28.526	34.956	293.006	334.263	156.979	293.532	350.501	344.121	301.302	63.097	81.194	308.617	0.00079705	0.00041551	0.00020872	925.64	6.2168e-06	6.9718e-06	1645.2	176.1	1.142e-05	3.6196e-06	381.18	149.42	53.546	15.467	9.1849e-06	54.816	0.00062632	0.00062366	0.00017525	861.66	6.7277e-06	6.8357e-06	1524.7	166.95	6.774e-06	6.953e-06	384.92	139.66	51.747	15.156	7.0775e-06	51.46	61.974	55.418	221.730	11.662	71.926	176.967	12.685	16.399	93.549	152.665	17.435	21.521	21.647	24.864	111.750	24.503	-8191	255	
1674.512	1	1	0	0	0.086861	0.26802	0.15965	0.11014	0.19996	0.15778	0.18287	0.26642	0.15438	0.0065888	0.12921	0.232	0.17079	0.28325	0.24347	0.23604	-0.81875	-1.1021	-1.6812	-0.84375	-1.3417	-1.475	-1.0292	-1.6083	-1.0375	-0.98542	-1.7021	-0.99167	-1.3104	-1.475	-0.90417	-1.625	102.380	287.686	284.961	181.688	331.404	337.668	312.581	319.701	319.302	169.242	94.055	321.942	8.633	30.134	168.793	262.121	0.00075345	0.00088466	0.00033451	933.6	1.2463e-05	6.2927e-06	1645.5	175.81	4.4949e-06	3.3984e-06	389.38	148.71	53.939	15.807	2.777e-06	55.494	0.00062756	0.0006569	0.00018176	866.72	7.0535e-06	7.198e-06	1531.2	167.46	7.1932e-06	7.3514e-06	394.62	139.87	52.418	15.363	7.4202e-06	51.792	67.489	56.066	102.597	11.493	91.799	139.959	12.600	16.032	66.469	320.399	18.683	21.255	21.094	24.328	314.260	25.041	-8191	255	
1674.631	1	1	0	0	0.11157	0.20171	0.19894	0.29694	0.14563	0.16004	0.35385	0.19298	0.20046	0.1475	0.05594	0.138	0.26219	0.092965	0.13901	0.27864	-0.89375	-0.99792	-1.6688	-1.1521	-1.2604	-1.5833	-1.15	-1.6375	-1.3417	-0.87083	-1.7354	-1.0854	-1.1146	-1.7042	-0.85208	-1.4896	247.852	41.407	355.754	33.602	84.390	131.647	301.736	154.897	124.906	136.664	209.360	350.564	284.719	32.578	281.354	257.755	0.00067759	0.0001716	0.00016809	931.31	6.0887e-06	1.1527e-06	1646	177.98	4.0145e-06	4.2142e-06	381.07	149.41	53.812	15.546	3.3767e-06	55.038	0.00067549	0.0006767	0.00018806	869.22	7.271e-06	7.4861e-06	1532.8	168.61	7.4112e-06	7.5722e-06	395.71	139.57	52.319	15.326	7.5723e-06	51.476	72.880	198.885	144.993	11.877	231.530	297.688	13.049	16.853	8.681	162.742	17.960	21.403	21.141	24.077	329.795	24.565	-8191	255	
1674.727	1	1	0	0	0.12236	0.19385	0.12651	0.078307	0.068061	0.24591	0.34686	0.16009	0.03416	0.41393	0.0958	0.16493	0.11044	0.14475	0.14447	0.19102	-1.1083	-0.76667	-1.6833	-1.2062	-1.0271	-1.8167	-1.0146	-1.4417	-1.5604	-0.90208	-1.7542	-1.2583	-0.975	-1.6063	-0.9125	-1.4375	211.816	43.730	228.596	121.561	180.621	92.202	291.489	0.256	351.199	324.828	135.773	270.438	198.213	26.279	116.230	244.016	0.00050825	0.00093096	8.7053e-05	932.36	1.654e-06	2.7507e-06	1653.4	175.89	3.4799e-06	7.1958e-06	388.66	148.48	53.663	15.708	1.193e-05	55.048	0.00068372	0.00070832	0.00019115	867.15	7.5525e-06	7.8092e-06	1529.6	168.18	7.5452e-06	7.6685e-06	398.05	139.49	52.292	15.383	7.7342e-06	51.701	61.531	17.404	125.776	11.931	12.161	173.941	12.862	16.285	183.576	28.456	17.226	21.281	21.096	24.803	3.011	24.866	-8191	255	
1674.823	1	1	0	0	0.1107	0.056297	0.083948	0.28294	0.07947	0.26967	0.19929	0.34072	0.077883	0.20834	0.027543	0.060617	0.28504	0.095531	0.088409	0.18338	-0.99792	-0.88542	-1.4396	-1.2604	-0.65208	-1.65	-1.225	-1.3062	-1.3417	-0.83125	-1.5312	-1.3542	-0.99792	-1.6167	-1.05	-1.0896	286.503	218.264	113.107	333.423	113.462	75.991	312.178	243.812	130.079	342.150	176.381	174.547	78.540	16.572	269.480	207.185	0.00075885	0.00079122	0.00011293	931.94	5.8266e-06	2.1487e-06	1658.4	177.91	2.6721e-06	7.7868e-06	386.17	149.64	53.692	15.689	6.8833e-06	55.691	0.00069668	0.00071416	0.00019452	869.1	7.6828e-06	7.8364e-06	1534.4	168.85	7.7738e-06	7.8572e-06	400.38	140.72	52.576	15.488	7.8158e-06	52.197	66.055	49.826	36.229	11.718	186.484	138.292	12.559	16.979	165.941	263.390	17.802	21.124	21.089	24.467	181.468	24.637	-8191	255	
1674.920	1	1	0	0	0.13651	0.07	0.053049	0.1042	0.13962	0.2188	0.063955	0.11175	0.25358	0.18614	0.30163	0.10006	0.17324	0.15835	0.12277	0.19223	-1.1292	-0.88542	-1.45	-1.4688	-0.86042	-1.7125	-1.2938	-1.2979	-1.5354	-0.80833	-1.5667	-1.7292	-0.87083	-1.6063	-0.94375	-1.0354	135.703	331.014	62.534	348.067	88.449	297.575	259.658	258.780	8.875	233.142	53.924	299.851	185.758	320.536	282.593	271.086	0.00089102	0.00046646	8.0936e-05	933.32	8.417e-06	8.6909e-06	1650.9	179.17	2.679e-06	9.3004e-06	393.61	149.72	53.898	15.664	5.6598e-06	55.301	0.00071073	0.00072635	0.0002002	872.76	7.8588e-06	7.9358e-06	1535.2	170.07	7.723e-06	7.9382e-06	401.38	140.45	52.697	15.449	7.9104e-06	52.004	78.514	341.389	71.124	12.257	77.674	135.127	12.822	16.794	188.152	135.777	17.611	21.554	21.413	24.467	290.864	25.076	-8191	255	
1675.016	1	1	0	0	0.17051	0.26802	0.10827	0.31115	0.084502	0.17957	0.11641	0.24859	0.022614	0.29387	0.15566	0.17609	0.38588	0.08572	0.14344	0.26546	-1.3208	-0.86042	-1.3312	-1.5292	-0.71875	-1.6667	-1.4583	-1.2	-1.775	-0.83333	-1.4375	-1.8583	-0.87083	-1.7042	-1.1354	-0.975	304.164	203.669	154.094	324.066	17.712	103.247	69.736	324.862	51.401	105.273	36.418	177.877	240.457	19.172	61.395	268.498	0.00070187	0.00043111	0.0003798	927.58	2.9438e-06	3.0806e-06	1655.2	177.42	1.2772e-05	9.2411e-06	383.05	148.99	54.256	15.63	6.1238e-06	54.771	0.00070598	0.00071333	0.00019616	866.14	7.7552e-06	7.8176e-06	1530.4	168.67	7.8659e-06	7.8385e-06	397.3	139.84	52.718	15.451	7.9394e-06	51.643	55.121	93.381	113.310	11.858	97.119	122.509	12.968	16.935	129.093	217.729	16.909	21.735	21.860	24.816	116.875	25.257	-8191	255	
1675.112	1	1	0	0	0.32768	0.21552	0.28425	0.13385	0.17663	0.071583	0.39315	0.22822	0.15373	0.16033	0.093056	0.063011	0.29564	0.063773	0.086494	0.21807	-1.4167	-0.82083	-1.2292	-1.4979	-0.78958	-1.5042	-1.4208	-0.94583	-1.8438	-0.94375	-1.0792	-1.8354	-0.85625	-1.4833	-1.5292	-0.96875	155.899	60.849	125.175	251.479	126.702	180.218	331.623	173.826	220.574	134.895	107.941	322.200	1.794	88.148	143.738	302.079	0.00077627	0.0006186	3.4031e-05	929.03	1.2279e-05	9.1126e-06	1643.8	176.61	1.656e-06	1.1131e-05	387.4	148.05	53.801	15.69	2.8761e-06	54.961	0.00071688	0.00071932	0.00019806	865.5	7.9166e-06	7.883e-06	1527.4	168.63	8.0038e-06	8.0679e-06	403.09	139.66	52.516	15.441	8.0607e-06	51.849	47.847	63.175	20.960	12.251	141.124	190.932	12.805	16.981	351.520	94.090	17.128	21.717	21.635	24.392	93.465	25.151	-8191	255	
1675.208	1	1	0	0	0.13303	0.16617	0.025937	0.26389	0.077278	0.27515	0.28454	0.15255	0.35301	0.30418	0.033235	0.18421	0.16772	0.11762	0.074492	0.31679	-1.3625	-0.81458	-1.0375	-1.7313	-0.975	-1.5271	-1.6167	-0.7125	-1.5521	-1.0604	-0.9125	-1.7188	-0.85625	-1.2938	-1.3854	-0.7375	246.201	80.314	120.524	49.402	293.471	152.271	336.450	303.031	20.308	115.743	27.556	320.053	331.050	97.644	124.748	280.608	0.00084106	0.00020369	0.00018773	932.35	6.2134e-06	8.5506e-06	1658.6	178.76	2.3571e-06	6.0183e-06	391.14	149.58	53.897	15.655	8.3955e-06	54.709	0.00072987	0.00074251	0.00020774	871.93	8.0953e-06	8.2711e-06	1537.8	169.96	8.2132e-06	8.1341e-06	410.34	140.73	52.875	15.522	8.2771e-06	51.704	57.720	91.896	97.116	11.935	157.794	229.532	12.852	17.107	148.206	251.796	16.866	21.282	20.834	24.749	151.729	24.578	-8191	255	
1675.329	1	1	0	0	0.10116	0.063676	0.11409	0.19773	0.096538	0.12077	0.25901	0.254	0.10389	0.26225	0.20047	0.38265	0.19499	0.29412	0.21131	0.061604	-1.0542	-1.1646	-0.9875	-1.9854	-0.80833	-1.3729	-1.8208	-0.95625	-1.4917	-1.3021	-0.91458	-1.7708	-1.0646	-1.3333	-1.7188	-0.90625	75.019	157.301	182.882	5.485	76.519	235.256	343.664	237.535	186.561	86.842	89.757	319.578	356.487	18.037	291.122	15.308	0.00067298	0.00042618	0.0001581	929.78	4.659e-06	5.652e-06	1644.2	176.52	1.1778e-05	7.1612e-06	384.88	148.34	53.272	15.705	5.5642e-06	54.128	0.00075488	0.00076409	0.000211	866.97	8.2369e-06	8.4237e-06	1527	168.62	8.3051e-06	8.3194e-06	411.3	139.48	52.344	15.437	8.4058e-06	51.325	38.903	272.378	128.621	12.880	147.389	341.966	13.686	17.876	34.761	58.450	17.402	21.562	22.091	24.925	258.341	25.931	-8191	255	
1675.425	1	1	0	0	0.14706	0.063138	0.066966	0.3415	0.1777	0.104	0.083134	0.1777	0.1986	0.16373	0.20029	0.10299	0.15229	0.063798	0.052226	0.27647	-1.1125	-1.3583	-0.84583	-1.8438	-1.0125	-1.1521	-1.9917	-0.71875	-1.5104	-1.4417	-0.91042	-1.7396	-1.0333	-1.0542	-1.8062	-0.94167	313.707	295.267	132.605	357.447	355.961	8.922	284.049	31.037	63.163	191.526	227.767	86.995	7.114	15.904	290.876	280.087	0.00063052	0.00093	0.0001719	918.91	5.4038e-06	7.226e-06	1636.4	176.08	1.0901e-06	3.3906e-06	393.99	148.88	53.952	15.615	3.6822e-06	54.771	0.0007697	0.00077574	0.00021734	859.97	8.5833e-06	8.4919e-06	1519.3	167.86	8.202e-06	8.4587e-06	408.83	139.58	52.668	15.428	8.4129e-06	51.581	68.450	35.110	73.217	12.937	168.724	286.106	14.051	18.235	179.668	349.373	18.172	22.769	22.707	26.732	20.795	26.071	-8191	255	
1675.521	1	1	0	0	0.22587	0.11905	0.091456	0.19767	0.15645	0.18472	0.47517	0.14902	0.03372	0.17113	0.058572	0.40196	0.18278	0.14533	0.047554	0.12081	-1.0604	-1.3771	-0.98125	-1.7812	-1.2125	-1.1729	-1.9833	-0.97708	-1.5583	-1.5458	-0.725	-1.8083	-1.2042	-0.94792	-1.8438	-0.92708	269.546	350.450	270.678	23.474	351.056	153.509	276.917	263.010	46.301	343.404	302.660	324.486	314.353	61.587	168.467	281.478	0.00045048	0.00094447	5.35e-06	926.51	9.8868e-06	7.2003e-06	1646.8	174.6	1.7983e-06	2.3294e-06	383.2	148.98	53.369	15.589	7.9136e-06	54.735	0.00076942	0.00077958	0.00021692	865.48	8.4635e-06	8.7448e-06	1525.6	167.66	8.6868e-06	8.7127e-06	412.21	140.03	52.687	15.48	8.6143e-06	51.596	54.889	170.589	21.965	13.349	140.775	308.274	13.526	17.150	111.030	121.102	17.279	21.917	21.848	24.367	140.565	25.064	-8191	255	
1675.617	1	1	0	0	0.0273	0.17715	0.11496	0.24127	0.25181	0.10308	0.48548	0.22557	0.16587	0.12363	0.2046	0.14187	0.083828	0.093995	0.11696	0.38146	-0.59792	-1.6646	-0.86667	-1.7479	-1.2292	-0.90417	-1.9833	-0.87917	-1.1896	-1.7646	-0.80625	-1.7333	-1.35	-0.8125	-1.7188	-1.1417	78.692	108.101	236.849	265.192	39.046	39.876	325.599	296.249	46.849	199.194	321.645	312.110	322.251	304.233	218.054	29.833	0.000489	0.00031048	6.5335e-05	922.23	4.0633e-06	1.2132e-05	1634.7	175.25	9.2202e-06	1.9015e-05	385.01	148.57	52.6	15.367	8.0622e-06	53.885	0.00077011	0.00079453	0.00022152	863.53	8.5822e-06	8.7369e-06	1518.5	167.67	8.7091e-06	8.8454e-06	413.04	138.99	52.158	15.269	8.8028e-06	51.019	66.477	321.469	221.648	12.297	55.431	119.576	12.751	16.942	171.906	196.055	16.426	21.552	21.944	24.823	235.068	25.065	-8191	255	
1675.712	1	1	0	0	0.054688	0.064591	0.25169	0.11333	0.20479	0.12451	0.39686	0.23376	0.29581	0.11214	0.19041	0.14592	0.11557	0.091788	0.073208	0.29694	-0.66875	-1.5625	-0.79583	-1.4	-1.5104	-0.77083	-1.8479	-1.2708	-0.88542	-1.5104	-0.84375	-1.4438	-1.4	-0.8625	-1.5479	-1.4229	331.064	170.813	165.031	333.511	54.855	77.535	303.817	81.970	275.166	351.263	206.566	-1.447	3.672	223.134	105.475	312.755	0.00058468	0.00075907	0.00012052	916.05	4.4942e-06	4.1183e-06	1629.9	176.1	3.9765e-06	4.5559e-06	382.76	147.49	52.787	15.355	7.7336e-06	54.002	0.00079627	0.00080608	0.00022422	859.74	8.7133e-06	8.9022e-06	1519	167.77	8.8102e-06	9.0559e-06	409.18	138.84	52.256	15.347	8.9442e-06	51.264	78.295	84.263	10.430	12.058	200.568	91.371	12.932	16.278	32.655	183.171	17.470	21.775	21.490	24.759	73.849	24.646	-8191	255	
1675.808	1	1	0	0	0.10048	0.13434	0.11392	0.11716	0.045874	0.43908	0.23349	0.10942	0.13619	0.18544	0.13985	0.14479	0.019502	0.17032	0.051758	0.30615	-0.49583	-1.7062	-0.86042	-1.4521	-1.6146	-0.73125	-1.7104	-1.3333	-0.73333	-1.625	-0.93958	-1.2792	-1.5562	-0.73125	-1.6437	-1.4438	177.292	73.007	304.371	285.734	126.428	77.382	313.246	35.939	147.258	65.507	251.714	38.734	241.839	12.324	26.430	285.454	0.0006597	0.00018401	0.00040311	918.14	6.648e-06	9.1398e-06	1634.9	175.24	1.0646e-05	3.5335e-06	384.68	148.35	53.461	15.625	6.3101e-06	54.726	0.00080829	0.00082167	0.00023015	862.56	8.9379e-06	9.1068e-06	1520.6	167.71	8.9733e-06	9.0619e-06	415.02	139.67	52.772	15.525	8.9758e-06	51.647	65.624	138.432	116.661	11.868	69.975	157.762	13.099	16.462	130.014	333.170	17.070	21.906	21.809	24.708	162.804	24.706	-8191	255	
1675.928	1	1	0	0	0.12715	0.28404	0.21307	0.1608	0.23682	0.24655	0.34053	0.23852	0.14894	0.21035	0.0077676	0.34396	0.19407	0.054903	0.32553	0.15125	-0.42083	-1.7146	-1.0854	-1.1542	-1.6354	-1.0104	-1.6667	-1.5375	-0.91667	-1.7313	-1.1646	-1.4333	-1.9312	-0.975	-1.6646	-1.4708	166.507	70.613	284.943	326.901	143.006	182.759	344.348	6.251	62.881	55.200	350.367	308.161	303.399	178.031	171.393	249.651	0.00049784	0.0007427	0.00017684	923.77	1.5531e-05	8.3451e-06	1636.5	176.45	4.4288e-06	5.8241e-06	373.71	148.05	53.361	15.487	8.0584e-06	54.189	0.00079684	0.00082303	0.00022756	865.75	8.9322e-06	9.1037e-06	1524.4	168.26	9.0353e-06	9.1239e-06	410.73	139.17	52.667	15.384	8.849e-06	51.286	42.715	39.537	139.603	12.309	145.125	121.083	13.293	16.932	65.079	188.399	18.560	21.861	21.898	25.253	284.006	25.347	-8191	255	
1676.024	1	1	0	0	0.35028	0.18812	0.10147	0.3397	0.068274	0.22032	0.35032	0.12291	0.27368	0.11652	0.13389	0.060819	0.23286	0.17112	0.21194	0.14104	-0.53958	-1.7	-1.0292	-1.2333	-1.8396	-0.83542	-1.7792	-1.5271	-0.82917	-1.6104	-1.1917	-0.89167	-1.7	-1.0979	-1.2958	-1.8292	258.122	171.085	59.316	14.614	162.575	69.574	314.850	319.630	345.671	240.306	339.710	290.562	185.242	22.248	322.249	306.450	0.00057897	0.00039048	0.00025864	921.81	6.4639e-06	1.5866e-05	1626.1	174.24	4.0234e-06	6.5008e-06	384.26	146.31	53.315	15.375	9.7188e-06	54.349	0.00080524	0.0008064	0.00022425	860.63	8.7219e-06	8.8021e-06	1515.7	167.26	8.8284e-06	8.8837e-06	410.91	138.68	52.459	15.333	8.7214e-06	51.415	64.012	24.630	139.732	12.274	221.698	161.592	12.749	16.638	138.072	196.442	18.111	21.790	21.875	24.467	133.399	25.222	-8191	255	
1676.121	1	1	0	0	0.054782	0.22369	0.28109	0.16442	0.26139	0.41571	0.045419	0.22438	0.0071011	0.296	0.24744	0.21393	0.25178	0.22863	0.062337	0.19309	-0.6125	-1.775	-1.2188	-1.2333	-1.7687	-0.97917	-1.3687	-1.925	-0.97083	-1.675	-1.6271	-1.0063	-1.9375	-1.2604	-1.25	-1.8729	175.973	66.713	243.991	298.136	281.323	84.353	208.136	43.536	179.080	56.659	136.825	5.198	79.365	280.700	169.396	11.169	0.00079527	0.0003564	0.00010571	916.63	4.9726e-06	2.9719e-06	1639.7	176.45	1.2303e-05	3.585e-06	389.51	147.9	53.705	15.67	3.7702e-06	54.846	0.00078098	0.00080098	0.00021863	858.26	8.5075e-06	8.7773e-06	1524.3	168.12	8.6365e-06	8.7456e-06	410.3	139.39	52.997	15.527	8.8869e-06	51.857	53.558	31.966	116.985	12.076	79.429	80.402	13.446	16.916	138.913	264.642	16.890	22.085	21.596	25.059	107.866	25.193	-8191	255	
1676.192	1	1	0	0	0.22769	0.15591	0.069195	0.35469	0.097936	0.39725	0.27679	0.078702	0.21311	0.021909	0.25929	0.20802	0.098217	0.26781	0.02808	0.12546	-0.5625	-1.3271	-1.5396	-0.98125	-1.7188	-1.0875	-1.2521	-1.8937	-0.86667	-1.4688	-1.5125	-0.9625	-1.7042	-1.3167	-1.0312	-1.8333	12.204	244.359	306.270	339.667	320.940	319.968	266.091	345.382	328.792	159.271	172.884	292.670	266.896	309.137	38.927	348.187	0.00057908	0.00021986	0.00019074	925.61	1.5916e-06	8.6394e-06	1639.1	176.28	5.6732e-06	1.7773e-06	390.92	147.65	53.272	15.472	7.821e-06	54.439	0.00080064	0.00080941	0.00022776	866.43	8.9338e-06	8.9255e-06	1522.7	168.37	8.8684e-06	9.0383e-06	412.29	139.16	52.811	15.476	8.8786e-06	51.493	75.620	216.115	53.902	12.323	114.999	164.272	13.195	16.963	27.856	273.305	17.177	21.942	21.710	24.622	100.318	25.450	-8191	255	
1676.288	1	1	0	0	0.36107	0.1646	0.081835	0.17333	0.21195	0.089931	0.50983	0.094532	0.35086	0.22947	0.16678	0.24266	0.13072	0.14626	0.18707	0.1039	-0.7125	-1.3708	-1.6583	-1	-1.7146	-1.3896	-1.3979	-1.8208	-1.0521	-1.2146	-1.7583	-0.95417	-1.7708	-1.325	-0.90417	-1.8604	193.392	62.574	223.965	343.651	140.574	192.408	276.076	37.692	304.622	171.210	305.643	10.291	0.746	311.326	119.535	321.863	0.00075219	0.0001395	0.00027549	915.14	4.8259e-06	3.5646e-06	1614.7	173.92	8.2652e-06	8.8841e-06	382.22	148.5	53.546	15.221	3.4605e-06	54.156	0.00080897	0.00080955	0.00022779	856.92	8.8233e-06	8.7849e-06	1510.5	166.96	8.9278e-06	9.0898e-06	411.68	138.78	52.499	15.281	8.791e-06	51.343	70.364	55.169	117.804	12.320	37.709	217.164	12.809	16.593	182.709	205.610	15.973	21.557	21.784	24.810	154.082	24.742	-8191	255	
1676.409	1	1	0	0	0.2056	0.25123	0.17072	0.2244	0.18598	0.062158	0.24615	0.28422	0.06414	0.20311	0.07644	0.28685	0.1396	0.081968	0.33995	0.024604	-0.64375	-1.175	-1.5729	-1.0458	-1.5688	-1.3	-1.2333	-1.8188	-1.0938	-1.3062	-1.7687	-1.0146	-1.4458	-1.6708	-0.85417	-1.925	169.571	2.920	318.016	5.640	18.653	56.848	350.365	331.698	31.496	52.032	140.787	285.924	76.067	36.039	330.459	217.182	0.00059107	0.00060365	0.00020204	916.46	4.3452e-06	5.2173e-06	1622.2	174.4	8.2229e-06	9.6268e-06	369.58	146.59	52.931	15.315	4.2899e-06	54.235	0.00080145	0.00081395	0.00022537	854.96	8.8591e-06	9.0218e-06	1509.4	166.64	8.9369e-06	9.1256e-06	412.96	138.33	52.452	15.409	9.0496e-06	51.205	57.037	106.192	142.710	11.477	203.039	153.734	12.334	16.254	101.451	119.379	16.887	21.052	20.351	24.177	335.083	24.226	-8191	255	
1676.505	1	1	0	0	0.034299	0.23946	0.282	0.17292	0.2522	0.35658	0.20709	0.25126	0.26745	0.20843	0.32834	0.099153	0.21576	0.39555	0.21985	0.13032	-1.0479	-1.2437	-1.7938	-1.0375	-1.5521	-1.6417	-1.2563	-1.7062	-1.1271	-0.88542	-1.7542	-1.0729	-1.35	-1.8042	-0.97292	-1.7417	28.594	349.631	198.437	162.680	87.230	135.954	345.500	323.336	269.234	73.307	265.056	183.036	322.500	266.913	96.087	9.651	0.00066006	0.00037789	0.00016119	912.41	4.0787e-06	4.44e-06	1630.1	174.92	3.6755e-06	3.0926e-06	374.74	147.58	53.468	15.538	1.6978e-06	53.838	0.00080454	0.00081261	0.00022909	859.35	8.8725e-06	9.112e-06	1518.5	167.49	8.825e-06	8.966e-06	413.58	139.01	52.507	15.392	8.857e-06	51.193	76.506	69.403	12.557	11.731	121.036	275.588	12.309	16.720	115.152	151.754	16.929	21.140	20.798	23.708	180.115	24.754	-8191	255	
1676.601	1	1	0	0	0.095075	0.20955	0.089772	0.085118	0.062744	0.26347	0.36181	0.21356	0.25909	0.18341	0.1762	0.24632	0.24989	0.45019	0.26301	0.18133	-0.8	-0.85625	-1.6646	-1.1187	-1.2542	-1.65	-1.1708	-1.7437	-1.4854	-0.875	-1.7979	-1.2333	-1.1521	-1.6938	-0.80625	-1.6896	235.536	39.259	318.638	313.713	349.412	177.627	281.512	323.425	56.356	317.022	300.961	315.808	114.829	7.111	68.603	227.489	0.00055253	0.00089109	0.00013324	915.11	5.9621e-07	1.0945e-05	1614.3	174.68	9.5439e-06	5.8639e-06	380.46	146.52	52.779	15.382	8.0637e-06	53.714	0.00079396	0.00082347	0.00022758	857.16	8.6513e-06	8.7321e-06	1505.3	166.98	8.8159e-06	8.8498e-06	407.66	137.8	52.147	15.246	8.6466e-06	50.986	74.644	94.998	131.566	11.463	233.253	143.683	12.235	16.167	190.844	118.598	15.905	21.076	21.194	24.218	132.144	24.406	-8191	255	
1676.720	1	1	0	0	0.068929	0.27116	0.14837	0.32438	0.117	0.1556	0.22676	0.25571	0.015548	0.092448	0.28732	0.14642	0.33606	0.18416	0.022869	0.16653	-1.0458	-0.71458	-1.7458	-1.3208	-1.0354	-1.8083	-1.2583	-1.6917	-1.5229	-0.8	-1.7604	-1.5104	-0.90625	-1.7771	-1.0208	-1.5667	278.095	235.515	13.570	355.280	149.747	110.513	278.285	5.473	313.282	144.576	243.796	116.308	308.492	51.676	262.154	313.114	0.00048585	0.00043786	0.0001331	912.97	4.4229e-06	1.5195e-06	1620.2	174.77	1.0219e-05	3.5422e-06	380.69	146.71	53.357	15.52	2.6855e-06	54.169	0.00078687	0.00078152	0.00022015	856.16	8.6254e-06	8.7359e-06	1507.6	167.06	8.6782e-06	8.7158e-06	410.09	138.42	52.452	15.351	8.59e-06	51.179	62.864	88.108	179.208	11.199	117.040	239.467	12.262	16.498	85.989	184.683	16.232	21.176	20.744	24.037	124.458	24.503	-8191	255	
1676.792	1	1	0	0	0.20136	0.041176	0.24747	0.10432	0.13753	0.12824	0.31945	0.1148	0.19712	0.050822	0.11594	0.13273	0.0842	0.1467	0.29313	0.22323	-1.2167	-0.72292	-1.5688	-1.5375	-0.96458	-1.8208	-1.1125	-1.4146	-1.6313	-0.79167	-1.5854	-1.5646	-0.9375	-1.7521	-0.91042	-1.4229	217.916	142.312	323.469	214.399	19.844	241.004	314.903	239.956	194.160	306.692	46.758	346.421	240.247	80.552	11.969	239.358	0.0009608	0.00069783	0.00011793	911.82	1.4048e-05	6.5714e-06	1639.6	177.03	1.2784e-05	6.7866e-06	378.85	147.15	53.644	15.627	5.2987e-06	54.585	0.00078141	0.00079902	0.00021778	860.41	8.6699e-06	8.7028e-06	1521.5	168.88	8.5585e-06	8.78e-06	410.59	139.29	52.872	15.502	8.548e-06	51.519	61.383	56.934	342.984	11.772	133.718	98.401	12.488	16.092	97.947	153.860	16.441	21.065	21.471	24.580	218.221	24.747	-8191	255	
1676.890	1	1	0	0	0.23352	0.24885	0.44859	0.11405	0.17759	0.20464	0.29534	0.11165	0.15403	0.15998	0.12868	0.4127	0.1789	0.27955	0.086265	0.13876	-1.3896	-0.85625	-1.2979	-1.5375	-0.82083	-1.8833	-1.1854	-1.0979	-1.7062	-0.93125	-1.4188	-1.5125	-0.95208	-1.8354	-1.1896	-1.1708	227.979	30.870	90.592	292.331	210.849	228.274	329.719	5.039	215.718	27.371	0.709	21.040	337.741	122.485	142.807	297.626	0.0007059	0.00051925	0.00014085	921.28	7.1446e-06	9.9772e-06	1629.6	175.3	3.5517e-06	2.3849e-06	381.1	147.44	52.606	15.547	7.0955e-06	54.222	0.00078594	0.00079885	0.00022023	863.33	8.7115e-06	8.6722e-06	1515.6	167.49	8.6674e-06	8.6436e-06	405.8	138.66	52.255	15.428	8.6091e-06	51.385	61.470	36.113	282.063	11.330	169.082	149.424	12.273	16.262	32.312	10.969	18.091	21.024	20.766	24.559	209.545	24.470	-8191	255	
1677.009	1	1	0	0	0.27822	0.13322	0.048303	0.38835	0.34173	0.13238	0.29771	0.11525	0.17195	0.21473	0.04783	0.27846	0.078626	0.024709	0.12382	0.075768	-1.5042	-1.0708	-1.2917	-1.5875	-0.87917	-1.8417	-1.6979	-1.1083	-1.7667	-0.975	-1.4646	-1.6646	-0.8875	-1.5875	-1.0667	-1.0187	271.453	17.719	112.688	333.023	131.197	73.596	304.568	113.530	185.123	151.499	215.354	340.799	288.094	126.667	239.869	278.733	0.00059063	0.00018389	0.00024468	916.56	1.0876e-06	9.7464e-06	1623.1	175.62	5.1432e-06	5.2884e-06	382.07	147.16	53.002	15.684	4.4963e-06	54.638	0.00076462	0.00077883	0.00021807	860.61	8.6665e-06	8.7075e-06	1515.9	167.99	8.7483e-06	8.8161e-06	413.87	138.93	52.729	15.525	8.9851e-06	51.769	65.414	123.685	87.455	11.548	288.086	84.690	12.359	16.263	284.208	162.897	17.330	20.920	20.890	24.682	150.728	24.521	-8191	255	
1677.105	1	1	0	0	0.051258	0.33051	0.10189	0.25455	0.14473	0.03622	0.10412	0.14164	0.31072	0.15207	0.22069	0.12439	0.20647	0.14651	0.2542	0.14065	-1.4417	-0.99792	-1.3813	-1.7104	-0.94167	-1.6083	-1.7417	-0.92292	-1.7646	-1.1646	-1.0458	-1.8604	-1.0562	-1.7062	-1.4958	-1.1458	274.891	35.070	353.760	316.490	124.995	302.710	29.707	104.813	310.870	325.067	83.664	314.304	2.291	91.581	12.190	281.739	0.00064027	0.00061439	5.6499e-05	917.95	4.6131e-06	4.7733e-06	1632.6	176.54	9.8161e-07	6.9963e-06	390.6	147.95	54.102	15.597	6.5379e-06	55.158	0.0008017	0.00083946	0.00023103	861.3	8.8887e-06	9.1055e-06	1520.9	168.88	8.9974e-06	9.1128e-06	417.58	139.9	53.281	15.68	9.1469e-06	52.234	53.326	163.586	113.422	11.697	150.759	197.367	12.637	16.279	48.892	132.350	17.249	20.894	20.250	24.721	86.745	24.386	-8191	255	
1677.201	1	1	0	0	0.16185	0.23623	0.20145	0.13581	0.10563	0.12896	0.21124	0.10396	0.20847	0.19872	0.23683	0.26722	0.033918	0.068593	0.41752	0.02138	-1.5167	-1.0646	-1	-1.7583	-0.94792	-1.5333	-1.8375	-0.90417	-1.7208	-0.94583	-1.0896	-1.9542	-0.95417	-1.575	-1.7208	-1.0854	293.102	264.523	260.909	99.369	320.499	287.751	327.509	267.103	286.904	191.461	357.628	267.853	205.907	285.220	230.579	184.190	0.00057737	0.00072669	8.5948e-05	917.23	8.5534e-06	1.0233e-05	1628.1	175.69	3.3354e-06	1.0227e-05	387.98	147.22	53.259	15.644	4.2585e-06	54.712	0.00081207	0.00084069	0.00023294	859.56	8.8107e-06	9.0651e-06	1516.5	167.63	8.6872e-06	8.8815e-06	411.54	138.85	52.617	15.582	8.7167e-06	51.665	68.069	174.609	163.010	11.625	187.793	128.485	12.394	16.245	24.046	163.604	17.826	20.886	21.230	24.119	213.603	24.120	-8191	255	
1677.322	1	1	0	0	0.09508	0.09841	0.14977	0.071041	0.15239	0.27318	0.1729	0.09394	0.038646	0.10116	0.23044	0.40162	0.093378	0.24109	0.082927	0.22438	-1.2271	-1.2458	-0.9625	-2.0875	-0.99583	-1.4083	-1.9125	-0.76875	-1.6167	-1.2938	-0.91458	-1.975	-1.0792	-1.3312	-1.6729	-0.97083	155.312	239.189	179.263	253.068	98.070	175.055	326.707	215.820	208.587	6.224	350.829	1.671	181.522	300.841	330.857	10.002	0.00043734	0.00059236	4.9017e-05	905.56	1.6371e-06	1.4952e-05	1616.2	172.36	6.4159e-06	2.4269e-06	375.5	147.21	51.869	15.523	7.5906e-06	53.6	0.00079574	0.00079001	0.00022429	852.36	8.6957e-06	8.9588e-06	1503.7	165.41	8.7852e-06	8.8308e-06	408.48	138.08	51.88	15.399	8.8755e-06	51.129	62.900	24.735	177.817	11.401	73.911	93.155	12.372	16.025	213.861	45.233	18.150	21.018	20.594	24.550	62.779	24.332	-8191	255	
1677.418	1	1	0	0	0.37011	0.078548	0.057416	0.097687	0.26782	0.069031	0.33603	0.30863	0.14454	0.089351	0.075706	0.31573	0.12374	0.098953	0.18469	0.16354	-1.3521	-1.5729	-0.90833	-1.9042	-1	-1.3021	-1.8521	-0.80625	-1.6708	-1.6083	-0.925	-1.925	-1.1833	-1.1208	-1.8312	-1.1771	41.269	84.027	180.514	158.990	50.778	122.369	307.122	167.830	194.018	152.513	350.704	307.494	232.120	38.664	308.066	337.592	0.00047993	0.00073933	0.00013786	903.43	9.3713e-06	5.0432e-06	1611.2	172.48	2.2371e-06	1.0064e-05	375.84	146.69	52.662	15.628	7.0774e-06	54.6	0.00078608	0.00081575	0.00022374	846.68	8.7898e-06	8.8245e-06	1500	165.14	8.5982e-06	8.7503e-06	406.05	138.16	51.924	15.47	8.4984e-06	51.613	69.528	324.603	131.675	11.362	107.937	251.185	12.242	16.393	66.845	147.666	17.623	20.862	20.569	23.636	45.405	24.443	-8191	255	
1677.489	1	1	0	0	0.13998	0.053265	0.013829	0.23033	0.12915	0.25244	0.36824	0.065641	0.25223	0.11644	0.14833	0.018457	0.13336	0.34315	0.21203	0.069321	-1.1771	-1.4688	-0.81667	-1.7729	-1.2917	-1.2854	-1.9708	-0.90417	-1.3292	-1.7375	-0.94583	-1.95	-1.2917	-1.0417	-1.85	-1.1167	204.627	85.399	340.196	312.196	229.795	76.703	255.617	327.328	201.183	22.902	172.843	51.064	75.024	61.653	23.315	274.579	0.00058686	0.00039842	1.0023e-05	912.11	4.704e-06	1.1549e-05	1623.5	174.38	8.046e-06	1.0519e-05	380.71	148.44	53.278	15.67	6.8493e-06	55.711	0.00077254	0.00077966	0.0002196	852.27	8.4383e-06	8.5312e-06	1512.4	166.52	8.4259e-06	8.3894e-06	406.3	139.7	52.374	15.646	8.4488e-06	52.366	55.441	205.378	38.316	11.625	204.621	43.589	12.434	16.343	150.243	142.169	15.998	21.320	20.576	24.796	123.963	24.241	-8191	255	
1677.586	1	1	0	0	0.23042	0.03525	0.17716	0.43997	0.19531	0.15742	0.41671	0.12892	0.24075	0.17048	0.086666	0.21284	0.30294	0.11659	0.095095	0.093195	-0.93125	-1.7188	-0.64792	-1.8958	-1.3542	-1.0562	-2.1292	-1.1187	-1.1625	-1.4833	-0.9875	-1.7104	-1.5646	-1.075	-1.7104	-1.2854	332.330	33.247	335.864	313.870	100.575	18.047	287.764	303.860	142.308	187.427	248.376	300.915	344.695	273.736	345.952	22.432	0.0006331	0.00058523	0.00015372	907.72	8.2754e-06	3.1596e-06	1622.1	172.91	8.6415e-06	3.3709e-06	380.68	147.22	53.06	15.71	4.8951e-06	54.892	0.00077394	0.00079759	0.00022066	851.12	8.8765e-06	8.8703e-06	1508.5	165.91	9.0384e-06	9.1549e-06	414.45	138.88	52.545	15.619	9.3064e-06	51.825	70.217	63.833	94.277	11.450	198.484	176.370	12.383	16.457	212.214	246.453	18.722	21.434	21.630	24.297	94.349	24.267	-8191	255	
1677.704	1	1	0	0	0.40095	0.22342	0.15473	0.49688	0.081615	0.062902	0.099625	0.20698	0.14916	0.074723	0.18061	0.4006	0.14817	0.1886	0.2381	0.24338	-0.90833	-1.6313	-0.74375	-1.7	-1.4771	-0.91875	-2.0854	-1.0958	-1.3	-1.8396	-0.82708	-1.3104	-1.6125	-0.94792	-1.6021	-1.4083	24.260	169.872	134.675	337.326	296.308	265.746	20.835	298.684	24.000	157.415	193.173	345.466	355.254	174.833	345.715	272.563	0.00067596	0.00014283	0.00021804	899.7	5.4645e-06	9.5093e-06	1618.2	171.44	6.8761e-06	9.9406e-06	380.87	147.35	53.217	15.547	2.1266e-06	54.761	0.00085586	0.00087491	0.00024438	849.28	9.7639e-06	9.8574e-06	1507.5	165.56	9.9148e-06	1.0055e-05	423.38	139.47	53.106	15.73	1.0095e-05	52.091	57.027	329.917	301.545	11.722	119.174	223.333	12.829	16.281	162.693	306.158	16.105	21.738	21.092	23.839	50.709	24.825	-8191	255	
1677.801	1	1	0	0	0.13544	0.090152	0.22594	0.021158	0.086929	0.34102	0.29886	0.18816	0.19836	0.19211	0.12659	0.14472	0.12382	0.1136	0.053446	0.18682	-0.57292	-1.8104	-0.92917	-1.4208	-1.5771	-0.73333	-1.8792	-1.3521	-0.96875	-1.6083	-0.90417	-1.4813	-1.7854	-1.0271	-1.7167	-1.6333	348.110	91.061	30.916	38.603	42.829	154.681	281.079	303.519	235.229	57.025	278.790	346.688	119.921	1.502	256.047	282.007	0.00087065	0.00015801	5.0171e-05	906.38	6.5673e-06	5.3314e-06	1632.8	172.69	6.7968e-06	4.162e-06	370.44	147.66	53.044	15.665	9.2101e-06	54.842	0.00089761	0.00092305	0.00025524	854.12	9.857e-06	1.0087e-05	1519	167.28	1.0171e-05	1.0106e-05	424.42	139.9	53.077	15.788	1.0189e-05	52.28	68.399	30.532	73.437	11.795	150.748	347.921	12.458	16.507	113.468	202.635	17.243	21.162	20.362	23.822	136.434	24.121	-8191	255	
1677.897	1	1	0	0	0.014988	0.21248	0.18333	0.015679	0.2583	0.089635	0.10962	0.16614	0.12959	0.17362	0.19675	0.21672	0.10367	0.27053	0.14776	0.36222	-0.5875	-1.7687	-1.0542	-1.3104	-1.7646	-0.78333	-1.7062	-1.5604	-1.0083	-1.7625	-1.1729	-1.2021	-1.7854	-1.0333	-1.6042	-1.6396	211.445	42.990	134.052	111.875	152.455	121.229	16.788	166.061	66.834	166.245	140.579	286.266	104.957	55.514	279.693	15.030	0.00066097	0.00091383	0.00024544	900.03	1.3039e-05	5.6385e-06	1611.7	172.62	8.1042e-06	1.5874e-05	384.56	146.74	52.647	15.614	3.5226e-06	54.695	0.00092114	0.0009291	0.00026136	851.18	1.0203e-05	1.0355e-05	1508.8	166.07	1.0462e-05	1.0456e-05	431.86	139.43	52.899	15.746	1.0438e-05	52.14	71.099	350.626	128.162	11.909	122.890	211.154	12.454	16.236	38.273	160.575	17.598	21.823	21.621	24.204	215.663	24.478	-8191	255	
1677.993	1	1	0	0	0.058986	0.31946	0.25095	0.15262	0.28293	0.092839	0.2452	0.33801	0.057909	0.12061	0.21	0.086963	0.22497	0.30758	0.15746	0.12453	-0.50208	-1.7083	-1.0917	-1.0083	-1.8042	-0.95625	-1.7667	-1.7333	-0.89792	-1.6104	-1.2458	-1.275	-1.7896	-1.0958	-1.2021	-1.7667	110.071	316.491	262.999	267.880	264.639	109.706	3.524	8.941	310.965	99.696	122.659	313.464	80.003	24.621	125.199	51.756	0.00079008	0.00080558	0.00023644	901.15	9.1242e-07	8.3723e-06	1618	171.96	9.1458e-06	1.2249e-05	372.21	146.93	53.326	15.61	9.1089e-06	54.434	0.00094258	0.00096031	0.00026805	851.77	1.0502e-05	1.0693e-05	1514.9	166.08	1.0881e-05	1.1274e-05	439.11	139.4	53.361	15.874	1.1381e-05	52.379	60.257	154.819	87.927	11.984	30.559	155.869	12.768	16.626	159.120	106.533	17.291	21.844	21.460	23.860	155.756	24.908	-8191	255	
1678.089	1	1	0	0	0.14171	0.074644	0.18144	0.27096	0.14785	0.13621	0.19361	0.20836	0.052473	0.10206	0.10925	0.15782	0.16457	0.14526	0.3171	0.26821	-0.63333	-1.4979	-1.2604	-1.3083	-1.8521	-1.0187	-1.6708	-1.8312	-0.95208	-1.7104	-1.6125	-1.0417	-1.7437	-1.0271	-1.1437	-1.9312	30.595	73.932	314.794	259.819	287.273	180.858	290.349	252.901	15.882	50.141	138.597	340.004	354.708	188.703	128.345	314.453	0.00066504	0.001179	4.0241e-05	904.55	5.6368e-06	3.6329e-06	1626.5	172	1.2591e-05	1.1706e-05	367.02	146.61	53.319	15.627	5.7095e-06	54.841	0.00098412	0.0010166	0.00028279	852.98	1.0849e-05	1.1163e-05	1520.3	166.76	1.1078e-05	1.117e-05	443.83	140.08	53.55	15.852	1.0944e-05	52.346	78.963	67.901	20.682	11.770	333.134	171.260	13.000	16.402	126.800	253.644	19.176	21.771	21.392	24.259	16.032	25.137	-8191	255	
1678.185	1	1	0	0	0.2168	0.10065	0.14216	0.060833	0.20729	0.051689	0.25371	0.39406	0.21041	0.25343	0.16326	0.19695	0.161	0.073038	0.18569	0.19118	-0.42917	-1.5854	-1.5021	-0.86667	-1.7333	-1.0792	-1.3917	-1.9521	-0.70417	-1.4146	-1.7396	-0.9625	-1.6979	-1.1729	-1.1125	-1.875	78.583	217.704	195.417	317.615	157.553	325.264	304.599	275.824	142.793	219.619	219.255	247.066	280.123	105.635	137.201	2.452	0.00093859	0.00044862	0.00029465	899.83	5.6933e-06	2.8934e-06	1620.4	169.66	1.0466e-05	5.1335e-06	370.99	146.6	52.575	15.395	5.3403e-06	53.945	0.00097375	0.00099536	0.00027857	852.21	1.0785e-05	1.0945e-05	1514.8	165.18	1.1204e-05	1.1509e-05	448.29	139.14	53.235	15.776	1.2409e-05	51.775	49.225	202.282	95.725	11.968	316.783	184.795	13.136	16.713	261.258	270.400	18.672	21.622	20.973	24.127	294.603	24.350	-8191	255	
1678.281	1	1	0	0	0.40836	0.058921	0.026192	0.040861	0.18558	0.23991	0.25144	0.21532	0.17341	0.058454	0.1086	0.51083	0.11996	0.18966	0.28634	0.06177	-0.67708	-1.3354	-1.7542	-1.0771	-1.7417	-1.5187	-1.1646	-1.9292	-0.975	-1.2542	-1.6187	-1.0792	-1.4771	-1.3521	-0.96458	-1.8792	37.154	17.482	78.460	-0.497	237.945	105.105	232.472	260.769	54.669	270.135	272.566	342.398	30.064	201.777	189.891	320.746	0.00086742	0.0013715	0.00023094	891.45	9.4536e-06	1.4053e-05	1612.7	168.55	1.1847e-05	1.294e-05	366.62	144.51	52.474	15.006	8.0457e-06	52.981	0.001114	0.0011768	0.00032666	848.52	1.2991e-05	1.3662e-05	1512	166.09	1.3779e-05	1.397e-05	480.48	138.51	53.974	15.81	1.4632e-05	51.369	60.978	79.590	128.930	11.785	154.014	156.998	12.595	16.483	132.293	280.761	16.340	21.818	20.806	24.035	200.234	24.749	-8191	255	
1678.402	1	1	0	0	0.081236	0.2285	0.084947	0.2636	0.27838	0.26433	0.29073	0.12006	0.37193	0.28932	0.0064807	0.28965	0.16532	0.13319	0.18079	0.26504	-0.82708	-1.2083	-1.6625	-0.88333	-1.6271	-1.4229	-1.1708	-1.7729	-0.91458	-1.2	-1.9688	-0.7875	-1.6688	-1.4854	-0.86875	-1.7604	63.555	332.488	256.186	209.813	192.660	290.327	287.042	338.282	349.007	206.440	332.126	2.680	316.209	317.761	123.782	23.744	0.00081067	0.00074073	0.00031576	891.44	1.631e-05	9.6899e-06	1603	168.73	7.9534e-06	7.9702e-06	379.87	144.38	51.964	14.978	1.4166e-05	53.366	0.0013036	0.0013587	0.00037576	850.69	1.4619e-05	1.4669e-05	1506.8	166.72	1.4386e-05	1.4426e-05	490.08	138.86	53.968	15.818	1.4396e-05	51.726	39.390	74.104	74.398	12.061	149.388	164.426	12.765	16.654	113.511	232.509	18.384	20.833	21.515	24.462	153.152	25.071	-8191	255	
1678.498	1	1	0	0	0.097712	0.17481	0.30213	0.18957	0.25518	0.12292	0.35695	0.15107	0.39098	0.091291	0.21454	0.15658	0.079662	0.20502	0.1999	0.079662	-0.81042	-1.0938	-1.7604	-1.0063	-1.4438	-1.3667	-1.125	-1.5458	-1.2646	-1.1042	-1.6708	-1.1938	-1.2687	-1.6771	-0.89167	-1.8896	23.583	258.378	160.792	14.580	339.512	14.885	291.960	336.184	248.153	28.074	352.335	183.280	328.699	320.472	238.952	198.859	0.00045145	0.00024705	0.00033468	886.27	1.1003e-05	7.2829e-06	1598.2	168.18	1.0828e-05	8.3484e-06	365.18	143.45	51.172	15.103	1.305e-05	53.043	0.0012643	0.0013105	0.00036885	844.61	1.4368e-05	1.4632e-05	1506.1	165.98	1.4987e-05	1.5119e-05	497.26	138.54	53.85	15.96	1.566e-05	51.739	57.035	71.492	35.789	11.886	62.957	209.473	12.894	16.750	1.091	54.568	18.118	21.608	21.531	24.484	178.676	24.907	-8191	255	
1678.593	1	1	0	0	0.33999	0.16541	0.041101	0.28793	0.2544	0.21833	0.27696	0.095953	0.13273	0.22175	0.056822	0.21518	0.12299	0.36595	0.17459	0.34331	-0.83333	-1.0229	-1.7021	-1.0708	-1.4333	-1.7771	-1.1417	-1.6437	-1.3896	-1.2771	-1.825	-1.0479	-1.0458	-1.7604	-0.84375	-1.7167	18.905	1.639	346.661	350.761	18.033	19.535	317.353	40.599	21.559	302.873	284.717	111.771	21.447	266.746	31.604	279.337	0.00060291	0.00078357	8.0419e-05	864.58	6.5538e-06	2.3124e-06	1580.6	166.1	4.2996e-06	1.4729e-05	364.45	140.86	50.549	14.83	3.9777e-06	52.775	0.0014224	0.001473	0.00041087	833.93	1.6225e-05	1.6437e-05	1492.9	165.33	1.6129e-05	1.6258e-05	512.8	137.03	53.617	15.911	1.6122e-05	51.468	74.346	30.003	53.818	11.769	102.734	350.049	12.720	16.789	23.521	87.207	17.553	21.253	21.735	24.582	192.605	25.078	-8191	255	
1678.690	1	1	0	0	0.1967	0.1434	0.25539	0.20499	0.26955	0.11528	0.17687	0.35338	0.04301	0.28011	0.31731	0.26021	0.27106	0.10493	0.13108	0.078699	-1.0979	-0.90625	-1.7938	-1.3583	-1.0583	-1.6292	-1.0729	-1.5125	-1.7979	-0.62708	-1.9167	-1.3583	-0.89792	-1.8583	-0.8875	-1.5729	111.611	58.093	151.515	333.582	138.248	98.569	331.086	309.240	8.150	114.471	211.441	355.366	6.532	10.816	222.969	316.778	0.00081117	0.00010268	0.00017396	855.38	4.5708e-06	1.1783e-05	1578.7	163.09	8.5633e-06	9.0059e-06	362.41	141.1	50.084	14.74	1.1882e-05	52.51	0.0014237	0.0014786	0.00041688	828.74	1.6112e-05	1.6165e-05	1486.1	163.71	1.6338e-05	1.6574e-05	510.13	136.67	53.096	15.785	1.5925e-05	51.05	60.093	328.920	180.469	11.774	268.797	201.837	12.653	16.841	193.124	192.605	16.565	21.557	20.843	25.017	174.170	25.254	-8191	255	
1678.785	1	1	0	0	0.19677	0.26591	0.23166	0.23059	0.17612	0.261	0.36636	0.16882	0.26696	0.105	0.15827	0.10728	0.16879	0.25369	0.15261	0.18111	-1.1292	-0.73542	-1.6125	-1.4292	-1.025	-1.7	-1.3396	-1.2479	-1.5812	-0.89792	-1.4958	-1.425	-0.925	-1.7313	-0.99583	-1.3333	314.417	98.531	18.471	232.714	281.205	333.966	225.888	289.427	277.800	170.098	197.740	354.325	103.432	254.405	147.615	307.804	0.00063312	0.00025953	0.00022119	849.87	3.2403e-06	4.6261e-06	1563.8	163.23	1.3174e-05	1.1322e-05	364.09	139.9	49.232	14.428	3.9206e-06	51.199	0.0013738	0.0014268	0.00040336	819.22	1.5416e-05	1.5619e-05	1474	161.49	1.4852e-05	1.4902e-05	490.06	134.89	51.998	15.409	1.5189e-05	50.389	71.120	248.332	153.267	12.087	60.227	62.795	13.121	17.034	318.162	241.687	17.949	21.324	21.344	24.975	145.020	25.163	-8191	255	
1678.881	1	1	0	0	0.20945	0.20731	0.12283	0.34916	0.25394	0.10725	0.11685	0.17293	0.20204	0.14544	0.30914	0.20639	0.2647	0.10373	0.12813	0.14816	-1.2854	-1.0063	-1.5146	-1.3937	-0.65417	-1.8937	-1.3271	-1.175	-1.7687	-1.2083	-1.4229	-1.6542	-0.85833	-1.6771	-1.1458	-1.1583	100.008	43.531	173.180	354.129	234.161	24.436	259.691	33.742	135.282	165.033	7.615	257.168	39.028	75.290	11.888	5.573	0.000668	0.00027122	8.0669e-05	839.91	1.3135e-05	6.3629e-06	1538.8	159.61	8.3292e-06	1.2402e-06	355.79	139.72	49.273	14.6	1.0547e-05	52.477	0.0013603	0.0014411	0.00041647	811.36	1.6078e-05	1.653e-05	1462.2	160.99	1.6294e-05	1.6406e-05	505.32	135.43	52.439	15.617	1.5324e-05	50.79	40.605	324.865	183.459	11.738	147.409	167.005	12.600	16.802	237.658	82.026	17.496	21.219	21.419	25.039	184.849	25.033	-8191	255	
1679.002	1	1	0	0	0.1956	0.069443	0.026088	0.087171	0.25267	0.091198	0.28493	0.28085	0.14443	0.20628	0.32896	0.18027	0.055737	0.18445	0.2738	0.10071	-1.4354	-0.91042	-1.4375	-1.8542	-0.75	-1.7646	-1.5938	-1.1562	-1.7062	-1.0896	-1.5042	-1.8479	-0.72708	-1.5417	-1.4979	-1.2833	321.454	128.594	209.121	10.003	289.525	321.507	326.228	312.431	285.406	84.111	304.452	18.808	332.980	306.467	88.166	86.906	0.00073093	0.00086602	0.00038072	850.9	6.6964e-06	1.0206e-05	1568.8	164.75	1.7095e-05	7.2207e-06	363.14	143.83	51.055	14.861	8.9521e-06	53.259	0.0012575	0.0012868	0.0003461	811.01	1.2776e-05	1.29e-05	1469.4	160.86	1.2205e-05	1.2378e-05	447.08	136.58	51.802	15.374	1.1189e-05	51.119	70.451	91.334	237.253	11.505	139.045	127.927	12.624	16.771	182.370	106.553	16.668	21.139	21.517	24.493	343.735	24.597	-8191	255	
1679.096	1	1	0	0	0.24036	0.18063	0.16997	0.22771	0.21788	0.076272	0.12576	0.15442	0.11706	0.11688	0.30855	0.18441	0.31776	0.29051	0.54068	0.20485	-1.4146	-1.1187	-1.1562	-1.7687	-0.73958	-1.6437	-1.7083	-0.89583	-1.7583	-0.98958	-1.2437	-1.7687	-0.93333	-1.5125	-1.5333	-0.97292	148.571	344.687	40.839	0.970	76.023	320.183	89.640	253.578	61.210	281.870	22.177	268.261	6.830	91.838	205.868	40.195	0.00054291	2.3284e-05	0.0003885	875.14	6.6644e-06	2.2051e-06	1588.7	167.28	1.0356e-05	2.5785e-06	368.39	144.73	51.114	15.129	2.374e-06	53.691	0.00096295	0.00099381	0.00027754	826.7	1.0953e-05	1.1044e-05	1484.4	162.59	1.1132e-05	1.1356e-05	441.82	137.45	51.892	15.535	1.1395e-05	51.416	55.528	111.150	65.972	12.141	85.520	124.270	12.527	16.314	181.217	29.734	16.092	21.729	21.192	24.710	33.360	24.949	-8191	255	
1679.192	1	1	0	0	0.19721	0.10928	0.076099	0.077644	0.12449	0.22702	0.26647	0.15333	0.16102	0.18	0.062166	0.015826	0.18661	0.26003	0.15634	0.099615	-1.4396	-0.95417	-1.2458	-1.8521	-1.0063	-1.5083	-1.8479	-1.1083	-1.8854	-1.3021	-1.0958	-2.0708	-1.0438	-1.3062	-1.6	-0.9625	346.765	97.049	241.338	62.313	81.139	125.936	316.294	221.500	284.689	48.379	222.068	187.697	55.641	260.764	109.063	136.706	0.00072292	7.8256e-05	8.3322e-05	877.21	7.86e-06	8.5389e-06	1579.2	166.58	8.3851e-06	4.8763e-06	376.73	143.02	50.097	15.074	1.2317e-05	53.027	0.0010343	0.0010761	0.00029774	830.28	1.1542e-05	1.1745e-05	1478	161.67	1.156e-05	1.1691e-05	441.85	135.79	51.338	15.281	1.1117e-05	50.716	50.880	98.300	103.499	11.969	354.995	162.593	12.764	16.718	183.494	107.707	16.580	21.317	21.517	24.057	28.646	24.662	-8191	255	
1679.288	1	1	0	0	0.14529	0.14522	0.35727	0.1672	0.25314	0.24605	0.015909	0.069007	0.098747	0.32265	0.1546	0.33181	0.40035	0.36348	0.14358	0.091879	-1.4208	-1.0812	-1.0104	-1.8708	-1.0167	-1.2604	-1.8125	-0.77708	-1.6604	-1.1896	-0.89375	-1.9542	-0.79375	-1.2021	-1.6396	-0.9875	170.191	156.862	325.699	219.767	240.086	15.615	235.122	226.106	150.163	103.729	37.451	321.995	257.884	66.074	85.086	147.845	0.00072253	0.00019035	0.00026064	872.6	1.0855e-05	1.4211e-05	1587.4	165.89	6.2928e-06	1.4557e-06	371.77	142.27	51.003	14.772	1.0945e-05	53.088	0.0010035	0.0010312	0.00029011	825.96	1.1121e-05	1.1282e-05	1481.6	161.27	1.0958e-05	1.1261e-05	432.89	135.26	51.524	15.14	1.0704e-05	50.677	59.702	15.075	43.555	11.547	91.723	167.991	12.558	16.724	244.429	243.693	18.459	21.343	21.244	24.303	209.018	24.743	-8191	255	
1679.384	1	1	0	0	0.32204	0.21703	0.099856	0.17995	0.43581	0.2985	0.35802	0.29954	0.17061	0.093632	0.27243	0.1117	0.038889	0.1951	0.15413	0.19403	-1.0854	-1.2437	-1.0292	-1.95	-1.1854	-1.1521	-1.9188	-0.975	-1.8375	-1.5896	-1.0375	-1.7271	-1.1688	-1.1313	-1.7292	-1.1125	297.041	274.856	209.094	284.064	299.277	340.339	273.727	234.277	239.832	91.928	291.299	327.806	179.498	252.821	198.491	300.750	0.00068565	0.00040329	0.00014444	883.86	1.6506e-05	9.507e-06	1595.1	166.72	8.5497e-06	9.3507e-06	377.41	143.62	51.012	15.013	1.2521e-05	53.819	0.00095708	0.00099342	0.00027258	831.25	1.0802e-05	1.0881e-05	1491.4	162.25	1.0867e-05	1.0846e-05	437.11	136.69	51.664	15.341	1.0791e-05	51.125	74.532	283.118	208.956	11.694	111.212	138.821	12.652	16.286	164.997	332.117	16.972	21.285	21.028	24.879	197.333	24.595	-8191	255	
1679.481	1	1	0	0	0.20498	0.10832	0.080973	0.14799	0.15436	0.22246	0.30191	0.16178	0.18118	0.14065	0.038459	0.30472	0.19031	0.073708	0.20794	0.13821	-1.1146	-1.4208	-0.825	-1.8417	-1.2604	-0.9375	-1.9167	-0.94792	-1.3146	-1.5979	-0.87917	-1.7917	-1.2021	-0.95208	-1.8167	-1.0792	335.746	127.434	68.127	29.944	206.879	297.424	323.012	340.137	61.310	315.808	123.350	20.011	38.025	162.102	23.563	327.735	0.00082746	0.00054582	9.9151e-05	877.71	1.3365e-05	5.4367e-06	1584.7	167.07	5.7423e-06	6.9151e-06	365	142.62	50.624	14.953	1.1962e-05	52.714	0.00097909	0.0010034	0.00028128	831.19	1.1061e-05	1.1304e-05	1482.8	161.82	1.1188e-05	1.1397e-05	438	135.29	51.233	15.282	1.1214e-05	50.438	77.487	47.777	173.853	11.976	89.602	196.010	12.350	16.199	313.522	12.979	17.484	21.320	20.290	24.907	118.445	24.208	-8191	255	
1679.577	1	1	0	0	0.30851	0.12374	0.090449	0.13278	0.14675	0.18852	0.2135	0.28898	0.15772	0.2193	0.30583	0.21534	0.21455	0.24361	0.16651	0.020236	-0.91667	-1.6958	-0.72708	-1.6271	-1.3479	-0.99583	-1.9104	-0.95208	-1.2458	-1.7604	-0.58958	-1.6396	-1.5125	-0.875	-1.7271	-1.1479	329.310	268.821	352.055	23.371	130.317	297.542	282.222	184.450	7.143	221.635	343.761	321.446	273.698	12.283	243.618	105.626	0.00084438	0.0011746	7.31e-05	868.83	1.1915e-05	9.1696e-06	1573.3	164.81	9.1771e-06	9.2199e-06	367.67	142.57	50.395	15.116	2.2808e-06	52.648	0.00099986	0.00099705	0.000284	821.83	1.0921e-05	1.0952e-05	1470.6	159.96	1.0667e-05	1.0512e-05	430.09	134.82	50.795	15.121	1.0456e-05	50.153	70.343	107.309	6.969	11.836	62.616	10.736	12.849	16.279	62.116	130.986	17.000	21.596	21.152	24.758	83.442	24.745	-8191	255	
1679.673	1	1	0	0	0.28778	0.19741	0.4125	0.11838	0.21372	0.16952	0.40611	0.18087	0.24711	0.13454	0.12637	0.25092	0.049008	0.16275	0.086725	0.26677	-0.63542	-1.6292	-0.99583	-1.5667	-1.525	-0.975	-2.0563	-1.3479	-0.97708	-1.7604	-1	-1.5417	-1.6958	-0.9125	-1.6833	-1.4271	224.244	35.357	132.274	73.858	321.237	141.724	294.295	100.572	281.419	350.946	251.030	317.672	339.900	56.780	341.469	346.983	0.00075511	0.00098532	0.00020177	873.48	9.8684e-06	9.6991e-06	1586.6	165.96	8.0316e-06	9.1236e-06	354.54	142.79	50.872	15.156	4.186e-06	52.894	0.00093142	0.00095598	0.00026522	824	1.04e-05	1.0403e-05	1480.7	160.28	1.0287e-05	1.0205e-05	422.84	135.24	51.067	15.211	1.0229e-05	50.521	48.384	98.770	84.897	11.923	19.829	300.163	12.902	17.108	180.637	31.127	18.634	21.785	22.035	25.020	358.242	24.726	-8191	255	
1679.794	1	1	0	0	0.3398	0.088403	0.058458	0.13172	0.13432	0.33838	0.1048	0.084244	0.084872	0.072366	0.16871	0.11689	0.084015	0.28189	0.14816	0.22874	-0.50417	-1.6313	-0.95208	-1.3854	-1.7792	-0.84167	-1.8104	-1.3771	-0.90625	-1.9771	-1.0604	-1.5667	-1.7271	-0.8125	-1.7375	-1.4771	120.684	191.994	12.476	233.783	181.776	344.958	305.093	220.184	233.986	24.643	191.359	305.739	143.643	340.596	101.685	354.875	0.00072241	0.00051772	0.00016903	884.35	1.0276e-05	5.4369e-06	1587.4	166.58	4.6534e-06	9.2903e-06	365.76	143.6	51.013	15.142	5.8156e-06	53.346	0.00090803	0.00092387	0.00025681	828.29	9.975e-06	1.0167e-05	1479.9	161.11	1.0126e-05	1.0298e-05	422.24	136.06	51.096	15.279	1.0391e-05	50.83	64.877	37.811	180.170	12.119	124.573	259.801	13.058	16.892	100.095	158.222	18.322	21.447	21.277	24.655	113.208	25.176	-8191	255	
1679.890	1	1	0	0	0.16633	0.18809	0.36669	0.29509	0.12698	0.38737	0.27906	0.21173	0.19334	0.23233	0.076439	0.11952	0.098083	0.22961	0.11377	0.26156	-0.53542	-1.7188	-1.1042	-1.375	-1.9083	-0.7875	-1.7396	-1.6375	-0.86458	-1.8604	-0.96042	-1.2104	-1.8937	-1.0583	-1.4375	-1.6437	207.518	294.064	99.310	292.602	111.462	24.950	297.290	180.264	6.218	79.568	342.108	5.809	274.265	318.398	268.394	350.545	0.00064354	0.00027074	0.00013367	882.21	4.0797e-06	1.1067e-05	1577.3	167.49	8.4426e-07	2.3216e-06	364.1	142.61	51.178	15.13	1.263e-05	52.598	0.00093798	0.00097151	0.00027067	829.88	1.092e-05	1.1095e-05	1481.1	161.34	1.1093e-05	1.1256e-05	431.78	135.94	51.438	15.328	1.1349e-05	50.719	32.892	180.417	23.152	12.316	63.982	121.808	12.863	16.329	25.683	339.106	17.008	21.670	21.180	24.397	165.819	25.061	-8191	255	
1679.961	1	1	0	0	0.17332	0.25671	0.064823	0.27564	0.19052	0.15673	0.24412	0.42047	0.36732	0.17461	0.20658	0.16789	0.067237	0.35707	0.18926	0.067412	-0.48333	-1.7625	-1.2771	-1.275	-1.7	-0.90417	-1.4937	-1.5771	-0.78958	-1.6313	-1.3396	-1.2563	-1.8542	-1.1125	-1.2396	-1.7354	128.475	127.052	289.328	321.848	266.552	194.962	14.740	66.805	237.332	195.035	182.548	3.056	286.785	345.027	310.443	32.831	0.00073693	0.00022402	0.00030358	869.42	1.3476e-05	8.7849e-06	1566.3	164.32	6.0995e-06	8.5133e-06	363.94	142.78	50.28	14.961	6.9281e-06	53.265	0.001018	0.0010576	0.00029076	822.99	1.1454e-05	1.1735e-05	1475.1	160.57	1.145e-05	1.1564e-05	439.39	136.07	51.524	15.32	1.128e-05	50.938	55.274	104.660	158.967	12.369	166.346	317.812	12.985	16.520	148.685	131.816	15.814	21.402	21.560	25.093	132.074	25.281	-8191	255	
1680.082	1	1	0	0	0.081782	0.16744	0.17713	0.16966	0.31444	0.24223	0.28208	0.14526	0.1282	0.21203	0.091375	0.2293	0.12501	0.17496	0.16223	0.20232	-0.34167	-1.4062	-1.3312	-1.0812	-1.9375	-1.3646	-1.5396	-1.8292	-0.97917	-1.5708	-1.3125	-1.0646	-1.8333	-1.2042	-1.1021	-1.9667	111.858	79.753	38.357	317.922	216.421	313.877	297.600	68.820	221.125	119.906	31.890	336.145	82.808	70.305	241.861	4.510	0.00072265	0.00054922	0.00017884	869.68	7.5879e-07	5.1523e-06	1574.5	165.41	9.6733e-06	7.876e-06	375.58	142.91	50.837	14.996	8.9162e-06	52.924	0.0010143	0.0010474	0.00028997	823.49	1.1183e-05	1.1512e-05	1476.6	161.09	1.126e-05	1.1563e-05	438.75	135.99	51.473	15.371	1.155e-05	50.73	45.074	169.963	358.574	11.858	206.609	149.350	13.028	16.739	273.281	110.783	16.996	21.416	21.864	24.975	158.036	24.985	-8191	255	
1680.176	1	1	0	0	0.14935	0.16166	0.2828	0.12935	0.17018	0.19626	0.26462	0.34628	0.24185	0.15989	0.14156	0.212	0.097509	0.25347	0.14903	0.14161	-0.42292	-1.6146	-1.4625	-0.82083	-1.7896	-1.1708	-1.2521	-2.0625	-0.8875	-1.5625	-1.6604	-0.86458	-1.8188	-1.2875	-1.0333	-1.9813	357.975	182.482	134.521	304.004	87.758	159.970	269.896	83.125	38.701	150.312	207.520	339.438	174.793	2.691	294.176	234.940	0.00088011	0.00047699	0.00019536	864.42	3.1025e-06	6.7044e-06	1565.9	165.15	8.9642e-06	8.2968e-06	377.97	142.09	50.856	14.906	5.6217e-06	53.32	0.001027	0.0010733	0.00029423	819	1.1524e-05	1.1836e-05	1470.2	160.52	1.1478e-05	1.1687e-05	436.78	135.49	51.207	15.244	1.1307e-05	50.863	57.720	110.900	229.437	12.178	52.129	52.139	12.635	16.579	260.546	131.077	18.646	21.295	21.743	24.241	183.676	25.097	-8191	255	
1680.273	1	1	0	0	0.067065	0.23742	0.15258	0.08102	0.084962	0.15046	0.27712	0.1561	0.084228	0.04736	0.14698	0.34306	0.57734	0.053845	0.066611	0.14501	-0.4625	-1.3646	-1.6104	-0.87708	-1.6771	-1.2042	-1.0625	-1.9271	-0.86042	-1.2042	-1.5875	-1.0042	-1.6125	-1.3458	-1.0063	-2.0146	118.019	53.403	313.988	36.577	277.581	260.709	323.121	230.876	113.976	55.943	226.132	329.194	325.049	283.048	233.210	239.339	0.00085523	0.00033784	0.00031666	867.33	7.132e-06	3.224e-06	1568.6	163.78	2.4569e-06	1.4887e-06	367.82	141.84	50.398	14.73	1.0643e-05	53.029	0.0010276	0.0010499	0.00029115	819.31	1.1685e-05	1.1733e-05	1470.8	160.46	1.1756e-05	1.1984e-05	446.23	135.24	51.397	15.244	1.1972e-05	50.675	67.835	92.044	136.899	12.318	190.212	154.542	12.712	16.631	162.021	287.982	16.812	21.779	21.645	24.928	92.856	25.060	-8191	255	
1680.369	1	1	0	0	0.34566	0.32159	0.15284	0.28966	0.088997	0.12396	0.1305	0.15504	0.15705	0.072613	0.078461	0.12272	0.073576	0.29803	0.10877	0.044765	-0.6875	-1.1104	-1.6208	-1.0187	-1.5104	-1.4312	-1.1333	-1.8604	-1.0958	-1.0771	-1.5646	-1.2479	-1.4688	-1.4917	-0.77917	-1.8917	99.884	343.477	50.665	189.179	347.651	230.295	269.078	25.446	8.698	281.461	245.410	345.217	113.817	144.849	282.158	332.985	0.00059197	0.00021045	0.00012369	862.38	1.1245e-05	6.0334e-06	1570.2	165.5	1.7318e-06	1.518e-05	358.82	140.92	49.769	14.778	6.1187e-06	52.357	0.0010742	0.0010927	0.00030745	816.96	1.1955e-05	1.2119e-05	1472	161.08	1.1918e-05	1.201e-05	444.03	134.83	51.088	15.211	1.1765e-05	50.457	84.593	288.503	138.159	11.915	184.144	184.008	12.812	16.329	310.917	173.516	18.029	21.292	21.310	24.245	324.961	24.507	-8191	255	
1680.489	1	1	0	0	0.13424	0.047956	0.13181	0.20018	0.16342	0.097246	0.19862	0.07831	0.065375	0.1713	0.11566	0.34037	0.16608	0.20907	0.38522	0.18396	-0.82292	-0.95	-1.5458	-1.0958	-1.5646	-1.5333	-1.1479	-1.7333	-1.2646	-1.0042	-1.8083	-1.0896	-1.3417	-1.7979	-0.80833	-1.6562	84.172	46.874	48.300	316.374	306.059	223.807	299.037	16.537	62.614	284.469	336.632	331.939	20.379	43.217	50.642	26.350	0.00067294	0.00035466	0.00027634	862.97	2.7671e-06	5.419e-06	1567	161.98	8.0494e-06	4.9332e-06	375.67	140.55	49.434	14.571	1.0293e-05	52.12	0.0010457	0.001067	0.00029427	814.51	1.1173e-05	1.1467e-05	1459.9	158.2	1.1181e-05	1.1043e-05	434.69	133.58	50.385	14.896	1.1036e-05	49.849	60.406	270.037	96.559	11.599	175.766	246.462	12.454	16.326	214.580	340.725	18.423	21.688	22.325	24.529	63.579	24.699	-8191	255	
1680.585	1	1	0	0	0.14551	0.24615	0.29449	0.24813	0.088923	0.17397	0.20718	0.079931	0.067449	0.07635	0.13868	0.23473	0.46513	0.15129	0.23545	0.11609	-1.075	-0.92292	-1.8667	-1.0521	-1.2396	-1.7042	-1.1125	-1.4708	-1.5021	-0.91667	-1.7104	-1.0625	-1.2417	-1.9667	-0.87917	-1.725	29.759	83.974	257.965	314.222	248.859	268.105	291.611	44.165	345.143	104.628	251.272	25.541	294.228	108.500	100.903	83.019	0.00081492	0.00053818	0.00015853	861.62	7.7085e-06	5.9902e-06	1571.4	163.43	6.6336e-06	8.3949e-06	368.89	140.25	49.907	14.483	1.5195e-06	51.968	0.00098865	0.0010181	0.00028299	813.17	1.0974e-05	1.0893e-05	1465.1	158.76	1.0691e-05	1.0946e-05	432.97	133.69	50.537	14.887	1.1261e-05	49.937	43.563	104.917	78.809	11.922	113.291	32.451	12.983	17.240	209.113	14.160	17.190	21.895	21.818	25.025	256.371	24.716	-8191	255	
1680.682	1	1	0	0	0.15094	0.038666	0.12186	0.25261	0.035586	0.21542	0.13153	0.024879	0.057776	0.17338	0.068925	0.47437	0.182	0.051824	0.028706	0.050837	-0.98958	-0.88125	-1.7687	-1.1646	-1.2917	-1.775	-1.0167	-1.6042	-1.4979	-0.85833	-1.6	-1.3396	-1.0667	-1.6771	-1.0271	-1.4708	118.436	212.872	342.855	260.964	84.474	184.990	152.443	242.789	273.794	71.596	313.375	349.022	163.268	70.466	333.613	243.693	0.00060783	0.00063073	8.6196e-05	875.42	1.4378e-05	1.4181e-06	1585.6	166.04	6.8145e-06	5.9588e-06	370.6	142.2	50.29	14.674	3.1805e-06	52.236	0.00099701	0.0010277	0.00028522	824.57	1.1234e-05	1.1328e-05	1478.9	161.34	1.1237e-05	1.1347e-05	440.23	135.1	51.152	15.09	1.1516e-05	49.961	40.494	55.814	131.331	11.910	135.963	115.667	13.019	16.840	168.815	171.843	17.724	21.555	21.338	24.495	121.607	24.981	-8191	255	
1680.778	1	1	0	0	0.13776	0.099323	0.20002	0.27817	0.094748	0.19957	0.26591	0.24207	0.22626	0.25252	0.16607	0.13184	0.022554	0.14386	0.044402	0.23684	-1.325	-0.80417	-1.6708	-1.3563	-0.99583	-1.8188	-1.1625	-1.3958	-1.6187	-0.58958	-1.5438	-1.5021	-0.71667	-1.6333	-0.99375	-1.2938	212.628	187.078	328.654	325.773	265.395	133.046	331.760	276.457	315.212	34.709	109.526	41.990	199.377	187.091	196.853	40.094	0.00072756	0.00013462	6.8701e-05	869.61	9.0064e-06	3.1125e-06	1579.2	164.44	1.9965e-06	3.7266e-06	371.64	141.09	50.137	14.657	6.2132e-06	52.225	0.0010118	0.0010481	0.00028753	824.93	1.0943e-05	1.1218e-05	1474.1	159.68	1.0944e-05	1.116e-05	434	134.19	50.759	14.964	1.107e-05	49.865	59.258	80.463	147.835	12.059	187.462	100.453	12.999	16.858	83.335	206.087	17.164	21.496	21.180	24.928	136.131	25.058	-8191	255	
1680.874	1	1	0	0	0.2477	0.22652	0.20721	0.12335	0.054774	0.25295	0.27513	0.17649	0.35394	0.24653	0.18265	0.29915	0.18307	0.27356	0.17362	0.30063	-1.0771	-0.725	-1.4729	-1.6917	-0.8375	-1.7375	-1.0812	-1.2229	-1.7021	-0.75	-1.6479	-1.5896	-0.75417	-1.6688	-1.2104	-1.15	146.671	217.231	288.918	351.875	56.867	253.862	301.033	352.259	232.539	205.191	336.466	2.337	58.097	256.383	43.045	348.632	0.00082576	0.00096672	0.00012473	879.96	9.0595e-06	1.0098e-05	1575.6	165.05	3.7731e-06	5.757e-06	380.34	141.75	50.046	14.979	5.7443e-06	52.545	0.00097193	0.0010052	0.00027514	826.98	1.0742e-05	1.0866e-05	1475	160.49	1.0621e-05	1.0753e-05	432.7	134.31	50.87	15.053	1.0743e-05	50.189	72.186	17.159	110.488	11.794	68.167	145.424	13.014	16.384	213.821	153.516	17.530	21.554	21.200	24.921	50.651	24.924	-8191	255	
1680.970	1	1	0	0	0.12903	0.18773	0.25621	0.25125	0.062827	0.035236	0.49777	0.235	0.041917	0.17426	0.13127	0.104	0.033306	0.34221	0.11696	0.37502	-1.2854	-0.58958	-1.1938	-1.6938	-0.75833	-1.7792	-1.2042	-1.0292	-1.7292	-0.83125	-1.2854	-1.5792	-0.88958	-1.6771	-1.0771	-1.0271	58.434	297.703	172.085	320.319	262.634	87.901	289.351	188.788	8.740	177.078	282.209	343.866	233.968	1.284	112.642	222.587	0.00074157	0.00034556	0.00032056	886.36	2.8633e-07	6.1218e-06	1597.4	169.25	3.9984e-06	8.4278e-06	369.93	143.27	52.026	15.259	1.0879e-05	53.868	0.00095404	0.0009787	0.00027276	833.95	1.07e-05	1.0919e-05	1492.2	162.82	1.0651e-05	1.0928e-05	433.46	136.69	52.052	15.425	1.0863e-05	51.241	45.869	142.711	30.140	11.990	340.231	113.284	12.801	16.745	43.956	205.152	16.724	21.506	21.341	24.640	102.993	24.660	-8191	255	
1681.089	1	1	0	0	0.082267	0.12998	0.25335	0.19565	0.12398	0.22823	0.24917	0.44039	0.24322	0.15385	0.076307	0.37109	0.088844	0.23297	0.1282	0.23238	-1.1187	-0.74375	-1.2667	-1.7333	-0.77917	-1.3208	-1.4708	-0.82917	-1.6354	-0.95	-1.2625	-1.5208	-0.88958	-1.5562	-1.6042	-0.91042	75.326	287.353	334.357	346.651	310.290	43.635	351.655	273.897	317.066	121.657	0.730	24.512	239.318	281.792	59.528	272.152	0.00075651	0.00065249	6.4845e-05	890.74	8.4231e-06	1.3423e-06	1603.7	168.05	3.6071e-06	8.7639e-06	372.66	144.82	51.474	15.133	3.3361e-06	53.444	0.00098815	0.0010166	0.00028	839.45	1.1054e-05	1.1215e-05	1496.5	163.03	1.1048e-05	1.1083e-05	434.6	136.68	51.75	15.35	1.0843e-05	50.943	51.653	352.810	14.000	12.094	96.488	147.899	12.668	16.998	23.579	104.701	17.598	21.493	21.057	24.693	210.520	24.662	-8191	255	
1681.185	1	1	0	0	0.087507	0.056154	0.13017	0.16752	0.1524	0.07845	0.23093	0.37956	0.17	0.16656	0.092585	0.23531	0.26481	0.13858	0.10873	0.15248	-1.3146	-0.97083	-1.1833	-1.7792	-1.0208	-1.4417	-1.5312	-1	-1.9146	-0.85417	-1.0646	-1.8104	-0.88333	-1.3833	-1.3667	-0.83333	336.569	342.029	258.261	125.428	236.403	41.585	30.961	234.436	150.978	16.561	101.838	251.839	285.867	63.475	353.241	341.861	0.00057855	0.00031853	0.00012424	883.17	6.2506e-06	3.2743e-06	1599.8	165.89	7.3962e-06	1.0957e-05	368.42	144.32	50.934	15.164	7.0756e-06	54.054	0.00096289	0.00098771	0.00027452	833.89	1.0708e-05	1.0731e-05	1491.7	161.61	1.0513e-05	1.0453e-05	427.1	136.45	51.354	15.282	1.0286e-05	51.386	39.173	59.078	27.881	11.942	192.791	67.186	13.014	17.008	146.382	162.490	17.145	21.365	20.750	24.360	101.366	24.615	-8191	255	
1681.257	1	1	0	0	0.22194	0.1571	0.2109	0.22666	0.22859	0.37211	0.41644	0.16193	0.232	0.1637	0.21137	0.045939	0.13079	0.050362	0.21965	0.21619	-1.1812	-1.0292	-0.66875	-1.8042	-0.81667	-1.45	-1.7583	-0.5875	-1.5104	-0.99375	-0.83958	-1.8062	-0.825	-1.1979	-1.5479	-0.89792	291.423	319.174	226.175	293.786	313.283	154.995	301.580	350.668	17.742	235.204	109.940	194.931	50.632	89.257	151.148	100.684	0.00074364	0.00065401	0.00028902	887.57	8.851e-06	6.4151e-06	1604.9	168.9	2.9111e-06	1.5309e-05	371.63	145.59	51.45	15.255	3.1371e-06	53.877	0.00091276	0.00091932	0.00025667	835.82	1.01e-05	1.0146e-05	1492.9	162.67	1.0014e-05	9.9527e-06	425	137.62	51.645	15.409	9.9499e-06	51.381	57.760	170.282	119.012	12.288	112.969	113.545	12.943	16.821	90.071	163.126	16.573	21.578	21.098	24.994	99.734	24.991	-8191	255	
1681.353	1	1	0	0	0.27731	0.24243	0.30602	0.23062	0.081553	0.097973	0.30298	0.077678	0.16016	0.045808	0.1652	0.16015	0.16525	0.18627	0.18037	0.14526	-1.1271	-1.225	-1.0229	-1.7979	-0.86875	-1.05	-1.9062	-0.74167	-1.3188	-1.3417	-0.81875	-1.7542	-1.025	-1.1646	-1.6292	-0.88542	34.113	103.097	249.623	23.016	306.293	317.370	337.830	327.540	184.454	293.752	257.936	245.221	14.377	288.202	73.122	26.171	0.00046721	0.00078633	0.00032296	898.6	5.7585e-06	4.3063e-06	1607.9	169.09	6.6965e-06	5.8207e-06	380.82	144.59	51.57	15.359	7.2174e-06	53.711	0.00090265	0.00090099	0.0002499	841.13	9.726e-06	9.7848e-06	1498.9	162.23	9.5966e-06	9.4141e-06	415.09	136.72	51.283	15.294	9.34e-06	51.009	61.928	35.770	144.810	11.952	13.871	173.313	12.884	16.344	111.548	185.362	18.312	21.357	21.581	24.708	140.522	25.068	-8191	255	
#DATA ENDS
