BOXY.EXE: ISS Imagent and Oximeter Data Acquisition Program Version 0.80
Ascii Record File

#ACQ INFORMATION
2  Detector Channels 
16  External MUX Channels 
1  Auxiliary Channels 
5000  Waveform (CCF) Frequency (Hz)
1  Waveforms Skipped 
30  Waveforms Averaged 
1  Cycles Averaged 
16  Acquisitions per Waveform 
10.0806  Updata Rate (Hz) 

#FILE INFORMATION
TRUE -- External MUX Channel results are PARSED.
FALSE -- AC DC and Phase are NOT grouped.
TRUE -- Companion Program Settings File CREATED.
FALSE -- AC data not excluded
FALSE -- DC data not excluded
FALSE -- Phase data not excluded
FALSE -- Auxillary Chn. data not excluded
Tab delimiters

#CALIBRATION STATE
TRUE -- Waveform Calibration Values APPLIED.


#AUX CALIBRATION VALUES
Val Type	aux-1	

Term	1.0000e+00	
Factor	0.0000e+00	


#WF CALIBRATION VALUES
A = Detector Channel
Val Type	A-AC1	A-AC2	A-AC3	A-AC4	A-AC5	A-AC6	A-AC7	A-AC8	A-AC9	A-AC10	A-AC11	A-AC12	A-AC13	A-AC14	A-AC15	A-AC16	A-DC1	A-DC2	A-DC3	A-DC4	A-DC5	A-DC6	A-DC7	A-DC8	A-DC9	A-DC10	A-DC11	A-DC12	A-DC13	A-DC14	A-DC15	A-DC16	A-Ph1	A-Ph2	A-Ph3	A-Ph4	A-Ph5	A-Ph6	A-Ph7	A-Ph8	A-Ph9	A-Ph10	A-Ph11	A-Ph12	A-Ph13	A-Ph14	A-Ph15	A-Ph16	

Term	0.00000e+00	0.00000e+00	0.00000e+00	0.00000e+00	0.00000e+00	0.00000e+00	0.00000e+00	0.00000e+00	0.00000e+00	0.00000e+00	0.00000e+00	0.00000e+00	0.00000e+00	0.00000e+00	0.00000e+00	0.00000e+00	0.00000e+00	0.00000e+00	0.00000e+00	0.00000e+00	0.00000e+00	0.00000e+00	0.00000e+00	0.00000e+00	0.00000e+00	0.00000e+00	0.00000e+00	0.00000e+00	0.00000e+00	0.00000e+00	0.00000e+00	0.00000e+00	0.00000e+00	0.00000e+00	0.00000e+00	0.00000e+00	0.00000e+00	0.00000e+00	0.00000e+00	0.00000e+00	0.00000e+00	0.00000e+00	0.00000e+00	0.00000e+00	0.00000e+00	0.00000e+00	0.00000e+00	0.00000e+00	
Factor	1.00000e+00	1.00000e+00	1.00000e+00	1.00000e+00	1.00000e+00	1.00000e+00	1.00000e+00	1.00000e+00	1.00000e+00	1.00000e+00	1.00000e+00	1.00000e+00	1.00000e+00	1.00000e+00	1.00000e+00	1.00000e+00	1.00000e+00	1.00000e+00	1.00000e+00	1.00000e+00	1.00000e+00	1.00000e+00	1.00000e+00	1.00000e+00	1.00000e+00	1.00000e+00	1.00000e+00	1.00000e+00	1.00000e+00	1.00000e+00	1.00000e+00	1.00000e+00	X	X	X	X	X	X	X	X	X	X	X	X	X	X	X	X	

B = Detector Channel
Val Type	B-AC1	B-AC2	B-AC3	B-AC4	B-AC5	B-AC6	B-AC7	B-AC8	B-AC9	B-AC10	B-AC11	B-AC12	B-AC13	B-AC14	B-AC15	B-AC16	B-DC1	B-DC2	B-DC3	B-DC4	B-DC5	B-DC6	B-DC7	B-DC8	B-DC9	B-DC10	B-DC11	B-DC12	B-DC13	B-DC14	B-DC15	B-DC16	B-Ph1	B-Ph2	B-Ph3	B-Ph4	B-Ph5	B-Ph6	B-Ph7	B-Ph8	B-Ph9	B-Ph10	B-Ph11	B-Ph12	B-Ph13	B-Ph14	B-Ph15	B-Ph16	

Term	0.00000e+00	0.00000e+00	0.00000e+00	0.00000e+00	0.00000e+00	0.00000e+00	0.00000e+00	0.00000e+00	0.00000e+00	0.00000e+00	0.00000e+00	0.00000e+00	0.00000e+00	0.00000e+00	0.00000e+00	0.00000e+00	0.00000e+00	0.00000e+00	0.00000e+00	0.00000e+00	0.00000e+00	0.00000e+00	0.00000e+00	0.00000e+00	0.00000e+00	0.00000e+00	0.00000e+00	0.00000e+00	0.00000e+00	0.00000e+00	0.00000e+00	0.00000e+00	-2.62276e+01	-1.15878e+02	-1.08409e+02	-1.83494e+02	-6.33589e+01	-7.54221e+01	-1.57928e+02	-1.62015e+02	-5.48854e+01	-9.11149e+01	-1.72828e+02	-1.71611e+02	-1.77707e+02	-1.75907e+02	-7.81365e+01	-1.49620e+02	
Factor	2.61661e-05	9.26201e-05	2.46974e-05	1.98797e-01	9.62366e-07	8.91135e-07	1.79104e-01	5.14304e-02	1.05170e-06	1.02584e-06	1.02012e-01	2.95886e-02	2.20963e-02	8.96045e-03	1.07712e-06	1.32210e-02	5.86835e-07	5.95880e-07	1.65773e-07	9.66592e-02	6.53574e-09	6.52599e-09	8.24644e-02	2.52020e-02	6.53566e-09	6.54143e-09	4.62961e-02	1.36781e-02	1.07972e-02	4.30996e-03	6.51163e-09	6.04044e-03	X	X	X	X	X	X	X	X	X	X	X	X	X	X	X	X	



#DISTANCE SETTINGS
A = Detector Channel
A-1	A-2	A-3	A-4	A-5	A-6	A-7	A-8	A-9	A-10	A-11	A-12	A-13	A-14	A-15	A-16	

2.5000e+00	3.0000e+00	2.5000e+00	3.0000e+00	2.0000e+00	3.0000e+00	1.5000e+00	3.0000e+00	3.0000e+00	3.0000e+00	3.0000e+00	3.0000e+00	3.0000e+00	3.0000e+00	1.5000e+00	3.0000e+00	

B = Detector Channel
B-1	B-2	B-3	B-4	B-5	B-6	B-7	B-8	B-9	B-10	B-11	B-12	B-13	B-14	B-15	B-16	

1.0000e+01	1.0000e+01	1.0000e+01	1.4400e+00	1.0000e+01	1.0000e+01	1.5100e+00	1.9400e+00	1.0000e+01	1.0000e+01	1.9900e+00	2.4900e+00	2.4100e+00	2.9000e+00	1.0000e+01	2.9800e+00	




#DATA BEGINS
time	group	step	mark	flag	A-AC1	A-AC2	A-AC3	A-AC4	A-AC5	A-AC6	A-AC7	A-AC8	A-AC9	A-AC10	A-AC11	A-AC12	A-AC13	A-AC14	A-AC15	A-AC16	A-DC1	A-DC2	A-DC3	A-DC4	A-DC5	A-DC6	A-DC7	A-DC8	A-DC9	A-DC10	A-DC11	A-DC12	A-DC13	A-DC14	A-DC15	A-DC16	A-Ph1	A-Ph2	A-Ph3	A-Ph4	A-Ph5	A-Ph6	A-Ph7	A-Ph8	A-Ph9	A-Ph10	A-Ph11	A-Ph12	A-Ph13	A-Ph14	A-Ph15	A-Ph16	B-AC1	B-AC2	B-AC3	B-AC4	B-AC5	B-AC6	B-AC7	B-AC8	B-AC9	B-AC10	B-AC11	B-AC12	B-AC13	B-AC14	B-AC15	B-AC16	B-DC1	B-DC2	B-DC3	B-DC4	B-DC5	B-DC6	B-DC7	B-DC8	B-DC9	B-DC10	B-DC11	B-DC12	B-DC13	B-DC14	B-DC15	B-DC16	B-Ph1	B-Ph2	B-Ph3	B-Ph4	B-Ph5	B-Ph6	B-Ph7	B-Ph8	B-Ph9	B-Ph10	B-Ph11	B-Ph12	B-Ph13	B-Ph14	B-Ph15	B-Ph16	aux-1	digaux	

7676.348	1	1	0	256	0.24764	0.031712	0.196	0.095323	0.22295	0.20004	0.31829	0.27985	0.16651	0.034145	0.039834	0.1788	0.019305	0.21359	0.2818	0.077228	-1.2625	-2.1729	-1.4188	-2.1396	-1.9854	-1.3062	-2.4292	-1.6104	-1.45	-2.3208	-1.4229	-2.1104	-2.2146	-1.3458	-1.8854	-1.6833	246.839	157.742	236.779	73.084	89.780	255.941	396.316	133.423	177.729	158.790	297.926	222.509	121.486	392.959	128.757	171.209	0.00034177	0.00051547	0.00023927	1150.1	2.088e-06	5.8695e-07	1235.6	241.93	5.0223e-06	6.06e-06	303.08	83.772	66.783	19.367	5.4684e-06	26.712	0.00042828	0.00041098	0.00012298	1142	4.7541e-06	4.4458e-06	1219.4	247.28	4.7571e-06	4.581e-06	308.04	87.398	69.857	20.95	5.148e-06	29.194	259.961	263.261	123.962	73.025	139.770	136.349	73.040	80.665	169.048	162.030	80.009	87.288	87.557	94.236	176.035	93.885	-8191	255	
7676.444	1	1	0	0	0.43402	0.32181	0.34123	0.095877	0.085331	0.17815	0.25264	0.26767	0.12141	0.27687	0.072786	0.064366	0.1319	0.20402	0.21539	0.22596	-1.1042	-2.1729	-1.5167	-1.9604	-1.9917	-1.4937	-2.3292	-1.8292	-1.5333	-2.1979	-1.3396	-1.8875	-2.2562	-1.3875	-2.3208	-1.7833	175.581	231.106	346.252	283.064	164.723	203.222	345.701	349.809	220.047	292.687	191.207	208.897	319.917	391.437	273.270	71.018	0.00044753	0.00060837	0.00018443	1152	5.9189e-06	2.3414e-06	1237.2	242.3	3.8167e-06	7.0187e-06	300.7	83.442	67.246	19.415	8.9848e-06	26.753	0.00043268	0.00042028	0.00013171	1144.2	4.7576e-06	4.6387e-06	1225.4	247.19	4.7017e-06	4.72e-06	309.75	86.925	69.908	21.082	5.3573e-06	29.106	237.256	217.349	136.618	72.652	295.362	283.359	73.292	80.640	175.381	211.018	79.931	87.203	86.872	93.550	265.965	92.968	-8191	255	
7676.565	1	1	0	0	0.10535	0.11799	0.11638	0.22847	0.12035	0.13326	0.3469	0.034366	0.10859	0.03736	0.11034	0.19248	0.27225	0.034306	0.19899	0.34673	-1.05	-2.1688	-1.4146	-1.8458	-2.1354	-1.2542	-2.2896	-1.8875	-1.4125	-2.2354	-1.7771	-1.6646	-1.9583	-1.4167	-1.85	-1.8542	171.443	177.585	137.596	415.640	218.194	96.292	421.136	309.167	405.634	385.949	106.063	147.441	271.934	162.186	225.677	395.958	0.00036102	0.00044017	0.00011575	1154	3.4957e-06	9.0923e-06	1241.6	243.22	2.58e-06	2.0733e-06	301.02	82.363	67.228	19.412	9.8469e-06	26.748	0.00042273	0.00044312	0.00013551	1142.1	4.6836e-06	4.9246e-06	1226.1	247.16	4.6294e-06	5.0425e-06	309.58	86.191	69.684	21.298	5.3213e-06	28.938	254.127	215.098	113.721	72.672	344.779	170.283	72.488	80.091	305.104	200.153	79.377	86.960	86.979	93.892	244.827	92.824	-8191	255	
7676.636	1	1	0	0	0.050703	0.027278	0.11377	0.20484	0.3156	0.091406	0.21432	0.2793	0.18681	0.10648	0.16715	0.26491	0.10636	0.3047	0.092218	0.18913	-1.0208	-2.1771	-1.9542	-1.65	-2.2625	-1.4125	-1.8229	-2.25	-1.3458	-2.1792	-1.8729	-1.6313	-2.1333	-1.5375	-1.7479	-1.9833	322.345	275.053	108.105	210.692	230.241	133.794	410.408	378.984	397.499	193.686	85.331	336.888	146.079	404.933	173.243	82.308	0.00041345	0.00036234	9.3765e-05	1152.9	3.3435e-06	4.2663e-06	1239.8	242.18	8.988e-06	5.7733e-06	302.01	82.918	66.76	19.497	5.6577e-06	26.958	0.0004243	0.00047902	0.00013561	1141.7	4.7172e-06	5.291e-06	1224.9	246.11	4.7033e-06	5.3759e-06	309.49	86.33	69.853	21.499	5.1765e-06	28.932	270.493	136.762	79.107	72.308	285.734	203.184	72.727	80.184	250.639	112.691	79.920	86.898	87.074	94.145	75.959	92.759	-8191	255	
7676.733	1	1	0	0	0.26734	0.063722	0.07499	0.12633	0.084224	0.050648	0.26882	0.43335	0.20026	0.087438	0.22876	0.13705	0.12275	0.071289	0.21256	0.29312	-1.0667	-2.0354	-1.9292	-1.4542	-2.4229	-1.5792	-2.0646	-2.1854	-1.3312	-2.0875	-2.0854	-1.575	-2.4396	-1.7583	-1.8062	-2.1813	182.931	186.396	134.149	402.464	243.935	320.842	364.635	100.100	105.285	176.624	383.730	99.736	94.509	142.618	130.929	263.396	0.00032698	0.00069283	0.00016959	1150.9	6.1667e-06	3.3938e-06	1240.7	244	3.3238e-06	8.6336e-06	300.86	83.413	66.79	19.593	6.7584e-06	26.602	0.00043906	0.00049245	0.00013068	1139.4	4.8449e-06	5.4303e-06	1223.9	245.78	4.8396e-06	5.4007e-06	306.61	86.184	70.005	21.551	4.9798e-06	28.729	247.595	129.270	171.379	72.523	190.943	224.040	72.734	80.161	366.224	142.568	79.934	86.990	87.001	94.285	334.671	93.726	-8191	255	
7676.853	1	1	0	0	0.054527	0.25543	0.098062	0.31944	0.17822	0.11873	0.15992	0.19385	0.051721	0.13934	0.13318	0.36402	0.13638	0.22967	0.12426	0.38727	-1.0917	-2.0687	-1.825	-1.7854	-2.125	-1.6021	-1.7333	-2.2146	-1.2458	-2.1104	-1.9333	-1.3896	-2.3833	-1.6542	-1.5979	-2.1896	144.707	316.391	389.441	378.127	224.476	281.138	99.900	369.842	175.829	414.621	390.134	305.060	265.716	418.559	329.569	353.766	0.00044301	0.0003717	0.00013244	1153.2	7.8474e-06	6.3679e-06	1242.7	243.54	5.3933e-06	4.3418e-06	301.68	83.349	67.42	19.385	2.6425e-06	26.675	0.00045691	0.00049229	0.00012608	1138	5.1088e-06	5.3595e-06	1223.1	245.64	5.1881e-06	5.3014e-06	306.88	86.029	70.681	21.429	4.8288e-06	28.772	251.626	148.454	198.150	72.700	237.130	69.270	72.843	80.177	296.204	77.923	79.923	87.236	87.251	94.310	103.182	93.110	-8191	255	
7676.949	1	1	0	0	0.10826	0.28072	0.16643	0.18905	0.2292	0.23169	0.34342	0.14084	0.11694	0.20445	0.12657	0.12416	0.32427	0.25248	0.2305	0.035595	-1.0021	-2	-2.1208	-1.4271	-2.2125	-1.9667	-1.4125	-2.225	-1.5146	-1.8125	-2.3312	-1.3729	-2.0958	-1.7917	-1.4104	-2.2938	374.591	205.173	195.174	344.448	281.706	411.942	405.687	416.699	72.594	281.300	269.237	95.931	81.245	371.855	167.426	351.911	0.00042673	0.00048588	0.00012552	1153.5	5.0128e-06	1.5909e-06	1239.1	244.02	9.7824e-06	7.7146e-06	300.6	83.331	67.097	19.337	8.5671e-06	26.791	0.00048543	0.00047215	0.00012404	1139.3	5.4152e-06	5.1555e-06	1220.4	246.23	5.4139e-06	5.1397e-06	305.63	86.405	70.824	21.257	4.7241e-06	28.973	272.727	401.465	202.069	72.710	308.306	146.364	72.809	80.267	243.880	388.060	79.520	87.494	87.407	93.676	156.778	93.417	-8191	255	
7677.044	1	1	0	0	0.24032	0.12387	0.18463	0.34657	0.33405	0.1689	0.16182	0.22007	0.22497	0.24422	0.059346	0.10858	0.084232	0.072385	0.079736	0.081789	-1.3375	-1.6292	-1.9896	-1.7396	-1.9458	-1.7958	-1.7458	-2.1771	-1.5167	-1.7583	-2.275	-1.4937	-2.1354	-1.8146	-1.3042	-2.4104	405.395	154.219	219.571	369.925	191.160	356.244	329.471	230.198	174.957	216.208	127.771	318.190	318.196	404.551	392.045	337.126	0.00038675	0.00060229	0.00026483	1155.1	4.5469e-06	5.4159e-06	1238.3	244.4	4.4808e-06	3.1939e-06	301.17	83.469	66.769	19.365	7.0257e-06	27.019	0.00049383	0.00045512	0.00012079	1141.6	5.4263e-06	5.0042e-06	1215.5	247.38	5.4062e-06	4.9765e-06	304.83	86.807	70.757	21.166	4.6377e-06	29.212	250.967	317.271	85.026	72.803	169.192	270.036	72.716	80.349	86.014	144.967	79.845	87.094	87.260	93.948	113.133	93.606	-8191	255	
7677.142	1	1	0	0	0.16213	0.26685	0.26619	0.21983	0.062313	0.23331	0.22416	0.12265	0.11941	0.31845	0.23339	0.10153	0.10681	0.098996	0.089804	0.23775	-1.1938	-1.3708	-2.1792	-1.6042	-1.8646	-1.7875	-1.5562	-2.4	-1.7479	-1.3875	-2.2917	-1.5646	-2.0792	-2.0479	-1.2854	-2.2062	275.462	192.670	144.377	387.380	266.419	228.633	111.107	340.238	291.373	363.259	137.591	407.671	402.629	338.606	176.459	151.417	0.00043404	0.0005816	0.00015006	1156.4	4.1048e-06	5.9243e-06	1244.8	243.38	1.1147e-05	2.5067e-06	302.55	83.594	67.118	19.392	4.7588e-06	27.106	0.0004869	0.000447	0.00011905	1147.7	5.2524e-06	4.8611e-06	1217.7	247.83	5.1901e-06	4.7964e-06	305.18	87.499	70.396	21.057	4.6024e-06	29.514	246.758	213.514	153.249	72.684	274.610	248.993	72.834	80.294	262.083	203.409	79.689	86.809	87.247	93.488	291.412	93.371	-8191	255	
7677.236	1	1	0	0	0.20136	0.17269	0.1103	0.10641	0.14349	0.2651	0.18436	0.25467	0.21223	0.079814	0.041266	0.19003	0.014574	0.14742	0.18601	0.15707	-1.3958	-1.3917	-2.0458	-1.4646	-1.6729	-2.2479	-1.5187	-1.9896	-1.7958	-1.4146	-2.5271	-1.6167	-1.7583	-2.0875	-1.3438	-2.1792	173.680	246.496	239.369	370.536	171.781	63.823	64.680	339.350	64.331	273.367	337.972	81.957	283.927	409.537	278.362	237.045	0.00026736	0.00069169	0.00013364	1155.4	6.3595e-06	2.0204e-06	1243.2	244.78	3.1393e-06	6.1962e-06	302.78	83.424	66.858	19.449	1.458e-05	27.012	0.00045809	0.00042655	0.0001193	1149.1	4.9657e-06	4.6904e-06	1219.5	248.48	4.9468e-06	4.6842e-06	307.02	87.477	70.059	21.076	4.9414e-06	29.448	249.869	293.100	175.944	72.388	315.161	281.555	73.015	80.383	315.902	134.541	79.669	86.938	87.236	94.391	165.922	93.241	-8191	255	
7677.332	1	1	0	0	0.17207	0.11947	0.12867	0.42869	0.20973	0.1277	0.325	0.15841	0.22497	0.16015	0.14709	0.27453	0.12881	0.20054	0.27103	0.054814	-1.4646	-1.2854	-2.0396	-1.7854	-1.5292	-2.3167	-1.5208	-1.8188	-1.9354	-1.2375	-2.1625	-1.7646	-1.4438	-2.2396	-1.4146	-1.9042	346.932	93.261	318.064	346.687	64.627	416.989	354.410	381.671	272.387	238.430	289.965	409.978	232.531	318.028	260.033	285.695	0.00039257	0.00053508	0.00025883	1152.1	6.9792e-06	1.91e-06	1240.2	241.92	6.7095e-06	1.6678e-06	301.27	83.346	67.016	19.38	1.0088e-05	26.98	0.00044931	0.00042158	0.00012795	1148.1	4.9083e-06	4.6458e-06	1224.5	248.07	4.9114e-06	4.6503e-06	309.01	87.374	69.992	21.054	5.2832e-06	29.342	302.145	312.996	176.411	72.569	107.765	183.009	72.617	80.380	253.382	268.272	79.996	87.022	87.117	93.757	177.394	93.650	-8191	255	
7677.453	1	1	0	0	0.46819	0.050829	0.042102	0.30685	0.079331	0.17565	0.12004	0.19889	0.23324	0.26063	0.16021	0.39012	0.27876	0.036194	0.1488	0.10029	-1.575	-1.5479	-1.9729	-1.8708	-1.3854	-2.3729	-1.7792	-1.8479	-1.9875	-1.3542	-2.0292	-1.8208	-1.5854	-2.3875	-1.3208	-1.7708	281.620	218.837	254.205	404.247	155.309	353.564	362.193	326.584	330.318	407.752	409.274	93.413	232.968	191.822	303.363	272.166	0.0002779	0.00045872	9.8163e-05	1151.5	1.073e-05	4.6569e-06	1243.2	242.62	6.8908e-06	1.0742e-05	302.7	82.757	66.958	19.493	9.1998e-06	26.587	0.00044168	0.00042853	0.0001358	1144.3	4.7885e-06	4.7083e-06	1228.4	247.2	4.804e-06	4.7444e-06	310.31	86.728	69.818	21.188	5.3933e-06	29.024	267.699	174.025	125.502	72.364	327.095	236.538	72.637	80.431	320.312	256.439	79.459	86.795	87.333	94.120	227.111	93.108	-8191	255	
7677.549	1	1	0	0	0.3295	0.15867	0.1588	0.18399	0.22065	0.086668	0.17994	0.34096	0.13118	0.19426	0.12602	0.093246	0.2906	0.23001	0.20123	0.12646	-1.825	-1.1625	-1.9438	-2.1271	-1.3312	-2.3458	-1.45	-1.7229	-2.0896	-1.4833	-2.125	-1.9229	-1.3875	-2.1917	-1.4917	-1.6292	243.678	207.493	230.834	292.413	323.723	259.735	355.547	311.757	308.082	240.651	89.046	281.304	350.090	388.032	162.179	116.123	0.00023719	0.00051045	3.1197e-05	1154.7	4.4823e-06	4.5659e-06	1242.3	243.19	1.6681e-06	6.2731e-06	302.2	83.385	67.201	19.444	3.8343e-06	26.777	0.00043219	0.00044619	0.00013685	1142.4	4.6403e-06	5.0009e-06	1227.4	246.68	4.6577e-06	4.9995e-06	309.57	86.67	69.656	21.361	5.2486e-06	28.976	229.744	334.711	416.103	72.714	142.338	229.838	72.572	80.184	181.343	178.470	79.954	87.043	87.553	94.283	357.101	92.979	-8191	255	
7677.645	1	1	0	0	0.056363	0.037519	0.19621	0.39922	0.13439	0.24088	0.081835	0.18017	0.098803	0.1168	0.092032	0.23785	0.14452	0.15336	0.24355	0.025164	-1.8542	-1.2229	-2.1708	-2.1333	-1.2604	-2.0271	-1.9521	-1.6625	-2.1292	-1.4958	-1.8208	-2.0542	-1.3604	-2.1688	-1.4792	-1.5312	117.833	390.681	267.523	353.912	208.918	293.514	148.947	71.040	305.542	348.969	160.102	65.224	378.079	276.860	363.060	306.449	0.00040977	0.00048343	0.00013827	1157.3	6.5938e-06	4.6492e-06	1247.5	244.53	1.0531e-05	6.1149e-06	303.65	83.589	67.305	19.526	2.6037e-06	26.792	0.00042195	0.00046691	0.00013313	1145.3	4.6321e-06	5.2143e-06	1230.1	247.09	4.6702e-06	5.3314e-06	310.64	86.923	70.081	21.671	5.2953e-06	29.156	261.692	135.878	299.904	72.596	181.146	198.115	72.826	80.407	215.919	205.400	79.785	87.179	87.195	94.010	268.556	93.834	-8191	255	
7677.741	1	1	0	0	0.30566	0.063172	0.13901	0.4435	0.18994	0.28424	0.43243	0.23336	0.12862	0.031899	0.061258	0.24521	0.16792	0.17082	0.30967	0.33054	-1.8708	-1.3583	-1.7771	-2.3312	-1.25	-2.1479	-1.9062	-1.4021	-2.3312	-1.3146	-1.8042	-2.175	-1.5479	-2.2625	-2.0875	-1.425	200.352	259.310	121.716	363.753	190.653	352.076	336.179	295.157	174.281	306.341	387.677	281.930	372.453	337.079	217.423	370.919	0.0006472	0.0008082	7.2486e-05	1157.8	8.1792e-06	9.9338e-07	1243.8	243	7.4272e-06	7.135e-06	303.64	83.311	67.134	19.353	1.1705e-05	26.756	0.00045349	0.00051588	0.00013588	1145.6	5.1133e-06	5.7847e-06	1226.9	247.02	5.2388e-06	5.7788e-06	310.73	86.831	70.739	21.779	5.3607e-06	29.051	279.955	154.535	216.304	72.550	178.299	306.441	72.558	79.985	232.448	300.956	79.709	86.930	87.243	94.110	141.136	92.942	-8191	255	
7677.862	1	1	0	0	0.24552	0.18878	0.10214	0.17998	0.28713	0.20029	0.32573	0.11845	0.18674	0.02742	0.35795	0.16728	0.21512	0.20032	0.15076	0.061416	-1.5958	-1.6396	-1.725	-2.1917	-1.3042	-2.1792	-2.225	-1.3708	-2.2646	-1.7062	-1.5688	-2.5125	-1.4729	-1.8937	-2.05	-1.4604	305.762	348.705	325.663	359.109	245.156	318.028	385.532	332.591	172.637	162.138	399.209	307.272	396.164	84.812	303.971	214.590	0.0005318	0.00049626	5.4368e-05	1156.2	5.0132e-06	4.3402e-06	1240.2	244.03	8.3856e-06	6.1636e-06	306	83.073	66.885	19.365	5.8323e-06	27.058	0.00050247	0.00054126	0.00013846	1148.2	5.7192e-06	5.9891e-06	1230.5	248.31	5.9026e-06	6.0753e-06	312.3	87.235	71.942	21.902	5.5464e-06	29.345	259.804	284.472	320.108	72.728	186.923	170.258	72.670	80.307	246.161	72.855	79.843	87.064	87.265	94.481	266.949	93.268	-8191	255	
7677.934	1	1	0	0	0.19238	0.10343	0.16806	0.40258	0.20364	0.13532	0.45428	0.32536	0.13276	0.21289	0.14653	0.1876	0.19931	0.10425	0.34957	0.1699	-1.7708	-1.7188	-1.4979	-2.5208	-1.5	-1.9979	-2.1479	-1.4771	-2.075	-1.7458	-1.4979	-2.3312	-1.8583	-1.8083	-2.1688	-1.5625	218.313	362.925	195.195	329.236	254.826	403.505	312.634	314.395	97.446	75.420	102.857	266.868	351.190	167.338	148.877	72.515	0.00045018	0.00017271	6.2684e-05	1155.5	1.7153e-06	9.1921e-06	1249.6	244.34	8.4547e-06	9.5791e-06	300.96	83.611	67.569	19.612	3.3768e-06	26.871	0.000546	0.00053298	0.00013708	1149.8	5.9547e-06	5.6731e-06	1228.9	248.44	5.9348e-06	5.5744e-06	309.11	87.47	71.85	21.647	5.132e-06	29.329	265.970	395.733	341.451	72.321	151.404	302.096	72.792	80.388	283.307	145.865	79.453	87.006	86.819	94.440	168.876	93.278	-8191	255	
7678.030	1	1	0	0	0.23824	0.18824	0.26866	0.35947	0.13451	0.14246	0.44388	0.35374	0.42217	0.1476	0.44289	0.14293	0.29951	0.12028	0.19723	0.25825	-1.7021	-2.0854	-1.5042	-2.3812	-1.425	-1.7458	-2.0958	-1.5875	-2.1146	-1.8458	-1.3937	-2.3438	-1.7604	-1.5729	-2.225	-1.3083	407.237	186.042	403.434	420.757	152.237	414.947	283.374	362.590	377.050	100.751	304.293	415.308	421.185	379.809	224.523	94.855	0.00049977	0.00047907	0.00011765	1156.2	5.4771e-06	3.5698e-06	1244.7	243.72	2.8794e-06	2.047e-06	302.4	84.067	67.084	19.393	9.6057e-07	26.89	0.00053122	0.00049162	0.00012789	1151.2	5.8051e-06	5.3159e-06	1226.6	248.81	5.7464e-06	5.3025e-06	307.69	88.019	71.549	21.461	5.0263e-06	29.637	279.627	328.327	208.783	72.695	309.718	242.731	72.788	80.158	155.937	383.002	79.808	86.902	87.062	93.949	138.417	93.384	-8191	255	
7678.124	1	1	0	0	0.18438	0.30193	0.1983	0.13267	0.10361	0.25539	0.03581	0.3059	0.15417	0.29469	0.17711	0.15784	0.24443	0.075894	0.073003	0.22752	-1.4354	-2.0021	-1.2229	-2.3583	-1.675	-1.3667	-2.3167	-1.4	-1.9708	-1.9854	-1.3521	-2.3104	-1.6875	-1.3417	-2.3708	-1.6562	80.191	215.523	390.989	401.334	84.053	237.768	318.868	327.923	95.283	398.990	71.935	242.783	357.302	241.805	227.602	350.235	0.00031448	0.00024802	0.00015821	1157.7	4.7757e-06	3.8152e-06	1245.4	245.12	7.0761e-06	2.8547e-06	300.33	84.032	67.029	19.569	1.7891e-06	27.097	0.00051693	0.00047866	0.00012729	1157.4	5.706e-06	5.232e-06	1226.1	250.57	5.6235e-06	5.2757e-06	307.74	88.77	71.34	21.423	5.1409e-06	29.987	280.810	216.470	339.634	72.833	159.975	124.178	72.474	80.249	193.282	169.473	79.942	87.189	86.855	94.104	144.352	93.288	-8191	255	
7678.245	1	1	0	0	0.10401	0.11466	0.15393	0.041513	0.38671	0.089175	0.14372	0.24011	0.11488	0.32589	0.27495	0.23258	0.21205	0.14099	0.063647	0.1121	-1.3021	-2.0729	-1.3188	-2.3438	-1.5792	-1.2646	-2.3312	-1.5896	-1.7417	-2.0146	-1.3125	-1.9937	-2.0375	-1.2646	-1.9	-1.6688	335.244	145.964	396.587	83.184	272.797	327.915	353.892	352.252	227.127	216.098	415.248	349.440	421.712	88.988	223.067	64.684	0.0004001	0.00032413	0.0001214	1157.8	3.0669e-06	2.2711e-06	1249.2	243.71	2.7584e-06	6.3926e-06	302.73	83.784	67.325	19.616	8.9765e-06	26.697	0.00050245	0.00047123	0.00013155	1161.7	5.423e-06	5.108e-06	1232.3	251.36	5.4118e-06	5.0837e-06	310.36	88.995	71.216	21.393	5.3943e-06	29.967	274.935	217.625	177.377	72.785	265.372	109.399	72.627	80.033	157.257	224.647	79.397	86.974	86.640	93.660	192.836	92.702	-8191	255	
7678.341	1	1	0	0	0.20823	0.022986	0.10093	0.10253	0.35903	0.10521	0.30829	0.35798	0.13629	0.095639	0.38032	0.24359	0.10146	0.12798	0.049622	0.11537	-1.3438	-2.1208	-1.3563	-2.0083	-1.9021	-1.5729	-2.4979	-1.7771	-1.7271	-2.1875	-1.5479	-2.0208	-1.8958	-1.5083	-2.2833	-1.7396	310.791	222.741	246.357	372.465	140.022	202.118	344.750	77.116	194.830	418.025	396.667	397.576	183.319	331.867	343.425	384.734	0.0002435	0.00060011	0.00017545	1156.6	5.0051e-06	4.9657e-06	1245	243.86	6.2067e-06	4.3753e-06	301.98	83.492	67.602	19.482	5.3576e-06	26.841	0.00048225	0.00045536	0.00013828	1160.2	5.3073e-06	4.9706e-06	1234.5	250.82	5.2258e-06	5.0208e-06	312.32	88.549	70.917	21.312	5.6988e-06	29.721	263.549	134.592	172.157	72.481	249.384	169.327	72.561	79.997	168.244	168.615	79.220	86.860	86.684	93.532	210.725	92.829	-8191	255	
7678.437	1	1	0	0	0.23512	0.12051	0.15295	0.13962	0.036481	0.28279	0.22221	0.283	0.19104	0.13278	0.22412	0.23479	0.096905	0.080018	0.20026	0.037306	-1.1562	-2.2167	-1.2833	-1.8542	-2.2229	-1.1979	-2.3979	-1.7812	-1.5792	-2.1396	-1.3667	-1.9042	-2.0812	-1.2604	-1.9333	-1.7396	365.900	375.205	349.514	65.270	322.734	336.056	340.070	399.980	184.977	215.556	292.048	405.484	215.193	114.925	308.609	110.850	0.00047426	0.00091856	3.87e-05	1153.3	1.2246e-05	6.0575e-06	1243.4	243.04	2.3776e-06	3.4052e-06	303.29	83.479	67.513	19.605	4.4927e-06	26.892	0.00047	0.00046162	0.00014727	1155.2	5.2054e-06	5.0542e-06	1237.6	249.65	5.061e-06	5.177e-06	315.01	87.944	70.714	21.477	5.8023e-06	29.493	269.233	219.070	174.138	72.751	364.364	172.597	72.448	80.125	270.951	272.428	79.345	86.854	86.912	93.995	230.542	92.909	-8191	255	
7678.533	1	1	0	0	0.24178	0.040757	0.28249	0.027657	0.39321	0.19672	0.13077	0.31438	0.041608	0.26525	0.29277	0.25548	0.031476	0.15283	0.15566	0.20517	-0.94792	-2.0479	-1.3083	-1.6292	-2.175	-1.2917	-1.9354	-2.0312	-1.2896	-2.2354	-1.6208	-1.3604	-2.0625	-1.4021	-1.5854	-1.9958	373.947	332.020	383.524	136.353	387.842	413.445	266.732	404.970	69.202	407.361	111.871	381.231	99.450	216.834	411.621	328.071	0.00037026	0.00074542	0.00015119	1155.3	6.6496e-06	3.334e-06	1243.2	242.42	5.6389e-06	5.556e-06	303.85	83.887	66.93	19.454	5.4443e-06	26.951	0.00045772	0.00048417	0.00014817	1153.6	5.0809e-06	5.4123e-06	1237.9	249.03	5.0847e-06	5.5347e-06	314.82	87.943	70.593	21.749	5.8762e-06	29.559	277.163	176.250	278.250	72.254	95.226	184.768	72.595	80.200	239.799	164.152	79.110	87.075	87.278	93.900	106.133	92.929	-8191	255	
7678.629	1	1	0	0	0.1691	0.27993	0.075269	0.07066	0.20139	0.045348	0.39054	0.3257	0.033138	0.086757	0.29114	0.24867	0.23286	0.14408	0.085322	0.15134	-0.85	-2.0979	-1.5667	-1.4125	-2.1521	-1.3021	-1.9229	-1.975	-1.2208	-1.9937	-1.6708	-1.425	-2.0625	-1.5146	-1.7854	-2.1292	227.230	374.175	85.516	166.712	92.098	389.387	381.874	391.391	119.378	278.307	98.269	81.097	187.758	196.220	296.053	177.285	0.00026652	0.00044119	0.00019126	1155.2	4.318e-06	1.3422e-06	1248.2	244.95	3.6299e-06	8.9063e-06	303.93	83.321	67.148	19.405	4.2987e-06	26.875	0.00046588	0.00053067	0.0001496	1154.6	5.2395e-06	5.9243e-06	1239.3	249.49	5.2656e-06	6.0653e-06	314.94	87.922	70.984	21.99	5.789e-06	29.631	272.175	217.673	122.893	72.395	244.323	203.489	72.714	79.972	210.869	193.490	79.297	86.708	87.245	93.964	142.143	93.043	-8191	255	
7678.726	1	1	0	0	0.083748	0.16867	0.062431	0.16174	0.20444	0.24289	0.14197	0.23595	0.047354	0.15101	0.22037	0.15585	0.054404	0.23195	0.16696	0.11213	-1.1479	-2.0729	-1.6292	-1.4062	-1.9833	-1.3458	-1.8271	-2.0667	-1.2146	-1.9646	-1.7979	-1.3729	-2.1708	-1.625	-1.3729	-2.2188	140.358	365.475	250.919	364.879	383.638	287.709	71.707	376.027	410.791	95.577	362.067	146.109	64.573	415.806	76.519	66.055	0.00045537	0.00044561	0.00017205	1160.6	2.4584e-06	5.9344e-06	1248.3	244.07	9.9524e-06	4.9355e-06	300.4	83.247	67.453	19.573	6.2188e-06	26.873	0.00049148	0.00056531	0.00014831	1153.7	5.5338e-06	6.2286e-06	1239	249.61	5.6417e-06	6.2477e-06	313.11	87.681	71.518	22.071	5.6648e-06	29.567	265.853	190.693	299.401	72.503	191.433	324.627	72.241	80.344	240.762	85.211	79.672	86.875	86.974	94.208	335.841	92.855	-8191	255	
7678.822	1	1	0	0	0.23173	0.14792	0.095278	0.25086	0.098051	0.17026	0.091448	0.25149	0.09791	0.10719	0.12754	0.3443	0.15056	0.13666	0.058297	0.19871	-0.81042	-1.9312	-1.9021	-1.5521	-2.125	-1.5604	-1.6792	-2.1958	-1.0417	-1.7542	-1.8708	-1.3271	-2.2458	-1.5312	-1.3813	-2.0312	387.637	221.128	79.087	169.974	275.162	383.142	362.085	383.043	332.376	325.738	232.612	389.194	373.721	116.233	368.045	107.122	0.00044653	0.00097905	0.0001094	1162.5	5.7549e-06	3.7665e-06	1243.4	244.77	5.2936e-06	4.6267e-06	301.41	83.531	67.057	19.295	2.58e-06	26.806	0.00052676	0.00056512	0.00014529	1155.6	5.9594e-06	6.2035e-06	1235.5	249.89	6.0085e-06	6.1654e-06	313.38	87.861	72.406	21.989	5.6377e-06	29.58	262.804	115.998	322.830	72.370	205.225	312.095	72.476	79.926	181.264	228.051	79.568	86.730	87.035	93.642	214.964	92.856	-8191	255	
7678.942	1	1	0	0	0.20628	0.13911	0.23602	0.38237	0.21243	0.35083	0.11358	0.081269	0.11466	0.31691	0.18068	0.24722	0.057388	0.3533	0.094419	0.30312	-0.98333	-1.6812	-1.9042	-1.2563	-2.025	-1.3937	-1.6313	-2.3083	-1.6583	-1.6313	-1.8958	-1.3396	-1.9062	-1.6792	-1.3312	-2.1917	252.175	386.384	399.261	396.599	144.868	89.395	370.192	105.414	189.400	223.139	360.029	105.753	80.280	409.388	177.785	279.429	0.00044032	0.00059594	0.00018231	1161	8.1667e-06	6.6749e-06	1252.1	245.29	2.6026e-06	4.3425e-06	300.8	83.758	67.355	19.358	2.5394e-06	27.012	0.00056885	0.00055126	0.00014432	1159.3	6.34e-06	6.0224e-06	1237	250.12	6.3674e-06	5.9239e-06	312.64	88.354	72.613	21.85	5.4727e-06	29.808	285.803	305.003	200.497	72.371	196.543	295.668	72.549	80.246	193.856	102.249	78.956	86.869	86.849	94.155	118.312	93.399	-8191	255	
7679.037	1	1	0	0	0.21688	0.027465	0.37797	0.17289	0.23705	0.083145	0.25547	0.16602	0.31301	0.057035	0.34185	0.38318	0.12175	0.042785	0.28112	0.15431	-1.0562	-1.7021	-2.0979	-1.3042	-2.0938	-1.875	-1.5187	-2.2812	-1.2792	-1.7125	-2.2562	-1.3229	-1.9708	-1.9354	-1.3292	-2.2333	290.802	289.222	199.912	360.714	277.778	226.934	415.709	261.701	118.954	221.532	419.935	335.974	64.128	98.620	358.960	206.178	0.00022023	0.00075851	2.2646e-05	1162.9	1.2411e-06	3.2728e-06	1245.7	244.29	4.5475e-06	6.5054e-06	303.22	84.42	66.793	19.362	6.6059e-06	26.858	0.00057189	0.00052577	0.0001402	1163.4	6.3234e-06	5.8282e-06	1235.7	251.18	6.1914e-06	5.6637e-06	311.13	89.065	72.127	21.617	5.2793e-06	29.979	229.680	359.699	247.497	72.309	117.893	288.267	72.475	80.211	178.052	146.955	79.392	86.890	87.076	93.777	230.362	93.032	-8191	255	
7679.133	1	1	0	0	0.068253	0.092187	0.38142	0.2199	0.033541	0.17208	0.15226	0.14971	0.24266	0.17816	0.2678	0.080614	0.17779	0.036578	0.1856	0.059154	-0.99375	-1.6646	-2.0208	-1.4667	-1.8479	-2.0187	-1.6437	-2.2	-1.7437	-1.4604	-2.2979	-1.3896	-1.7479	-2.1042	-1.2792	-2.1042	284.848	245.197	117.108	404.774	417.357	328.116	223.660	302.996	194.010	364.001	358.149	164.422	348.966	367.387	244.287	114.558	0.00037226	0.00018454	0.00014343	1159.1	4.1644e-06	2.4107e-06	1250.8	243.07	4.5286e-06	1.4631e-06	301.93	83.608	67.505	19.398	1.2859e-05	26.901	0.00054478	0.00050158	0.00013492	1164	5.9204e-06	5.4876e-06	1233.2	251.53	5.8316e-06	5.4095e-06	310.59	89.206	71.818	21.524	5.3086e-06	30.224	268.669	207.051	247.710	72.350	239.874	156.157	72.506	80.256	367.163	249.788	79.367	86.945	86.705	94.148	213.325	93.767	-8191	255	
7679.229	1	1	0	0	0.30913	0.22134	0.12745	0.1216	0.037425	0.2113	0.24767	0.25369	0.25618	0.16957	0.20147	0.26074	0.31375	0.24205	0.1715	0.082909	-1.35	-1.3875	-2.2646	-1.6396	-1.6812	-1.9979	-1.5854	-2.2125	-1.8021	-1.4771	-2.1979	-1.5375	-1.5271	-2.2333	-1.2104	-1.9375	305.417	75.700	183.834	259.076	83.553	190.044	70.028	387.420	69.021	286.368	249.523	333.854	167.849	75.335	140.119	391.319	0.00043574	0.00055424	0.00018687	1160.9	4.1018e-06	2.7181e-06	1248.3	243.39	6.88e-06	2.7551e-06	302.94	83.95	67.392	19.4	1.2999e-05	26.821	0.00051596	0.00048564	0.00013768	1167.7	5.6692e-06	5.3903e-06	1233.8	252.69	5.6414e-06	5.2811e-06	312.73	89.367	71.501	21.508	5.7016e-06	30.19	280.912	400.033	205.087	72.415	96.137	72.765	72.543	79.862	206.553	392.174	79.487	86.690	87.064	93.777	194.698	92.634	-8191	255	
7679.325	1	1	0	0	0.11384	0.13068	0.22534	0.17551	0.10692	0.18428	0.35196	0.030609	0.10359	0.15409	0.22821	0.24756	0.29152	0.16612	0.11494	0.17694	-1.5875	-1.2396	-2.0687	-1.4625	-1.6875	-2.0062	-1.6063	-1.8854	-2.0958	-1.1146	-2.3146	-1.6	-1.5688	-2.0563	-1.325	-1.9	226.455	151.135	407.055	365.259	398.642	356.274	326.036	383.064	339.070	378.614	358.846	298.371	312.178	70.404	356.886	335.087	0.00038967	0.00048982	0.00015462	1164	1.6809e-06	3.6794e-06	1243.5	244.11	6.2684e-06	4.7543e-06	302.1	82.89	67.656	19.415	1.4311e-05	26.989	0.00051137	0.00047845	0.00014729	1168.3	5.5902e-06	5.3136e-06	1239.7	252.07	5.5983e-06	5.2861e-06	315.53	89.088	71.37	21.506	6.0763e-06	30.064	239.784	321.210	132.535	72.206	195.832	334.471	72.047	79.925	302.543	80.523	79.235	86.749	86.296	93.732	263.386	92.679	-8191	255	
7679.421	1	1	0	0	0.19804	0.13869	0.26608	0.22382	0.24673	0.20426	0.19536	0.058434	0.010905	0.068324	0.21143	0.11778	0.19523	0.045909	0.2125	0.25093	-1.625	-1.2062	-1.9896	-1.875	-1.4667	-2.1604	-1.5271	-1.8792	-1.9896	-1.2542	-2.1979	-1.6625	-1.2542	-2.1	-1.4792	-1.6187	235.204	335.426	336.386	366.427	129.811	389.163	402.898	197.357	332.497	342.671	336.188	333.706	91.339	313.847	267.848	384.610	0.00045824	0.00093221	8.1321e-05	1163	5.7388e-06	4.0379e-06	1250.8	243.65	4.1557e-06	1.2291e-06	304.54	82.93	67.379	19.437	1.0953e-05	26.929	0.00050464	0.00048838	0.00015575	1164.7	5.4655e-06	5.4284e-06	1246.3	251.47	5.5022e-06	5.506e-06	317.61	88.567	71.2	21.714	6.2202e-06	29.926	271.851	149.967	191.483	72.227	193.464	357.136	72.408	80.139	305.935	177.493	79.284	86.491	86.574	93.438	184.727	93.254	-8191	255	
7679.542	1	1	0	0	0.070012	0.072256	0.17422	0.33258	0.24798	0.10084	0.20805	0.28463	0.1367	0.031729	0.34604	0.017173	0.24828	0.36979	0.21552	0.27317	-1.5854	-1.2	-1.8771	-1.8792	-1.2521	-1.9979	-1.5917	-1.6208	-2.275	-1.4688	-1.9417	-1.7938	-1.3625	-2.2833	-1.4875	-1.5063	275.936	117.578	355.356	368.154	242.476	289.386	237.365	268.740	233.123	419.795	86.171	223.125	125.737	78.063	378.288	360.160	0.00037359	0.00054923	0.00012069	1162.5	5.6589e-06	4.4253e-06	1250.1	243.29	6.1397e-06	1.0137e-05	302.5	83.481	67.19	19.358	6.1877e-06	26.879	0.00049519	0.00051506	0.00015703	1161.9	5.3449e-06	5.6701e-06	1244.6	250.35	5.3455e-06	5.8188e-06	316.06	88.477	70.853	21.866	6.0335e-06	29.699	287.255	188.200	203.349	72.065	337.331	280.293	72.543	79.826	161.781	169.658	79.536	86.607	86.970	93.684	274.670	93.297	-8191	255	
7679.638	1	1	0	0	0.15938	0.10434	0.2233	0.055284	0.31861	0.15133	0.21184	0.20717	0.19424	0.13612	0.17215	0.14844	0.28253	0.27097	0.34224	0.3324	-1.7375	-1.1625	-1.8479	-2.1417	-1.1958	-2.1292	-1.7271	-1.3687	-2.1375	-1.1667	-1.8813	-2.0833	-1.3563	-2.1854	-1.5104	-1.5396	376.919	382.420	390.081	300.635	266.784	334.528	307.540	390.220	149.257	345.129	192.655	414.943	327.054	358.452	314.586	412.644	0.00033022	0.00060958	0.00017644	1160.1	3.4773e-06	8.8461e-06	1242	243.65	3.3593e-06	1.0954e-05	303.15	83.521	67.349	19.497	5.1326e-06	27.02	0.00048574	0.00054362	0.00015097	1159.6	5.2898e-06	6.0496e-06	1241.3	249.37	5.3997e-06	6.08e-06	315.33	87.924	71.005	22.075	5.871e-06	29.519	256.875	198.637	190.245	72.203	234.157	232.999	72.228	79.867	72.111	187.675	79.439	87.016	86.965	94.281	310.272	92.795	-8191	255	
7679.734	1	1	0	0	0.060972	0.081801	0.029794	0.14584	0.22151	0.11076	0.32595	0.17385	0.35254	0.18933	0.22026	0.12461	0.26336	0.17093	0.13278	0.054393	-1.6938	-1.3208	-1.6271	-2.1188	-0.99583	-2.0708	-1.9312	-1.4562	-2.2854	-1.3563	-1.5208	-2.1833	-1.1313	-1.8542	-1.7062	-1.2417	355.867	87.235	159.303	376.248	352.094	187.804	374.434	372.107	316.882	416.476	266.869	388.762	82.513	84.651	299.745	238.062	0.00049607	0.00056425	6.2713e-05	1157.6	1.4784e-05	6.0501e-06	1244.2	243.21	8.943e-06	4.3393e-06	300.98	83.167	67.209	19.372	6.676e-06	26.942	0.00049938	0.0005649	0.00014576	1156.4	5.5748e-06	6.21e-06	1237.7	249.46	5.6155e-06	6.1742e-06	312.38	87.618	71.457	22.065	5.6592e-06	29.414	268.403	153.440	421.402	72.135	211.465	197.028	72.564	79.964	239.980	195.926	79.690	86.599	86.740	93.401	231.024	92.930	-8191	255	
7679.806	1	1	0	0	0.2653	0.16744	0.047837	0.10983	0.30807	0.1113	0.11096	0.3048	0.10006	0.15209	0.12648	0.20995	0.20887	0.23964	0.073526	0.28652	-1.9021	-1.4771	-1.4958	-2.2833	-1.1063	-1.8563	-1.85	-1.2146	-2.2375	-1.7563	-1.5333	-2.2208	-1.3208	-1.8479	-1.9104	-1.4271	416.695	376.328	112.313	90.945	379.034	312.902	393.849	414.149	310.261	380.269	263.146	152.097	403.188	269.403	145.462	170.420	0.00051332	0.00034937	8.2826e-05	1160.1	8.2562e-06	1.2198e-06	1245.4	243.48	9.1083e-06	4.7221e-06	303.6	83.82	66.996	19.426	6.4312e-06	26.614	0.0005274	0.00055516	0.00014092	1154.7	5.8899e-06	6.051e-06	1235.8	249.11	5.9724e-06	6.0187e-06	312.11	87.708	72.105	21.866	5.545e-06	29.342	255.137	195.256	111.458	72.283	212.163	98.293	72.413	80.070	218.934	240.417	79.709	86.484	86.782	93.639	201.151	92.771	-8191	255	
7679.902	1	1	0	0	0.22764	0.31816	0.21482	0.18089	0.16622	0.35094	0.15428	0.15175	0.19739	0.1073	0.080505	0.2446	0.1196	0.1329	0.081093	0.075123	-1.5396	-1.5729	-1.4021	-2.1042	-1.4312	-1.5438	-2.175	-1.3917	-2.0167	-1.9312	-1.3646	-2.2938	-1.5375	-1.7958	-1.9021	-1.3708	204.014	344.241	408.899	362.565	326.145	141.761	336.174	338.286	286.198	416.470	196.990	395.266	153.841	290.886	323.097	109.335	0.00053832	0.00019787	0.0001369	1165.2	9.3867e-06	3.6823e-06	1246.2	244.67	6.5791e-06	6.57e-06	304.28	83.483	67.039	19.526	9.1827e-06	26.936	0.00055736	0.00054106	0.00013848	1157.7	6.1626e-06	5.7956e-06	1235.4	249.88	6.1556e-06	5.8088e-06	311.39	88.026	72.303	21.747	5.3456e-06	29.626	268.991	417.683	215.398	71.887	187.386	302.142	71.958	79.714	224.343	372.427	78.954	86.669	86.606	93.254	129.681	92.377	-8191	255	
7680.021	1	1	0	0	0.17787	0.11282	0.098149	0.25893	0.26634	0.11408	0.26469	0.36998	0.1047	0.31739	0.20504	0.11647	0.26105	0.11328	0.074622	0.072965	-1.6562	-1.7812	-1.2333	-2.3333	-1.5042	-1.5063	-2.2583	-1.475	-1.7229	-1.8375	-1.3	-2.0917	-1.7458	-1.5063	-1.8792	-1.5521	379.404	69.809	245.986	420.425	370.942	220.269	378.468	348.395	133.421	95.063	377.147	219.142	344.101	411.989	405.439	238.660	0.00024426	0.00094048	0.00020967	1162.9	6.6777e-06	3.0548e-06	1247.1	245.26	7.3146e-06	8.6683e-06	304.71	83.867	67.018	19.55	5.3479e-06	26.97	0.00055678	0.00051743	0.00013367	1163.4	6.1071e-06	5.5566e-06	1234.3	251.01	6.0504e-06	5.5907e-06	310.51	88.641	72.055	21.608	5.2594e-06	30.024	264.287	351.942	218.685	72.178	70.922	261.549	72.376	79.872	376.572	281.063	79.075	86.559	86.486	93.691	191.448	92.897	-8191	255	
7680.117	1	1	0	0	0.12937	0.1331	0.15013	0.34321	0.13159	0.067008	0.26608	0.15365	0.2347	0.25583	0.29117	0.070544	0.32132	0.078661	0.091104	0.31952	-1.5229	-1.725	-1.3312	-2.1583	-1.4521	-1.5875	-2.125	-1.3417	-1.7271	-1.7271	-1.3563	-2.1917	-1.8854	-1.4562	-2.2062	-1.275	257.791	110.014	268.768	412.153	254.700	322.499	74.890	95.573	198.561	306.089	105.939	392.287	405.783	62.575	127.474	382.018	0.00023931	0.00050342	9.2953e-05	1162.2	3.0362e-06	3.3499e-06	1247.2	243.54	2.1634e-06	4.6473e-06	303.15	83.272	67.206	19.493	9.1355e-06	26.871	0.00054402	0.00050697	0.00013298	1167.2	5.9377e-06	5.4447e-06	1233	251.63	5.8346e-06	5.4913e-06	310.63	89.288	71.892	21.554	5.3782e-06	30.131	248.775	143.079	285.972	72.176	399.182	105.552	72.180	79.891	321.097	210.379	79.528	87.081	86.737	93.527	212.745	93.164	-8191	255	
7680.215	1	1	0	0	0.2777	0.25107	0.1531	0.37357	0.21103	0.18545	0.16411	0.26035	0.073969	0.14249	0.29461	0.23469	0.25422	0.15633	0.15078	0.19925	-1.2875	-1.8937	-1.1917	-2.0271	-1.8	-1.1375	-2.3917	-1.5896	-1.5667	-2.1625	-1.3563	-2.2062	-1.9021	-1.3146	-2.0604	-1.5312	300.978	144.063	314.867	314.583	131.669	82.038	345.734	345.198	390.458	242.609	332.871	135.055	272.071	287.565	90.680	317.178	0.00038151	0.00021474	0.00013698	1163.3	3.4354e-06	4.1513e-06	1251.4	244.66	4.3592e-06	3.171e-06	304.05	83.042	67.138	19.486	1.9664e-05	26.782	0.00052033	0.00049496	0.00013828	1171.1	5.734e-06	5.3096e-06	1238.7	252.42	5.6985e-06	5.3968e-06	313.58	89.639	71.547	21.53	5.8014e-06	30.237	286.014	221.216	199.414	72.126	175.737	296.149	72.347	79.960	268.741	108.103	79.624	86.881	86.494	93.803	192.823	93.169	-8191	255	
7680.334	1	1	0	0	0.18807	0.16688	0.28735	0.23875	0.2026	0.06736	0.22861	0.1799	0.16252	0.14012	0.19808	0.18624	0.38745	0.19435	0.25264	0.046401	-1.325	-1.8917	-1.2437	-1.9854	-1.8021	-1.2354	-2.5187	-1.7521	-1.3667	-2.1396	-1.3417	-1.9458	-1.9667	-1.4333	-1.975	-1.9229	260.818	341.673	366.667	335.996	334.603	211.617	75.835	307.577	84.275	227.838	78.266	142.234	227.541	62.043	330.618	76.203	0.00035952	0.00015382	8.6382e-05	1166.5	3.7662e-06	5.5809e-06	1248.5	243.3	5.5076e-06	6.0768e-06	302.81	83.175	67.281	19.558	1.1953e-05	26.821	0.00051339	0.00049322	0.00014969	1170.3	5.6654e-06	5.3511e-06	1243.6	252.07	5.6307e-06	5.4499e-06	316.32	89.359	71.581	21.549	6.1844e-06	30.118	215.769	209.669	218.496	72.399	305.301	216.234	72.672	79.762	353.651	148.739	78.951	86.837	86.644	93.505	205.286	92.920	-8191	255	
7680.406	1	1	0	0	0.12905	0.21188	0.052937	0.13843	0.26245	0.088158	0.37756	0.12155	0.20089	0.090362	0.11487	0.20229	0.20305	0.17127	0.068268	0.19832	-1.0812	-2.0208	-1.3917	-1.8396	-2.0333	-1.2229	-2.1354	-1.9646	-1.4375	-2.0708	-1.6146	-1.7396	-2.1333	-1.3563	-1.9417	-1.8021	388.754	208.494	99.070	418.269	92.143	408.713	375.118	126.480	373.350	260.697	393.223	362.786	395.626	393.422	336.252	361.017	0.00038854	0.00063631	0.00011226	1162.1	1.9131e-06	8.5962e-07	1250.5	244.21	5.9438e-06	8.5564e-06	302.4	83.55	67.259	19.488	6.9161e-06	26.836	0.00050817	0.00049848	0.00015909	1165.4	5.5841e-06	5.5105e-06	1250.1	251.19	5.4699e-06	5.5857e-06	317.83	88.415	71.347	21.724	6.2189e-06	29.844	282.316	201.242	366.270	72.355	259.023	253.048	72.396	79.660	292.412	150.421	79.471	86.818	86.646	94.000	400.657	92.763	-8191	255	
7680.502	1	1	0	0	0.071987	0.082915	0.067076	0.12572	0.083437	0.02923	0.030446	0.35816	0.043923	0.23744	0.29131	0.055921	0.080961	0.23828	0.24896	0.090375	-0.97708	-2.0333	-1.5042	-1.7938	-2.0479	-1.4083	-1.9792	-1.9854	-1.3375	-2.1979	-1.6417	-1.5542	-2.1792	-1.3083	-1.8229	-1.85	229.665	128.342	358.068	350.403	206.280	173.661	205.633	408.700	164.902	89.249	381.301	281.714	279.251	344.477	231.842	371.159	0.00035461	0.00083905	8.0977e-05	1161.1	2.7035e-06	2.7877e-06	1251.4	243.69	7.5472e-06	8.7504e-06	303.37	83.421	67.396	19.521	3.783e-06	26.917	0.0004882	0.0005202	0.00015761	1163.3	5.4233e-06	5.7685e-06	1246.8	250.63	5.3145e-06	5.9104e-06	317.17	88.318	71.124	21.896	6.0424e-06	29.782	272.484	177.889	416.781	72.246	235.675	218.826	72.379	79.931	122.467	153.019	79.158	87.038	86.835	93.399	343.045	93.123	-8191	255	
7680.622	1	1	0	0	0.18213	0.11184	0.12209	0.18707	0.18915	0.16741	0.13688	0.56153	0.22343	0.13933	0.26048	0.26269	0.18304	0.20761	0.34937	0.30978	-1.0354	-1.9896	-1.4917	-1.6646	-1.9062	-1.3771	-1.7917	-2.1208	-1.4083	-2.2271	-1.8875	-1.4604	-2.2938	-1.2458	-1.7104	-2.0042	393.622	218.582	264.113	394.570	384.766	198.399	332.623	360.883	350.958	180.401	360.363	75.296	113.211	145.203	267.044	421.607	0.00058871	0.00049194	2.4968e-05	1165.8	8.5291e-06	7.0973e-06	1245.9	243.7	9.8568e-06	2.719e-06	303.29	84.278	67.312	19.274	7.4866e-06	26.79	0.00048328	0.00055425	0.0001525	1161.9	5.37e-06	6.0682e-06	1243.6	249.59	5.3361e-06	6.1681e-06	315.29	88.292	71.171	22.08	5.81e-06	29.625	269.831	95.281	356.984	72.174	206.024	212.369	72.560	80.023	213.222	150.078	79.529	87.028	86.903	93.676	327.472	93.176	-8191	255	
7680.719	1	1	0	0	0.10886	0.21374	0.056018	0.41876	0.070771	0.39258	0.17149	0.17334	0.19875	0.34891	0.14762	0.24914	0.14004	0.29048	0.10991	0.073094	-0.8625	-2.1375	-1.6812	-1.4333	-2.2354	-1.2854	-1.9896	-2.2562	-1.2146	-2.0458	-1.8958	-1.2792	-2.1688	-1.6938	-1.5333	-2.4479	65.185	143.510	373.258	378.869	211.803	256.917	391.097	102.800	182.216	170.625	243.227	130.057	357.513	368.491	128.507	73.894	0.00041754	0.00041361	0.00019258	1164	2.836e-06	1.524e-06	1251.6	243.43	1.0658e-05	8.3172e-06	302.12	83.352	67.587	19.354	5.4349e-06	26.91	0.00050153	0.00057057	0.00014813	1158.9	5.6488e-06	6.3436e-06	1241.5	249.87	5.7544e-06	6.2838e-06	313.77	87.944	72.032	22.096	5.676e-06	29.52	247.438	193.219	415.180	72.376	335.175	389.286	72.488	80.176	214.272	167.350	79.304	86.827	87.186	93.796	352.675	93.182	-8191	255	
7680.815	1	1	0	0	0.32786	0.22277	0.058138	0.25575	0.33161	0.19149	0.1923	0.39294	0.25617	0.18473	0.13576	0.10737	0.32117	0.3529	0.12293	0.14585	-0.72917	-1.8917	-1.8813	-1.5	-2.1625	-1.6063	-1.85	-2.0792	-1.2896	-1.8146	-2.0854	-1.4083	-2.1542	-1.675	-1.3438	-2.0646	190.986	275.082	145.688	419.555	203.067	375.000	290.318	360.257	201.580	375.139	190.911	122.927	399.342	421.456	244.310	297.559	0.00052564	0.00099799	0.00019614	1164.6	8.4094e-06	4.0561e-06	1248.1	244.16	6.1473e-06	9.9215e-07	301.91	83.763	67.125	19.604	5.8857e-06	26.755	0.0005331	0.00056245	0.00014464	1158.5	6.0043e-06	6.1382e-06	1238.3	249.02	6.0406e-06	6.033e-06	312.73	87.836	72.413	21.981	5.5253e-06	29.494	255.620	293.906	191.642	72.499	197.179	250.599	72.662	79.998	185.625	349.486	79.940	86.869	86.903	94.057	245.544	93.328	-8191	255	
7680.935	1	1	0	0	0.2054	0.40186	0.18191	0.10292	0.029077	0.066881	0.31555	0.068394	0.32396	0.18567	0.20548	0.013381	0.19683	0.14441	0.30207	0.16789	-1.1562	-1.9396	-1.9458	-1.4583	-2.1083	-1.6292	-1.7333	-2.0792	-1.55	-1.5958	-2.2562	-1.4146	-2.0521	-1.8583	-1.3	-2.2938	402.762	318.763	325.850	349.087	84.543	214.135	335.535	174.458	143.903	198.951	347.554	330.939	68.504	404.739	261.879	409.418	0.00042761	0.00045172	0.00017675	1164.9	8.7369e-06	4.4994e-06	1250.8	243.64	5.0365e-06	6.0464e-06	301.51	83.875	67.948	19.338	1.2084e-06	26.865	0.00056266	0.00054005	0.0001412	1158.3	6.2592e-06	5.9005e-06	1237	249.61	6.3294e-06	5.8701e-06	312.19	88.095	72.783	21.796	5.4328e-06	29.781	261.946	270.996	202.447	72.349	223.537	185.531	72.657	80.044	193.420	111.506	79.207	86.779	87.181	93.822	342.337	93.338	-8191	255	
7681.031	1	1	0	0	0.22908	0.2113	0.064366	0.39094	0.086897	0.23989	0.36081	0.1888	0.15065	0.18706	0.089945	0.22141	0.25936	0.12584	0.13643	0.16673	-0.86875	-1.5354	-2.0583	-1.125	-2.0979	-1.9125	-1.3813	-2.1354	-1.4542	-1.4688	-2.0958	-1.3438	-2.0583	-2.1667	-1.3062	-2.2479	198.264	238.965	314.331	366.287	170.532	158.392	341.824	303.409	93.711	375.544	92.351	379.691	116.952	360.211	355.901	297.635	0.00032147	0.00031002	0.00012559	1160	4.2678e-06	3.0924e-06	1249	244.82	2.5422e-06	3.5952e-06	300.9	83.707	67.369	19.414	7.9735e-06	26.97	0.00057348	0.00052768	0.00014051	1164.7	6.307e-06	5.8417e-06	1237.6	251.54	6.2664e-06	5.8049e-06	312.29	89.28	72.652	21.826	5.4605e-06	30.267	272.604	214.097	160.878	72.193	326.600	229.415	72.451	80.152	142.606	398.404	79.727	86.883	86.833	93.811	186.480	93.224	-8191	255	
7681.103	1	1	0	0	0.16015	0.047017	0.16421	0.23267	0.22909	0.33743	0.26028	0.18232	0.14728	0.051821	0.22368	0.25983	0.2767	0.10783	0.16305	0.27888	-1.2292	-1.5354	-2.0083	-1.4396	-1.6437	-1.9729	-1.6292	-1.8771	-1.6396	-1.275	-2.325	-1.6146	-1.7646	-2.0938	-1.1562	-2.2604	242.124	351.806	295.993	421.253	116.473	387.845	398.553	409.635	134.233	187.545	63.686	415.077	368.770	410.594	414.409	78.287	0.00025122	0.00015381	0.00018007	1165.2	3.8265e-06	2.7964e-06	1251.3	245.43	8.8989e-06	6.4989e-06	304.22	83.33	67.48	19.316	4.5159e-06	26.889	0.00056857	0.00052433	0.00014044	1171.8	6.1641e-06	5.7428e-06	1238.9	253.26	6.1109e-06	5.6481e-06	313.22	89.858	72.336	21.744	5.6401e-06	30.466	255.845	151.030	181.951	72.040	290.061	344.511	72.515	80.076	311.472	148.505	79.520	86.457	86.953	93.891	191.218	93.353	-8191	255	
7681.222	1	1	0	0	0.29546	0.016259	0.23472	0.29493	0.02733	0.18267	0.3276	0.056971	0.16523	0.094027	0.16714	0.033381	0.16161	0.076863	0.038601	0.25788	-1.2396	-1.4667	-2.325	-1.4542	-1.7375	-2.1729	-1.3583	-2.0687	-1.8167	-1.2021	-2.3708	-1.6583	-1.6771	-2.1229	-1.3771	-1.7021	231.257	214.050	276.463	396.708	231.102	384.662	93.664	393.623	295.663	129.190	127.911	168.798	68.354	336.380	336.733	312.338	0.0002792	0.00062713	0.00010027	1166.7	9.8108e-06	2.9912e-06	1250.4	243.97	5.6052e-06	1.0019e-05	306.66	83.206	67.94	19.389	5.9874e-06	26.643	0.00054559	0.00050843	0.00014677	1176.3	5.9722e-06	5.6331e-06	1243.4	253.41	5.9371e-06	5.585e-06	315.55	89.881	72.016	21.686	5.9978e-06	30.426	260.919	367.737	134.762	72.036	224.840	105.058	72.359	80.180	209.898	193.873	79.450	86.680	86.594	93.467	212.579	92.747	-8191	255	
7681.318	1	1	0	0	0.18876	0.12894	0.044116	0.3366	0.097684	0.17315	0.078829	0.33866	0.28775	0.23663	0.26863	0.16928	0.16596	0.28658	0.065183	0.22902	-1.3208	-1.2062	-2.1375	-1.5312	-1.5021	-2.2375	-1.4375	-1.9583	-1.9312	-1.1562	-2.0375	-1.5625	-1.5292	-1.9979	-1.3958	-1.7167	74.319	226.352	309.684	398.755	249.535	157.694	346.255	361.199	290.895	103.023	308.953	298.341	149.632	386.286	373.257	66.688	0.00046878	0.00031177	7.4386e-05	1162.3	4.962e-06	9.7219e-07	1252.9	244.23	6.3948e-06	1.0616e-05	305.74	83.44	67.241	19.553	2.4984e-06	26.993	0.00053379	0.00049942	0.0001559	1171.9	5.789e-06	5.5402e-06	1248.1	253	5.761e-06	5.5135e-06	317.8	89.487	71.649	21.643	6.2947e-06	30.171	261.023	269.878	266.755	72.247	183.380	163.055	72.247	79.651	296.161	198.145	79.261	86.578	86.684	93.229	212.325	93.420	-8191	255	
7681.414	1	1	0	0	0.12352	0.27462	0.20981	0.19242	0.026648	0.18439	0.0538	0.1394	0.09655	0.12602	0.30308	0.2145	0.025453	0.058742	0.083369	0.15574	-1.5812	-1.3708	-1.8979	-1.7542	-1.3604	-2.1625	-1.7625	-1.9833	-2.1146	-1.3771	-1.9771	-2.0187	-1.3854	-2.2313	-1.4208	-1.5812	229.858	310.497	392.609	402.546	88.063	378.542	297.720	274.104	378.289	111.472	416.956	70.411	179.831	299.866	187.799	370.917	0.00044005	0.00055249	0.00012456	1158.2	5.434e-06	5.0044e-06	1248.9	244.8	3.8685e-06	5.7964e-06	304.96	83.174	67.223	19.494	6.1454e-06	26.873	0.000522	0.00050867	0.00016187	1169.4	5.6469e-06	5.6478e-06	1249.2	251.94	5.6507e-06	5.717e-06	319.07	89.022	71.586	21.867	6.404e-06	29.989	253.317	169.720	144.226	72.040	343.008	312.281	72.245	80.053	188.114	211.560	79.254	86.428	86.798	93.958	111.139	92.827	-8191	255	
7681.510	1	1	0	0	0.22061	0.19671	0.095868	0.22051	0.27677	0.17362	0.084386	0.22415	0.058738	0.29326	0.057041	0.30946	0.24196	0.0919	0.22125	0.25127	-1.8542	-1.2229	-2.1167	-1.925	-1.2896	-2.225	-1.5312	-1.8208	-2.0583	-1.3188	-2.0396	-1.9146	-1.4833	-2.2771	-1.4833	-1.5792	282.460	71.058	331.410	321.986	359.029	290.160	271.158	225.533	212.306	392.220	346.068	303.141	286.312	77.677	271.601	378.673	0.00041899	0.00090608	3.7829e-05	1166.8	1.7584e-06	1.4133e-06	1246	243.81	1.945e-06	6.6392e-06	303.44	83.383	67.132	19.472	3.3904e-06	27.069	0.00050982	0.00053799	0.00016305	1167.2	5.5499e-06	5.9938e-06	1248.4	251.01	5.5388e-06	6.1466e-06	318.45	88.833	71.368	22.033	6.3017e-06	29.918	274.943	150.227	333.394	71.953	351.477	379.260	72.080	79.850	193.754	176.347	79.130	86.494	86.913	93.814	83.822	92.792	-8191	255	
7681.607	1	1	0	0	0.043716	0.20315	0.26797	0.2008	0.16565	0.03021	0.090201	0.35254	0.14261	0.20125	0.24966	0.1458	0.25062	0.41685	0.14273	0.21441	-1.8979	-1.0979	-1.9562	-1.9292	-1.3438	-1.8771	-1.6771	-1.5729	-1.9771	-1.2396	-1.7771	-2.0292	-1.2646	-2.0875	-1.6896	-1.525	177.553	146.223	227.903	318.520	340.445	244.101	295.820	401.816	349.656	199.713	290.149	398.209	81.280	351.196	218.281	419.325	0.00039536	0.00057763	6.505e-05	1165.8	5.22e-06	4.9464e-06	1245.7	244.37	6.048e-06	3.2138e-06	303.68	83.769	67.583	19.576	2.4222e-06	26.833	0.00050635	0.00056749	0.00015654	1166.2	5.499e-06	6.3133e-06	1244.5	250.67	5.5615e-06	6.3862e-06	316.3	88.495	71.464	22.272	5.9885e-06	29.695	263.817	186.454	294.222	72.000	212.210	166.317	72.255	79.859	302.741	393.298	79.382	86.328	86.488	93.649	95.762	92.868	-8191	255	
7681.703	1	1	0	0	0.15014	0.16908	0.095821	0.092052	0.067198	0.099241	0.17569	0.30822	0.11194	0.21776	0.074463	0.10901	0.084836	0.16132	0.34604	0.15035	-1.6938	-1.3229	-1.5396	-2.1771	-1.175	-1.9167	-1.9333	-1.5542	-2.2667	-1.2167	-1.5604	-2.2292	-0.97292	-1.925	-1.6812	-1.3167	181.040	265.052	165.783	155.450	195.101	120.206	388.176	363.496	235.353	136.576	366.753	136.291	406.215	304.013	239.225	84.077	0.00057123	0.00065627	0.00015177	1168.9	7.8363e-06	2.4379e-06	1246.5	245.23	1.0516e-05	7.2277e-06	302.66	83.601	67.425	19.383	3.2876e-06	26.903	0.00051801	0.00058537	0.00015141	1163.8	5.8012e-06	6.4196e-06	1241.8	250.46	5.911e-06	6.4266e-06	314.45	88.415	72.016	22.236	5.8544e-06	29.643	269.156	180.568	185.663	72.141	215.616	213.465	72.369	79.875	193.066	360.099	79.593	86.828	86.964	93.944	336.923	92.882	-8191	255	
7681.799	1	1	0	0	0.092742	0.0109	0.11793	0.41731	0.18744	0.079324	0.16424	0.21423	0.030509	0.42938	0.19845	0.34047	0.051561	0.12468	0.18493	0.40081	-1.6	-1.6083	-1.6292	-2.1625	-1.3125	-1.8083	-1.9688	-1.2833	-2.2104	-1.65	-1.8354	-2.025	-1.4917	-1.7	-1.9167	-1.4146	348.121	303.486	216.107	374.106	412.922	206.026	62.563	378.811	379.922	396.044	64.813	103.417	75.109	76.634	340.854	136.715	0.00044483	0.00069229	4.6273e-05	1163.8	5.8776e-06	2.7694e-06	1245.8	243.73	3.1216e-06	5.2972e-06	302.54	83.346	67.633	19.508	5.9099e-06	26.856	0.00055656	0.00057895	0.0001477	1161.1	6.196e-06	6.2781e-06	1241.6	249.63	6.2442e-06	6.2417e-06	313.6	88.169	72.791	22.063	5.7165e-06	29.677	257.477	401.197	399.862	72.149	183.022	271.170	72.416	80.026	309.241	66.655	79.266	86.604	86.828	93.839	352.803	92.748	-8191	255	
7681.895	1	1	0	0	0.038318	0.31769	0.17362	0.11983	0.17241	0.30832	0.21783	0.15075	0.18678	0.17288	0.12182	0.2027	0.27293	0.088126	0.063443	0.17564	-1.7875	-1.6187	-1.375	-2.2021	-1.3625	-1.7208	-2.25	-1.3979	-2.0521	-1.8021	-1.2458	-1.9646	-1.6917	-1.575	-2.0312	-1.35	81.111	393.783	106.207	403.755	390.271	358.973	332.319	279.177	349.866	319.125	182.032	64.761	354.197	239.362	371.388	321.484	0.00050324	0.00032267	3.7859e-05	1165.9	2.8543e-06	1.1309e-05	1248.4	243.72	1.055e-06	1.4025e-06	304.93	83.431	67.456	19.319	4.5439e-06	27.164	0.00057964	0.00055356	0.00014395	1162.9	6.4201e-06	5.9982e-06	1239.4	250.18	6.4468e-06	5.9984e-06	312.71	88.576	72.993	21.864	5.5705e-06	29.946	249.600	134.647	282.982	72.212	243.948	295.146	72.107	80.011	259.661	416.241	79.489	86.716	87.070	93.616	131.459	92.872	-8191	255	
7682.016	1	1	0	0	0.090417	0.33208	0.036717	0.1184	0.33378	0.13027	0.14679	0.12516	0.13056	0.33681	0.032646	0.22382	0.23637	0.15457	0.35154	0.18135	-1.475	-1.7292	-1.275	-2.45	-1.3583	-1.3229	-2.1875	-1.35	-1.9729	-1.8438	-1.2854	-2.0271	-1.6354	-1.8125	-2.0479	-1.4396	347.397	93.479	122.481	341.467	357.184	187.561	379.463	199.248	315.752	366.794	248.374	336.412	372.822	346.381	65.796	311.803	0.00027505	0.00055423	0.00011101	1167.6	7.5757e-07	1.7615e-06	1247.1	242.32	3.5774e-06	1.6574e-06	303.32	83.733	67.671	19.584	7.6567e-06	26.788	0.0005844	0.00053936	0.00014	1169.9	6.371e-06	5.8509e-06	1238.4	251.54	6.2931e-06	5.8213e-06	311.45	89.449	72.798	21.799	5.4862e-06	30.173	258.409	179.761	105.753	72.235	123.489	130.039	72.281	79.828	317.086	232.716	79.041	86.536	86.568	93.942	126.162	93.097	-8191	255	
7682.110	1	1	0	0	0.1976	0.087286	0.20851	0.11968	0.044336	0.11148	0.17037	0.12472	0.44908	0.14818	0.075303	0.21402	0.18448	0.020381	0.23639	0.13175	-1.3396	-1.9688	-1.3062	-2.0729	-1.6562	-1.5104	-2.3563	-1.1854	-1.7729	-2.0312	-1.3104	-2.1792	-1.5604	-1.4542	-2.0167	-1.5479	298.513	160.771	314.890	359.594	108.780	248.976	330.954	144.957	376.186	268.793	302.845	311.925	81.575	301.842	386.114	403.048	0.00027756	0.00074398	2.0087e-05	1170	1.4207e-06	5.4627e-06	1255.5	244.1	8.5773e-06	8.5149e-06	303.85	83.559	67.682	19.518	5.0604e-06	26.838	0.00055738	0.00052667	0.00013854	1173.4	6.1101e-06	5.6111e-06	1238.8	252.51	5.9692e-06	5.6262e-06	312.09	89.801	72.213	21.683	5.5775e-06	30.331	252.414	245.338	174.219	72.065	159.784	182.209	72.331	80.162	414.135	191.024	79.711	87.084	86.806	93.791	167.026	92.587	-8191	255	
7682.206	1	1	0	0	0.23694	0.096782	0.13473	0.30555	0.22492	0.24961	0.37682	0.22999	0.055709	0.045568	0.1904	0.28399	0.11937	0.11472	0.21892	0.18304	-1.3125	-1.9396	-1.0542	-2.1	-1.7958	-1.1417	-2.2479	-1.4771	-1.6729	-2.0792	-1.3479	-2.1375	-1.95	-1.4396	-2.2167	-1.4646	401.464	305.240	238.223	299.704	124.545	403.148	340.016	278.698	159.496	115.916	190.552	325.925	291.809	99.873	371.631	310.765	0.00024331	0.00068989	0.00013737	1170.7	4.1624e-06	6.5104e-06	1250.8	244.15	6.3779e-06	3.8891e-06	303.9	83.763	67.421	19.295	1.3666e-05	26.971	0.00053002	0.00050867	0.00014272	1176.5	5.7875e-06	5.4364e-06	1243	253.2	5.7456e-06	5.4705e-06	314.33	89.895	71.874	21.553	5.9369e-06	30.376	271.304	142.417	217.738	72.097	406.774	398.120	72.426	79.676	137.741	315.026	79.240	86.691	86.547	93.462	180.944	93.011	-8191	255	
7682.302	1	1	0	0	0.11478	0.13126	0.23134	0.068381	0.1816	0.23001	0.27875	0.22866	0.26452	0.11467	0.06789	0.13248	0.31873	0.18589	0.30214	0.22191	-1.1042	-2.0604	-1.1896	-1.8604	-1.9646	-1.2667	-2.5542	-1.6688	-1.3896	-2.2042	-1.4792	-2.0292	-2.1125	-1.1875	-2.0292	-1.725	407.188	94.889	310.647	327.280	312.332	185.046	411.280	383.538	279.202	290.186	187.440	338.802	102.552	395.633	327.967	251.227	0.00034728	0.00025268	0.00022261	1161.9	2.5096e-06	4.3332e-06	1251.2	243.03	5.7851e-06	4.7371e-06	304.94	83.121	67.394	19.358	1.0006e-05	27.101	0.00052291	0.00049716	0.00015478	1172	5.7739e-06	5.4218e-06	1247.4	252.57	5.6713e-06	5.4851e-06	317.51	89.435	71.667	21.582	6.2645e-06	30.242	276.878	201.586	205.362	72.072	253.207	325.825	72.349	79.714	337.497	147.603	79.296	86.767	86.516	93.443	195.534	92.922	-8191	255	
7682.399	1	1	0	0	0.039048	0.31002	0.14649	0.22214	0.13775	0.22186	0.34607	0.21645	0.085044	0.039657	0.22482	0.12149	0.11096	0.11259	0.081643	0.29228	-1.0833	-2.2104	-1.4562	-1.7896	-2.2083	-1.15	-2.0708	-1.6021	-1.5125	-2.1521	-1.5021	-1.7958	-2.1854	-1.2292	-2.0438	-1.8	262.385	350.264	141.416	356.091	228.916	70.017	385.181	323.117	340.817	213.545	387.741	112.756	333.763	84.533	129.208	226.364	0.00046483	0.00010932	0.0002926	1158.7	4.8961e-06	6.1341e-06	1257.1	243.24	4.9935e-06	6.3576e-06	304.49	83.425	67.356	19.489	5.8759e-06	26.975	0.00051446	0.00050842	0.00016143	1168.1	5.6398e-06	5.6245e-06	1251.3	251.42	5.5429e-06	5.7208e-06	319.11	88.775	71.607	21.815	6.3611e-06	30.036	257.511	369.168	172.430	72.275	332.964	257.308	72.091	79.783	410.412	94.189	79.138	86.561	86.563	94.090	174.435	93.011	-8191	255	
7682.495	1	1	0	0	0.20777	0.3067	0.20109	0.11403	0.24492	0.19457	0.41815	0.060263	0.1211	0.30523	0.036162	0.1917	0.26005	0.11805	0.30631	0.096512	-0.86042	-2.0792	-1.4937	-1.6958	-2.075	-1.2542	-2.1229	-1.9354	-1.0625	-2.2313	-1.35	-1.4521	-2.0958	-1.2083	-1.5854	-1.8229	350.030	345.902	416.018	378.766	248.908	359.334	365.385	84.072	223.453	83.945	71.711	331.172	378.865	377.060	186.976	216.629	0.00044806	0.0011734	0.00020038	1166.8	2.5344e-06	5.5628e-06	1254	242.93	4.6146e-06	6.825e-06	304.79	83.387	67.053	19.446	1.3796e-06	27.027	0.0004988	0.00053904	0.00016132	1167.7	5.4998e-06	5.9745e-06	1251.7	250.86	5.4678e-06	6.078e-06	318.26	88.564	71.361	22.096	6.1667e-06	29.902	278.261	143.879	420.701	71.973	321.948	167.385	72.281	79.902	264.046	194.056	78.697	86.462	86.881	93.866	355.122	92.786	-8191	255	
7682.614	1	1	0	0	0.20006	0.093094	0.34234	0.43141	0.051924	0.15436	0.13379	0.18933	0.11658	0.07179	0.23635	0.21453	0.13563	0.16698	0.26338	0.18173	-0.79583	-2.0458	-1.4833	-1.6604	-2.1542	-1.125	-2.0354	-2.2396	-1.3646	-2.0625	-1.6792	-1.3208	-2.3417	-1.3625	-1.6708	-1.8792	289.972	169.925	126.755	400.508	171.024	247.297	328.555	169.556	83.130	127.098	130.843	65.575	289.453	402.035	340.103	291.264	0.00042597	0.00055895	0.000144	1160.8	1.5745e-05	6.8925e-07	1248.2	245.23	6.2735e-06	4.4352e-06	303.09	83.495	67.175	19.318	1.8195e-06	26.972	0.00049861	0.00057137	0.00015719	1166.3	5.5875e-06	6.3007e-06	1246.8	250.99	5.586e-06	6.433e-06	316.7	88.606	71.617	22.183	5.9869e-06	29.731	263.178	142.353	153.319	72.257	224.087	348.696	72.152	79.848	201.317	163.579	78.849	86.527	86.840	93.585	279.206	92.547	-8191	255	
7682.710	1	1	0	0	0.1557	0.088083	0.1509	0.1411	0.21667	0.16966	0.15259	0.43919	0.095765	0.104	0.07015	0.40794	0.0104	0.19915	0.015865	0.19269	-0.9875	-1.9292	-1.8604	-1.4542	-2.3167	-1.3396	-1.8854	-2.1708	-1.1313	-1.8417	-1.8583	-1.2333	-2.2229	-1.3375	-1.4417	-2.1958	151.281	77.910	137.096	78.788	66.533	166.970	400.847	338.528	218.969	346.335	62.097	421.754	393.658	125.269	119.287	341.587	0.00046377	0.00075746	8.9784e-05	1164.4	9.6194e-06	9.8438e-06	1253.4	243.62	6.4246e-06	8.8322e-06	302.18	83.179	67.149	19.425	2.3847e-06	26.804	0.00051702	0.00058757	0.00015133	1161.8	5.7702e-06	6.3989e-06	1245	249.87	5.832e-06	6.3711e-06	314.1	87.963	72.065	22.141	5.8008e-06	29.631	254.295	134.606	393.114	71.931	233.675	261.694	72.349	79.997	214.635	133.670	79.043	86.340	86.605	93.899	157.210	93.188	-8191	255	
7682.806	1	1	0	0	0.20606	0.27302	0.17242	0.17365	0.21893	0.10695	0.081417	0.071969	0.28775	0.093073	0.11709	0.097497	0.42483	0.096886	0.20679	0.32425	-1.0229	-1.7333	-1.7188	-1.4354	-2.2021	-1.4688	-1.6083	-2.125	-1.1875	-2.0042	-1.9375	-1.275	-2.1875	-1.6771	-1.4688	-2.1146	309.915	67.222	262.103	331.718	254.942	171.250	413.045	338.326	151.758	213.671	137.171	222.031	361.299	397.060	251.270	352.499	0.00034678	0.00037187	0.00011374	1165.1	1.1105e-05	4.3001e-06	1250.2	242.41	1.7105e-06	6.5913e-06	300.66	83.59	67.799	19.412	1.8234e-06	26.623	0.00054384	0.00057263	0.00014686	1160.7	6.1136e-06	6.2006e-06	1241.9	249.26	6.1661e-06	6.1409e-06	313.58	87.979	72.666	21.932	5.6161e-06	29.545	257.008	306.947	235.211	71.952	256.480	290.093	72.203	79.774	331.123	316.573	79.234	86.784	86.943	93.934	268.497	92.708	-8191	255	
7682.902	1	1	0	0	0.12113	0.1233	0.2533	0.039849	0.04153	0.1816	0.10904	0.47203	0.081002	0.17893	0.17323	0.16359	0.255	0.11037	0.33076	0.23137	-1.1042	-1.6313	-1.9729	-1.3458	-1.825	-1.5167	-1.4271	-2.1708	-1.4208	-1.5833	-2.3688	-1.1729	-2.1229	-1.9396	-1.3792	-2.1021	110.095	327.468	364.901	111.437	302.642	399.781	374.529	378.294	274.295	133.833	411.122	351.878	382.595	252.258	229.235	401.095	0.00049195	0.00024833	0.00016739	1162.8	5.7069e-06	5.2184e-06	1249.1	243.35	7.5075e-06	8.6738e-06	303.77	83.561	67.329	19.433	3.8801e-06	26.883	0.00057389	0.00054982	0.00014432	1162.8	6.4025e-06	5.98e-06	1238.8	250.03	6.4336e-06	5.9833e-06	312.4	88.539	72.904	21.88	5.459e-06	29.931	237.025	307.625	329.222	72.145	271.674	345.422	72.321	79.605	280.978	107.016	79.391	86.778	87.001	93.554	353.058	92.942	-8191	255	
7682.998	1	1	0	0	0.078465	0.10667	0.19019	0.051058	0.3189	0.014203	0.22174	0.30143	0.051978	0.29998	0.28979	0.13435	0.095624	0.19981	0.044117	0.2124	-1.1271	-1.5771	-1.9104	-1.4104	-1.7021	-1.7021	-1.4583	-2.0375	-1.4417	-1.5187	-2.225	-1.4667	-1.8417	-2.0271	-1.3604	-2.1479	115.367	77.534	310.323	323.385	290.054	302.160	405.209	330.768	387.298	397.745	370.456	98.329	363.825	341.252	87.831	321.778	0.00028862	0.00029499	0.00032784	1167.5	7.738e-06	9.8449e-07	1251.2	244.61	3.5831e-06	2.3493e-06	304.12	83.344	67.703	19.361	3.674e-06	26.857	0.00058206	0.0005345	0.00014105	1168.7	6.4414e-06	5.9385e-06	1239.9	252.61	6.4819e-06	5.9987e-06	313.95	89.889	73.192	21.969	5.6837e-06	30.55	253.452	266.604	134.240	72.104	394.451	267.974	72.142	79.580	358.367	214.298	79.388	86.724	86.466	93.641	311.262	92.588	-8191	255	
7683.094	1	1	0	0	0.24069	0.17914	0.056443	0.19401	0.078996	0.18185	0.23082	0.3312	0.1233	0.133	0.16276	0.16945	0.18704	0.13653	0.0082189	0.1608	-1.1479	-1.425	-2.0479	-1.4458	-1.9229	-2.0521	-1.325	-2.2417	-1.5958	-1.4271	-2.2396	-1.4188	-1.8937	-1.925	-1.2062	-2.0687	242.885	183.266	102.176	413.793	175.176	400.299	368.030	376.133	333.988	115.043	404.102	249.206	380.456	379.780	392.107	125.433	0.0003145	0.00074729	0.00018801	1168.9	6.6026e-06	6.1688e-06	1252.3	243.98	2.8464e-06	4.1335e-06	303.16	83.633	67.609	19.354	8.7046e-06	26.72	0.00058862	0.00054845	0.00014678	1178.5	6.4584e-06	5.9908e-06	1245.4	254.52	6.4236e-06	5.9833e-06	314.56	90.664	72.909	21.838	5.9135e-06	30.681	303.345	111.142	188.185	72.181	322.605	103.101	72.253	79.708	269.328	213.441	79.259	86.664	87.086	93.514	242.878	93.072	-8191	255	
7683.190	1	1	0	0	0.070845	0.081913	0.098892	0.12836	0.36022	0.036228	0.27029	0.20917	0.14182	0.16422	0.011814	0.21859	0.31671	0.27184	0.087978	0.24212	-1.3021	-1.2687	-1.9354	-1.5812	-1.4667	-2.1813	-1.3917	-1.8875	-2.0083	-1.3646	-2.2062	-1.2729	-1.6104	-2.2188	-1.2708	-2.0292	193.376	128.525	160.836	80.632	240.272	228.357	307.836	328.281	269.672	294.604	143.956	268.560	419.648	89.205	392.525	329.885	0.00040543	0.00017753	0.00019934	1162.7	2.1022e-06	3.729e-06	1257	243.84	1.1037e-05	3.4091e-06	305.03	84.156	67.601	19.451	1.0535e-05	26.988	0.00056195	0.00052698	0.00015147	1179.9	6.0445e-06	5.7496e-06	1248.5	253.78	6.0438e-06	5.6451e-06	317.28	90.54	72.395	21.762	6.1217e-06	30.617	246.125	252.078	112.351	72.012	373.156	299.362	72.196	79.793	233.959	227.063	79.237	86.354	86.904	93.412	208.574	92.856	-8191	255	
7683.287	1	1	0	0	0.1379	0.067588	0.037054	0.21933	0.043836	0.21423	0.025473	0.24166	0.13771	0.22255	0.20165	0.23057	0.15946	0.22285	0.13704	0.092427	-1.5896	-1.2021	-2.3292	-1.4917	-1.2625	-2.0938	-1.5458	-1.9688	-2.0458	-1.2208	-2.2062	-1.6354	-1.4188	-2.2479	-1.4625	-1.9604	98.183	211.892	135.505	379.543	245.337	300.805	287.986	317.222	110.570	187.416	308.104	249.870	410.485	396.420	142.104	168.314	0.00032025	0.000608	0.00021823	1164.9	8.6207e-06	4.4965e-06	1248.4	243.51	7.0989e-06	4.3571e-06	304.49	83.855	67.291	19.343	2.4963e-06	26.993	0.00053957	0.00050938	0.00015967	1177.3	5.8868e-06	5.6369e-06	1250.6	253.13	5.8636e-06	5.5956e-06	318.65	89.792	71.888	21.737	6.3508e-06	30.345	260.747	183.207	176.201	72.095	239.050	261.551	72.149	79.944	316.350	204.128	79.378	86.637	86.965	93.964	367.814	92.715	-8191	255	
7683.405	1	1	0	0	0.13274	0.062561	0.068361	0.10118	0.31486	0.10614	0.12161	0.26418	0.065201	0.18851	0.27249	0.17177	0.18522	0.24385	0.15392	0.1419	-1.4229	-1.3792	-2.1729	-1.7	-1.4146	-2.1396	-1.4375	-1.9396	-2.0292	-1.2417	-2.1354	-1.7333	-1.5854	-2.2333	-1.4125	-1.6417	226.299	319.462	391.027	404.854	354.824	231.892	362.730	210.186	107.060	348.662	393.168	72.830	294.759	194.340	150.267	88.917	0.00047751	0.00078447	0.00013373	1161.2	4.5739e-06	3.7629e-06	1255.8	243.98	2.274e-06	9.7385e-06	304.03	83.423	67.417	19.523	2.849e-06	26.91	0.00052195	0.00051621	0.00016408	1171.2	5.7068e-06	5.7388e-06	1253.1	252.01	5.7127e-06	5.7655e-06	319.68	89.213	71.469	21.886	6.4142e-06	29.97	292.319	187.861	193.673	72.023	64.387	140.848	72.361	79.963	211.599	185.230	79.260	86.578	87.139	93.505	180.812	93.158	-8191	255	
7683.502	1	1	0	0	0.14872	0.14816	0.3326	0.2755	0.10435	0.22476	0.11747	0.19317	0.11377	0.31051	0.18283	0.18051	0.072562	0.34094	0.31618	0.14889	-1.8354	-1.0292	-2.0521	-1.8583	-1.275	-2.1146	-1.8604	-1.5833	-2.0062	-1.3646	-1.9813	-1.9062	-1.4042	-2.275	-1.3375	-1.5417	317.514	120.117	361.670	376.315	401.001	64.691	102.471	288.904	101.870	125.969	276.988	299.243	334.193	413.710	73.699	158.841	0.00027319	0.0013367	8.5136e-05	1167.8	1.7652e-06	7.9965e-06	1253.4	244.11	3.9951e-06	6.6517e-06	303.77	84.064	67.225	19.54	6.974e-06	26.826	0.00050431	0.0005315	0.00016071	1168.4	5.4333e-06	5.9008e-06	1250.6	250.6	5.4145e-06	5.998e-06	317.47	88.84	71.184	22.092	6.1704e-06	29.874	274.572	181.323	402.432	72.117	160.970	169.226	71.944	80.139	219.055	213.374	79.262	86.620	86.866	93.543	225.984	92.334	-8191	255	
7683.575	1	1	0	0	0.16201	0.1967	0.041093	0.27555	0.19767	0.1749	0.082052	0.25085	0.31664	0.075611	0.19337	0.14419	0.13149	0.11334	0.25075	0.16444	-1.8104	-1.3583	-1.8438	-2.1604	-1.0875	-2.2792	-1.6	-1.3479	-2.0729	-1.4042	-1.7062	-2.0812	-1.2917	-1.8875	-1.8083	-1.4188	203.492	109.663	306.234	377.681	393.341	118.076	69.149	376.730	155.010	62.077	66.867	215.342	84.879	418.077	219.888	355.165	0.00040846	0.00074594	0.0001072	1165.8	9.4113e-06	2.3136e-06	1249.3	243.42	8.3271e-07	5.5806e-06	303.76	83.601	67.343	19.508	8.4387e-06	26.908	0.00050032	0.00056966	0.00015765	1165.4	5.5446e-06	6.3737e-06	1245.1	250.2	5.6818e-06	6.4729e-06	317.24	88.88	71.774	22.382	6.1573e-06	29.792	269.336	203.735	399.549	72.055	240.197	104.400	72.087	80.012	146.331	83.898	79.591	86.533	86.831	93.558	276.367	92.958	-8191	255	
7683.694	1	1	0	0	0.14004	0.31127	0.14229	0.091381	0.14001	0.24977	0.35625	0.24858	0.035785	0.043487	0.06915	0.17409	0.23304	0.10967	0.23936	0.17336	-1.9229	-1.3771	-1.5958	-2.2979	-1.2229	-1.9271	-1.9229	-1.5896	-2.0479	-1.4458	-1.7646	-2.0979	-1.4771	-1.8333	-1.9083	-1.5729	329.583	353.163	136.053	215.151	399.832	398.537	341.931	357.314	153.665	350.979	347.196	395.288	330.136	264.541	112.644	365.616	0.00047261	0.00048529	0.00019873	1160.9	3.4605e-06	5.421e-06	1246.8	242.46	8.8623e-06	7.3805e-06	302.14	83.711	67.35	19.512	6.768e-06	26.847	0.00053389	0.00060024	0.00015486	1166.5	5.9809e-06	6.6076e-06	1245.3	249.84	6.12e-06	6.6259e-06	316.19	88.488	72.503	22.373	6.1056e-06	29.802	251.216	203.772	136.969	72.180	287.088	285.106	72.182	79.740	250.235	198.238	79.022	86.876	86.476	93.843	344.565	93.302	-8191	255	
7683.790	1	1	0	0	0.1183	0.093377	0.026872	0.28664	0.012615	0.17488	0.23504	0.31364	0.027739	0.2442	0.11775	0.23831	0.20875	0.090637	0.10009	0.19845	-1.6354	-1.4646	-1.4479	-2.3604	-1.2083	-1.9729	-2.1188	-1.2896	-2.1333	-1.6458	-1.6063	-2.3083	-1.2979	-1.5667	-2.0062	-1.3062	145.543	75.631	125.846	372.200	290.786	403.218	147.392	63.839	183.047	160.727	408.222	172.835	373.153	348.699	373.877	229.385	0.00046035	0.00034895	9.8458e-05	1168.3	6.8074e-06	2.4977e-06	1248.4	243.36	6.2343e-06	2.348e-06	302.75	83.135	67.021	19.431	6.1576e-06	26.763	0.00057754	0.00060323	0.00015423	1166.8	6.5368e-06	6.6083e-06	1246.5	250.63	6.6467e-06	6.6209e-06	316.09	88.838	73.326	22.284	6.0641e-06	29.889	262.467	99.847	389.581	72.174	243.092	393.117	72.159	80.114	183.260	252.162	78.845	86.445	86.585	93.675	129.721	92.855	-8191	255	
7683.886	1	1	0	0	0.3883	0.10117	0.16533	0.18164	0.23472	0.3116	0.3815	0.25044	0.36606	0.20636	0.2432	0.15182	0.18336	0.15082	0.084086	0.10838	-1.5542	-1.6333	-1.4229	-2.2854	-1.3146	-1.7792	-2.2375	-1.3813	-1.8792	-1.7375	-1.2479	-2.2958	-1.65	-1.9125	-1.9729	-1.3312	309.161	116.040	240.962	389.665	118.795	146.819	352.381	411.268	71.588	395.928	114.720	102.331	393.443	109.431	358.010	252.511	0.00051404	0.00022727	0.00020293	1159.2	7.9881e-07	9.2421e-07	1249.8	243.85	3.461e-06	3.9604e-06	303.69	83.757	67.346	19.478	7.7987e-06	27.105	0.00061565	0.00059186	0.00015286	1168.2	6.8345e-06	6.3933e-06	1246	251.33	6.8683e-06	6.3731e-06	315.51	89.486	73.609	22.145	5.9513e-06	30.323	254.882	336.393	289.925	71.945	387.424	100.845	72.203	79.733	264.220	388.709	79.506	86.452	86.735	93.674	263.131	93.013	-8191	255	
7683.982	1	1	0	0	0.22636	0.085118	0.16638	0.23281	0.32545	0.17895	0.19834	0.091597	0.14985	0.148	0.26869	0.27131	0.31918	0.35896	0.090908	0.042703	-1.5063	-1.5938	-1.2208	-2.3583	-1.4104	-1.7292	-2.35	-1.4521	-1.6396	-1.8542	-1.1792	-2.0646	-1.7313	-1.4583	-2.1604	-1.2854	252.927	328.136	352.866	391.044	350.596	156.537	303.541	271.701	159.396	418.569	332.875	345.076	402.495	417.718	406.430	317.800	0.00030257	0.00028468	0.00023289	1164.1	1.1773e-05	2.9894e-06	1253.9	243.64	6.1234e-06	7.2301e-06	301.94	83.894	67.464	19.514	6.9451e-06	26.921	0.00061583	0.00057047	0.00014893	1175.6	6.8168e-06	6.1946e-06	1243.7	253.13	6.7394e-06	6.225e-06	314.48	90.449	73.315	22.066	5.8675e-06	30.672	213.931	385.222	328.877	72.361	218.914	132.608	72.262	79.777	416.636	275.806	79.323	86.799	86.810	93.571	175.764	92.756	-8191	255	
7684.103	1	1	0	0	0.23512	0.1663	0.16454	0.30324	0.13488	0.17483	0.10146	0.24884	0.092163	0.21986	0.067974	0.10334	0.29234	0.36441	0.18374	0.092246	-1.6708	-1.7812	-1.0979	-2.0646	-1.5896	-1.6604	-2.3125	-1.4312	-1.6562	-2.0021	-1.4854	-2.1833	-1.8979	-1.3625	-2.0812	-1.2021	180.445	167.833	400.953	367.130	147.778	243.868	403.752	378.326	345.433	221.125	375.419	349.352	388.697	377.344	138.973	219.589	0.00042687	0.00060897	0.00026033	1168	8.083e-06	7.8484e-06	1250.3	244.12	1.5183e-06	5.3543e-07	302.87	83.349	67.306	19.527	4.5809e-06	26.894	0.00059979	0.00055893	0.00014744	1179.6	6.5326e-06	6.0314e-06	1244.5	254.19	6.4061e-06	6.0636e-06	314.98	90.648	72.88	21.905	6.0323e-06	30.79	238.966	113.946	124.203	72.160	353.996	90.852	71.950	79.884	302.300	88.014	79.131	86.747	86.794	93.818	155.207	93.016	-8191	255	
7684.199	1	1	0	0	0.29887	0.14441	0.36568	0.32544	0.11795	0.099036	0.06108	0.16912	0.15589	0.14956	0.25579	0.27429	0.15778	0.34413	0.14431	0.212	-1.2542	-2.0104	-1.2938	-2.0854	-1.8521	-1.4521	-2.3875	-1.4979	-1.6479	-2.1479	-1.1771	-1.7917	-1.7188	-0.95417	-1.975	-1.7021	412.424	389.269	212.939	393.194	256.115	93.431	267.396	151.418	235.225	170.285	362.951	408.830	143.188	188.716	184.467	318.516	0.00041408	0.00025477	0.00021091	1168.1	7.8474e-06	5.0657e-06	1251.3	244.57	3.6767e-06	4.9222e-06	303.76	84.124	67.25	19.479	3.3128e-06	26.805	0.00057328	0.00054283	0.00015464	1183.2	6.2902e-06	5.8449e-06	1248.5	255.07	6.2473e-06	5.8621e-06	317.85	90.992	72.641	21.86	6.3909e-06	30.728	275.667	335.976	165.159	72.067	399.657	317.714	72.192	79.733	331.561	342.811	79.138	86.873	86.809	93.739	227.522	92.832	-8191	255	
7684.295	1	1	0	0	0.27169	0.06116	0.045433	0.19288	0.35317	0.44038	0.36182	0.28416	0.25048	0.15214	0.14732	0.20034	0.34206	0.2417	0.10139	0.24378	-1.0229	-2.0458	-0.99583	-1.9625	-1.8563	-1.4042	-2.2708	-1.5958	-1.4896	-1.9792	-1.5375	-2.1229	-2.0833	-1.2708	-2.1854	-1.5833	279.430	129.136	128.767	331.058	101.005	226.876	310.078	398.741	120.266	398.246	64.134	352.134	383.880	380.789	205.036	402.471	0.00040333	0.00017597	0.00025797	1169.6	7.8268e-06	8.5368e-06	1260.1	244.3	1.9806e-06	1.2657e-05	302.45	83.655	67.989	19.413	5.3633e-06	26.891	0.00055694	0.00053196	0.00016327	1179.4	6.1204e-06	5.7979e-06	1255.2	254.04	6.0453e-06	5.851e-06	319.83	90.259	72.501	21.932	6.6762e-06	30.633	230.528	136.488	172.961	72.258	144.804	264.587	72.510	79.730	237.374	169.059	79.345	86.809	86.637	93.699	170.796	92.368	-8191	255	
7684.391	1	1	0	0	0.074552	0.099284	0.24645	0.26239	0.12112	0.11166	0.084154	0.18781	0.061576	0.17989	0.036312	0.13849	0.12547	0.11899	0.041881	0.067904	-0.93333	-1.7458	-1.3646	-1.9771	-2.1312	-1.2854	-2.0125	-1.4688	-1.5354	-2.1292	-1.5208	-1.6187	-1.8542	-1.3542	-1.9042	-1.8771	111.444	238.104	382.380	397.591	237.719	216.303	75.716	408.340	384.574	375.700	130.188	331.530	389.802	415.258	245.193	128.290	0.00022464	0.00054498	0.00027219	1166.8	3.9894e-06	6.2211e-06	1250.4	243.49	4.8371e-06	3.0827e-06	304.16	83.722	67.639	19.487	4.3955e-06	27.021	0.00054365	0.00054428	0.00017172	1178	6.0659e-06	5.981e-06	1258.9	253.57	5.9916e-06	6.1245e-06	322.01	90.136	72.46	22.144	6.7993e-06	30.463	270.302	129.244	229.306	72.424	160.412	291.044	72.158	79.756	162.979	153.043	79.131	86.931	86.723	93.476	199.922	92.551	-8191	255	
7684.486	1	1	0	0	0.056569	0.12271	0.17793	0.12364	0.20722	0.066361	0.22941	0.18087	0.12794	0.065871	0.15154	0.13214	0.10648	0.21458	0.17048	0.30708	-0.82292	-2.175	-1.4708	-1.7604	-1.9667	-1.0417	-2.1292	-2.1604	-1.3021	-2.1292	-1.4042	-1.4146	-2.1354	-1.3833	-1.9021	-1.6354	202.829	236.199	282.628	398.929	104.846	63.703	393.022	348.463	319.212	398.061	194.085	94.355	293.256	235.783	318.770	108.377	0.00037812	0.00083406	0.00018435	1171.2	6.4601e-06	7.8678e-06	1255	243.95	2.2322e-06	3.5267e-06	303.39	83.412	67.553	19.584	5.5069e-06	27.004	0.00053734	0.00057832	0.00017235	1177.5	5.8821e-06	6.3782e-06	1259.9	252.82	5.8421e-06	6.508e-06	321.44	89.567	72.174	22.423	6.5944e-06	30.341	288.122	195.032	408.188	72.332	242.344	163.885	72.222	79.419	177.237	172.125	78.879	86.509	86.702	93.494	328.215	92.470	-8191	255	
7684.582	1	1	0	0	0.25817	0.081687	0.035161	0.14214	0.087615	0.047679	0.18438	0.14003	0.13089	0.13172	0.12772	0.21987	0.087978	0.11755	0.06993	0.30674	-0.91667	-2.0542	-1.5667	-1.7146	-2.1646	-1.3146	-1.8312	-2.0542	-1.3917	-2.0021	-1.5979	-1.3854	-2.1542	-1.5667	-1.5854	-2.0958	255.491	372.688	247.491	327.673	386.445	80.596	276.649	365.588	193.210	184.831	402.748	357.606	374.121	89.572	414.299	88.966	0.00047598	0.00046733	0.00012532	1170.9	5.4076e-06	6.279e-06	1258.2	244.86	7.3544e-06	7.4053e-06	302.42	83.474	67.459	19.666	4.7762e-06	27	0.00053087	0.00060461	0.00016687	1173.9	5.8434e-06	6.6452e-06	1254.7	252.37	5.8301e-06	6.6337e-06	318.6	89.077	72.287	22.451	6.1821e-06	30.001	263.560	306.792	399.398	72.497	246.522	239.920	72.318	79.868	264.975	283.569	79.060	86.330	86.694	93.916	326.024	92.181	-8191	255	
7684.703	1	1	0	0	0.23512	0.12817	0.19484	0.36518	0.15064	0.11943	0.40892	0.3068	0.28997	0.12115	0.25081	0.19389	0.26366	0.13395	0.020705	0.20877	-1.0187	-1.9438	-1.6333	-1.4333	-2.1	-1.5229	-1.7271	-2.0021	-0.99583	-1.8875	-2.0583	-1.3958	-2.075	-1.4167	-1.5333	-2.1729	280.903	421.225	174.195	77.359	367.862	286.940	377.989	369.923	121.051	221.131	130.876	372.591	370.656	79.114	139.432	385.776	0.00068531	0.00013472	7.5454e-05	1167.7	9.4674e-06	1.8457e-06	1251.5	244.5	1.0135e-05	8.7591e-06	303.93	83.823	68.36	19.625	4.7504e-06	26.93	0.00053704	0.00060873	0.00015608	1170.2	5.9955e-06	6.6293e-06	1248.9	251.38	6.0921e-06	6.6478e-06	317.31	88.786	72.964	22.455	6.0275e-06	29.959	272.242	157.287	250.128	72.318	207.742	348.879	72.350	80.045	235.764	372.886	78.921	86.520	86.839	93.890	196.074	92.660	-8191	255	
7684.799	1	1	0	0	0.22458	0.13991	0.2637	0.15604	0.10329	0.078481	0.11967	0.059987	0.21029	0.17265	0.22473	0.10748	0.053985	0.061984	0.044459	0.25964	-0.71667	-1.6833	-1.675	-1.3708	-2.0417	-1.5479	-1.5938	-2.025	-1.3604	-1.8854	-2.0625	-1.525	-2.0354	-1.5	-1.6417	-2.2417	157.568	401.830	63.655	380.962	156.419	187.067	331.106	230.667	107.257	111.481	394.671	228.932	390.948	103.569	327.130	341.876	0.00050997	0.00056814	0.00020164	1171.1	3.5279e-06	4.6825e-06	1254.6	245.12	1.7807e-06	2.241e-06	302.87	84.183	67.443	19.521	7.1867e-06	27.227	0.00057271	0.00059454	0.00015264	1169.4	6.3648e-06	6.4923e-06	1249.6	251.42	6.4736e-06	6.4149e-06	316.3	89.046	73.398	22.283	5.9004e-06	30.02	262.689	361.574	125.884	72.185	189.233	136.898	72.438	79.807	415.803	371.039	79.005	86.548	87.193	93.359	233.493	92.624	-8191	255	
7684.870	1	1	0	0	0.27337	0.30284	0.16266	0.038051	0.13095	0.31783	0.32687	0.23264	0.2162	0.10222	0.27452	0.255	0.13514	0.19246	0.25394	0.10458	-0.94792	-1.6896	-1.9333	-1.2979	-2.0771	-1.725	-1.45	-2.0229	-1.5146	-1.7896	-2.1417	-1.2854	-1.9479	-1.8479	-1.1771	-2.2625	411.102	183.126	308.285	349.035	282.777	259.272	358.848	401.275	140.798	264.179	312.879	81.297	356.306	411.410	275.955	292.594	0.00045982	0.00085631	0.00014862	1172.4	9.6491e-06	6.5766e-06	1252	245.05	5.5675e-07	2.0213e-06	302.01	83.988	68.183	19.622	3.8744e-06	27.003	0.00059758	0.00057439	0.00014958	1169.7	6.6784e-06	6.3072e-06	1245.9	252.2	6.6647e-06	6.1548e-06	315.31	89.3	73.803	22.253	5.7166e-06	30.255	246.473	266.590	282.857	72.234	121.999	186.965	71.993	79.758	112.609	155.169	79.223	86.734	86.557	93.451	290.497	92.997	-8191	255	
7684.967	1	1	0	0	0.16217	0.34728	0.1008	0.26924	0.19484	0.095914	0.40242	0.15224	0.28623	0.063003	0.073233	0.15193	0.090491	0.16149	0.20753	0.046813	-1.0688	-1.4354	-2.1917	-1.2542	-1.7729	-2.0417	-1.4604	-2.2042	-1.4521	-1.4979	-2.0646	-1.3021	-2.0167	-1.8667	-1.2812	-2.2438	291.860	322.941	159.663	65.594	251.328	421.403	356.349	134.646	412.937	293.681	92.558	332.273	327.058	80.538	354.872	348.789	0.00038717	0.00075863	0.00016279	1168.6	8.2257e-07	2.2096e-06	1248	245.35	6.1616e-06	2.5233e-06	303.07	83.678	67.658	19.486	1.1567e-05	27.111	0.00060233	0.00055384	0.00014581	1174.6	6.6369e-06	6.0948e-06	1244.6	253.4	6.5953e-06	6.0437e-06	314.82	90.125	73.455	22.097	5.6988e-06	30.65	278.154	408.575	188.690	72.114	377.682	356.065	72.317	79.932	126.883	168.772	79.138	86.287	86.649	93.187	186.663	92.745	-8191	255	
7685.087	1	1	0	0	0.083232	0.053019	0.11397	0.29246	0.036809	0.12621	0.29135	0.17034	0.357	0.081843	0.27766	0.155	0.17822	0.18815	0.30758	0.23828	-1.2792	-1.4062	-2.2646	-1.5833	-1.875	-1.7542	-1.3937	-2.2396	-1.5	-1.2854	-2.1854	-1.1396	-1.8021	-2.1063	-1.2563	-1.8417	156.950	62.740	67.159	413.562	72.932	184.090	338.459	278.987	223.528	377.196	347.422	278.972	67.831	361.763	316.519	414.687	0.00033421	0.00072601	0.00010683	1171.5	5.1742e-06	9.1376e-07	1254.8	243.79	7.5205e-06	4.9811e-06	304.9	84.143	67.853	19.622	8.1399e-06	27.197	0.00059318	0.00054727	0.00014664	1182.1	6.408e-06	5.9794e-06	1245	254.18	6.3289e-06	5.8582e-06	315.61	90.851	72.971	21.976	5.8374e-06	30.8	277.230	379.295	245.796	72.020	131.091	415.758	72.254	79.948	297.948	368.160	79.630	86.736	86.896	93.507	180.635	93.409	-8191	255	
7685.183	1	1	0	0	0.20354	0.14087	0.16942	0.092286	0.23938	0.23309	0.081256	0.18675	0.20604	0.085491	0.10802	0.18476	0.41385	0.31605	0.14009	0.38097	-1.3854	-1.2542	-2.0292	-1.6146	-1.8146	-1.9917	-1.4604	-1.9188	-1.8312	-1.3417	-2.1396	-1.5104	-1.5417	-2.1458	-1.3563	-1.9708	167.478	93.119	217.507	386.924	287.115	160.503	362.315	394.966	298.159	175.994	301.365	79.373	299.502	362.012	118.586	149.250	0.0002173	0.00026221	5.9411e-05	1169.5	9.2414e-06	7.5628e-07	1254	244.42	2.6716e-06	4.0806e-06	303.69	83.668	67.353	19.525	8.1849e-06	27.069	0.00056258	0.00052308	0.00014946	1183.8	6.0177e-06	5.7351e-06	1248.2	254.34	6.0333e-06	5.6184e-06	316.91	90.612	72.422	21.778	6.1244e-06	30.685	275.799	205.813	188.169	72.025	345.364	402.324	72.188	79.408	149.107	328.608	78.596	85.921	86.264	92.862	210.962	92.582	-8191	255	
7685.280	1	1	0	0	0.16353	0.12428	0.19977	0.11281	0.13244	0.065851	0.34586	0.33275	0.091561	0.2559	0.0097749	0.16881	0.029929	0.15331	0.072916	0.15461	-1.5583	-1.3062	-1.9771	-1.5292	-1.6208	-2.125	-1.3792	-1.9021	-2.075	-1.3229	-2.0271	-1.6729	-1.5083	-2.1021	-1.2313	-1.9083	330.013	113.961	282.133	91.367	104.036	186.209	392.108	74.076	182.178	181.675	68.673	91.802	412.082	212.783	141.145	243.395	0.00028053	0.00077077	7.1332e-05	1169.2	4.8337e-06	7.1402e-06	1254.7	244.9	1.0239e-05	4.1793e-06	301.94	83.489	67.916	19.551	1.2199e-05	26.99	0.00054308	0.00051068	0.00015998	1180.4	5.9414e-06	5.638e-06	1253.6	254.21	5.9151e-06	5.6555e-06	319.73	90.241	72.337	21.89	6.5762e-06	30.496	237.067	209.914	266.145	71.639	403.234	264.298	71.924	79.179	295.942	262.372	78.964	85.994	86.072	93.097	213.325	92.413	-8191	255	
7685.376	1	1	0	0	0.3051	0.12392	0.16024	0.069624	0.16782	0.44644	0.17812	0.25551	0.05825	0.24705	0.13963	0.28796	0.24546	0.056128	0.16694	0.16717	-1.6437	-1.0312	-2.0229	-1.8021	-1.2771	-1.9979	-1.5958	-1.7583	-2.0417	-1.2062	-2.0729	-1.8729	-1.4792	-2.4375	-1.3229	-1.7	104.899	406.353	342.759	377.309	63.204	309.390	353.286	382.098	319.537	283.335	344.400	387.692	105.674	293.066	364.970	338.791	0.00030315	0.00074408	7.5634e-05	1165.9	4.4942e-07	8.3256e-06	1255	243.65	3.8623e-06	8.3046e-06	302.84	83.742	68.112	19.643	4.5015e-06	27.145	0.00053398	0.00052548	0.00016823	1176.1	5.8311e-06	5.8396e-06	1256.9	252.43	5.8043e-06	5.8777e-06	321.16	89.583	72.18	22.102	6.5598e-06	30.315	289.175	185.726	129.422	71.674	77.947	220.915	71.591	79.465	144.825	217.885	78.729	85.695	86.404	92.979	226.567	92.515	-8191	255	
7685.495	1	1	0	0	0.15512	0.12359	0.2429	0.32049	0.12168	0.052883	0.056352	0.20156	0.077126	0.20033	0.21408	0.15974	0.32242	0.17718	0.036784	0.42911	-1.8188	-0.98542	-1.8479	-1.9417	-1.2917	-2.0042	-1.5688	-1.7396	-2.2687	-1.4229	-1.9292	-1.9208	-1.4646	-2.1333	-1.1729	-1.575	373.466	404.410	213.896	65.605	181.476	264.267	318.396	421.395	169.696	352.234	102.559	91.067	96.340	185.713	280.611	412.643	0.00024255	0.00070914	7.2746e-05	1170.6	4.3009e-06	1.1366e-05	1256.6	244.87	8.4721e-06	9.9147e-06	304.32	83.631	67.901	19.459	3.7765e-06	26.956	0.00052197	0.00055409	0.00016626	1176.2	5.6572e-06	6.1605e-06	1256.7	252.43	5.6581e-06	6.2597e-06	319.21	89.025	71.806	22.252	6.4125e-06	30.077	268.779	133.172	240.880	71.613	404.854	175.609	71.651	79.460	207.261	179.662	78.730	85.996	86.260	92.476	391.664	92.346	-8191	255	
7685.566	1	1	0	0	0.19754	0.31125	0.20816	0.12067	0.10147	0.032154	0.049992	0.39189	0.063024	0.21958	0.25222	0.15142	0.321	0.099353	0.24254	0.033937	-1.9125	-1.3292	-1.6083	-1.9333	-1.2625	-2.1542	-1.75	-1.1812	-2.0292	-1.325	-1.7125	-2.0208	-1.1833	-2.3063	-1.5333	-1.2271	130.168	405.815	74.540	192.435	333.636	262.895	384.011	339.962	243.867	263.910	387.043	386.910	380.890	149.319	378.848	237.667	0.00051556	0.00031732	0.00017093	1169.9	5.5743e-06	4.7832e-06	1252.6	244.93	5.6286e-06	3.4023e-06	304.97	84.272	67.48	19.658	7.5737e-06	27.166	0.00051569	0.00058237	0.00016054	1170.9	5.6114e-06	6.4147e-06	1252.8	251.3	5.6742e-06	6.4845e-06	317.46	89.046	72.105	22.43	6.0486e-06	29.915	270.157	192.970	274.330	71.759	206.753	192.075	71.631	79.467	207.657	217.913	78.576	85.898	86.602	92.741	273.423	92.520	-8191	255	
7685.664	1	1	0	0	0.29889	0.14388	0.13783	0.19234	0.19072	0.057455	0.094202	0.050851	0.040457	0.3616	0.22592	0.11425	0.062843	0.16122	0.048065	0.12853	-1.8625	-1.3833	-1.5417	-2.0396	-1.3354	-2.0583	-1.8292	-1.1583	-2.1667	-1.4562	-1.8146	-2.2021	-1.4729	-1.9792	-1.6583	-1.4396	82.031	370.362	279.551	418.478	148.615	190.973	329.429	302.487	194.016	130.743	195.419	173.815	186.964	355.966	378.104	396.154	0.00030771	0.00081722	0.00010672	1168.3	4.419e-06	4.7077e-06	1252.8	244.28	9.0361e-06	1.0222e-06	303.37	83.495	67.745	19.637	4.4836e-06	26.873	0.0005252	0.00059004	0.00015216	1167.6	5.7833e-06	6.472e-06	1247.7	250.74	5.9836e-06	6.4251e-06	315.05	88.65	72.685	22.39	5.8874e-06	29.739	288.793	67.679	402.044	71.493	187.775	246.095	71.599	79.111	231.459	306.278	78.617	86.128	85.716	93.137	384.985	92.315	-8191	255	
7685.783	1	1	0	0	0.113	0.19796	0.11047	0.074348	0.19284	0.068409	0.33925	0.051949	0.085772	0.11611	0.17057	0.1149	0.30303	0.092055	0.16476	0.07801	-1.8354	-1.8104	-1.5562	-2.0833	-1.1354	-1.9542	-2.1979	-1.4542	-2.0187	-1.6021	-1.5896	-2.2958	-1.2437	-1.9417	-2.1229	-1.3167	398.843	415.999	61.671	287.381	110.684	134.406	65.031	203.567	193.827	208.962	306.484	392.565	352.480	175.654	158.098	313.250	0.00045752	0.00013322	0.00015415	1162.3	8.3086e-06	1.1887e-06	1256.1	244.06	6.128e-06	3.7879e-06	303.06	83.832	67.711	19.513	1.7391e-06	27.02	0.0005626	0.00058291	0.00014861	1164.1	6.2033e-06	6.3001e-06	1246.9	250.51	6.3093e-06	6.2642e-06	314.89	88.632	73.061	22.178	5.7247e-06	29.766	275.675	206.556	371.972	71.455	248.649	72.936	71.789	79.269	220.198	259.265	78.696	85.836	86.055	93.114	355.369	92.421	-8191	255	
7685.879	1	1	0	0	0.31995	0.16268	0.16228	0.2062	0.19742	0.3035	0.10014	0.42878	0.23452	0.1986	0.055042	0.10028	0.16506	0.2161	0.28816	0.17252	-1.6792	-1.525	-1.4312	-2.3542	-1.3438	-1.6833	-2.1875	-1.5458	-1.7188	-1.5854	-1.3167	-2.2854	-1.5271	-1.6896	-2.0792	-1.4667	176.490	185.632	386.631	374.082	133.669	101.221	380.172	288.008	191.307	153.522	179.063	260.892	172.376	191.833	382.816	286.069	0.00039599	0.00028283	0.00017114	1170.3	7.0099e-06	4.4587e-06	1253.2	244.46	9.7625e-06	4.8176e-06	305.28	84.142	67.526	19.574	2.2532e-06	26.788	0.00058365	0.00055877	0.00014516	1169.5	6.4778e-06	6.0516e-06	1245.9	251.05	6.4664e-06	6.0475e-06	314.7	89.201	73.141	22.095	5.6425e-06	30.025	247.718	116.058	92.863	71.462	232.478	168.594	71.840	79.021	238.031	365.684	78.491	86.094	86.259	93.207	237.869	92.209	-8191	255	
7685.975	1	1	0	0	0.2272	0.24856	0.1155	0.23638	0.374	0.20705	0.22906	0.20044	0.27102	0.10907	0.21399	0.25738	0.24573	0.125	0.249	0.218	-1.5958	-1.8729	-1.5458	-2.0938	-1.1938	-1.7062	-2.2083	-1.3146	-1.9312	-1.825	-1.2583	-2.1917	-1.5938	-1.3937	-2.0958	-1.4271	82.079	238.074	318.839	325.273	409.213	156.951	276.958	408.434	75.185	133.792	243.650	240.358	388.451	319.782	128.412	420.998	0.00050221	0.00061862	0.00026557	1169.5	5.3682e-06	4.6752e-06	1253.8	244.51	7.3522e-07	1.6562e-06	304.96	84.439	67.6	19.508	2.4383e-06	27.113	0.00059129	0.00054712	0.00014251	1172.9	6.4846e-06	5.93e-06	1244.3	252.27	6.4539e-06	5.9514e-06	313.88	90.153	73.312	21.973	5.6659e-06	30.46	262.280	265.202	120.855	71.590	227.674	127.072	71.590	79.341	275.493	134.484	78.481	86.028	85.804	93.151	367.206	92.162	-8191	255	
7686.096	1	1	0	0	0.19693	0.36302	0.13879	0.28384	0.13789	0.1453	0.30305	0.23314	0.38161	0.04606	0.11074	0.10656	0.20315	0.15672	0.14396	0.045856	-1.4417	-1.875	-1.3167	-2.2125	-1.5625	-1.3104	-2.3979	-1.4021	-1.6479	-1.95	-1.2792	-2.1833	-1.6167	-1.4188	-2.0521	-1.3062	382.232	410.009	149.617	416.691	150.855	214.351	352.376	294.904	186.346	392.921	147.805	192.395	190.852	259.235	214.839	146.514	0.00041277	0.00024512	5.7437e-05	1165.6	5.0313e-06	4.545e-06	1251.3	243.98	2.9636e-06	5.9746e-06	303.15	83.838	67.594	19.492	1.3191e-05	26.842	0.00058093	0.00054143	0.00014419	1180.8	6.3968e-06	5.9057e-06	1246.5	254.07	6.3253e-06	5.9699e-06	314.47	90.956	73.076	22.019	5.8942e-06	30.731	247.340	392.931	345.169	71.630	405.786	191.959	71.822	79.241	317.054	402.015	78.636	86.194	85.919	92.986	210.315	91.991	-8191	255	
7686.168	1	1	0	0	0.079738	0.10631	0.30249	0.19667	0.21111	0.28306	0.10468	0.089013	0.083674	0.10443	0.39697	0.045838	0.11819	0.25306	0.27724	0.1988	-1.3687	-2.275	-1.3021	-2.0062	-1.6125	-1.4354	-2.4479	-1.5083	-1.4479	-2.1417	-1.1729	-2.1792	-1.9125	-1.2167	-2.0604	-1.5354	105.912	280.034	312.597	376.071	156.048	386.892	397.719	372.768	120.261	113.869	420.158	244.014	342.761	367.324	342.144	350.156	0.00038784	0.00031064	0.00021168	1160.1	2.1436e-06	1.7667e-06	1258.2	245.96	2.6582e-06	1.5624e-06	304.76	83.804	67.674	19.588	1.4314e-05	26.822	0.00056464	0.00053828	0.00015166	1183.5	6.2354e-06	5.8172e-06	1251.7	255.84	6.1857e-06	5.8753e-06	318.58	91.035	72.96	21.946	6.3115e-06	30.821	263.481	111.364	136.894	71.714	102.539	189.569	71.434	78.944	332.640	347.664	78.678	85.865	85.868	92.826	204.576	91.860	-8191	255	
#DATA ENDS
