BOXY.EXE: ISS Imagent and Oximeter Data Acquisition Program Version 0.80
Ascii Record File

#ACQ INFORMATION
2  Detector Channels 
16  External MUX Channels 
1  Auxiliary Channels 
5000  Waveform (CCF) Frequency (Hz)
1  Waveforms Skipped 
30  Waveforms Averaged 
1  Cycles Averaged 
16  Acquisitions per Waveform 
10.0806  Updata Rate (Hz) 

#FILE INFORMATION
TRUE -- External MUX Channel results are PARSED.
FALSE -- AC DC and Phase are NOT grouped.
TRUE -- Companion Program Settings File CREATED.
FALSE -- AC data not excluded
FALSE -- DC data not excluded
FALSE -- Phase data not excluded
FALSE -- Auxillary Chn. data not excluded
Tab delimiters

#CALIBRATION STATE
TRUE -- Waveform Calibration Values APPLIED.


#AUX CALIBRATION VALUES
Val Type	aux-1	

Term	1.0000e+00	
Factor	0.0000e+00	


#WF CALIBRATION VALUES
A = Detector Channel
Val Type	A-AC1	A-AC2	A-AC3	A-AC4	A-AC5	A-AC6	A-AC7	A-AC8	A-AC9	A-AC10	A-AC11	A-AC12	A-AC13	A-AC14	A-AC15	A-AC16	A-DC1	A-DC2	A-DC3	A-DC4	A-DC5	A-DC6	A-DC7	A-DC8	A-DC9	A-DC10	A-DC11	A-DC12	A-DC13	A-DC14	A-DC15	A-DC16	A-Ph1	A-Ph2	A-Ph3	A-Ph4	A-Ph5	A-Ph6	A-Ph7	A-Ph8	A-Ph9	A-Ph10	A-Ph11	A-Ph12	A-Ph13	A-Ph14	A-Ph15	A-Ph16	

Term	0.00000e+00	0.00000e+00	0.00000e+00	0.00000e+00	0.00000e+00	0.00000e+00	0.00000e+00	0.00000e+00	0.00000e+00	0.00000e+00	0.00000e+00	0.00000e+00	0.00000e+00	0.00000e+00	0.00000e+00	0.00000e+00	0.00000e+00	0.00000e+00	0.00000e+00	0.00000e+00	0.00000e+00	0.00000e+00	0.00000e+00	0.00000e+00	0.00000e+00	0.00000e+00	0.00000e+00	0.00000e+00	0.00000e+00	0.00000e+00	0.00000e+00	0.00000e+00	0.00000e+00	0.00000e+00	0.00000e+00	0.00000e+00	0.00000e+00	0.00000e+00	0.00000e+00	0.00000e+00	0.00000e+00	0.00000e+00	0.00000e+00	0.00000e+00	0.00000e+00	0.00000e+00	0.00000e+00	0.00000e+00	
Factor	1.00000e+00	1.00000e+00	1.00000e+00	1.00000e+00	1.00000e+00	1.00000e+00	1.00000e+00	1.00000e+00	1.00000e+00	1.00000e+00	1.00000e+00	1.00000e+00	1.00000e+00	1.00000e+00	1.00000e+00	1.00000e+00	1.00000e+00	1.00000e+00	1.00000e+00	1.00000e+00	1.00000e+00	1.00000e+00	1.00000e+00	1.00000e+00	1.00000e+00	1.00000e+00	1.00000e+00	1.00000e+00	1.00000e+00	1.00000e+00	1.00000e+00	1.00000e+00	X	X	X	X	X	X	X	X	X	X	X	X	X	X	X	X	

B = Detector Channel
Val Type	B-AC1	B-AC2	B-AC3	B-AC4	B-AC5	B-AC6	B-AC7	B-AC8	B-AC9	B-AC10	B-AC11	B-AC12	B-AC13	B-AC14	B-AC15	B-AC16	B-DC1	B-DC2	B-DC3	B-DC4	B-DC5	B-DC6	B-DC7	B-DC8	B-DC9	B-DC10	B-DC11	B-DC12	B-DC13	B-DC14	B-DC15	B-DC16	B-Ph1	B-Ph2	B-Ph3	B-Ph4	B-Ph5	B-Ph6	B-Ph7	B-Ph8	B-Ph9	B-Ph10	B-Ph11	B-Ph12	B-Ph13	B-Ph14	B-Ph15	B-Ph16	

Term	0.00000e+00	0.00000e+00	0.00000e+00	0.00000e+00	0.00000e+00	0.00000e+00	0.00000e+00	0.00000e+00	0.00000e+00	0.00000e+00	0.00000e+00	0.00000e+00	0.00000e+00	0.00000e+00	0.00000e+00	0.00000e+00	0.00000e+00	0.00000e+00	0.00000e+00	0.00000e+00	0.00000e+00	0.00000e+00	0.00000e+00	0.00000e+00	0.00000e+00	0.00000e+00	0.00000e+00	0.00000e+00	0.00000e+00	0.00000e+00	0.00000e+00	0.00000e+00	-1.17792e+02	-1.43843e+02	-1.22546e+02	-1.82203e+02	-6.11667e+01	-7.34980e+01	-1.58195e+02	-1.62015e+02	-5.91422e+01	-6.39027e+01	-1.73093e+02	-1.71855e+02	-1.81390e+02	-1.76301e+02	-7.35693e+01	-1.49454e+02	
Factor	1.69170e-05	1.23924e-04	3.36262e-05	1.80272e-01	1.08088e-06	1.50264e-06	1.68832e-01	4.61094e-02	9.30486e-07	1.40809e-06	1.02341e-01	2.97290e-02	2.73267e-02	8.85118e-03	1.28260e-06	1.26478e-02	2.60707e-06	2.90429e-06	8.06884e-07	9.53293e-02	3.13924e-08	3.17865e-08	8.41259e-02	2.45373e-02	3.13704e-08	3.17759e-08	5.20466e-02	1.52571e-02	1.46120e-02	4.71344e-03	3.16051e-08	6.50126e-03	X	X	X	X	X	X	X	X	X	X	X	X	X	X	X	X	



#DISTANCE SETTINGS
A = Detector Channel
A-1	A-2	A-3	A-4	A-5	A-6	A-7	A-8	A-9	A-10	A-11	A-12	A-13	A-14	A-15	A-16	

2.5000e+00	3.0000e+00	2.5000e+00	3.0000e+00	2.0000e+00	3.0000e+00	1.5000e+00	3.0000e+00	3.0000e+00	3.0000e+00	3.0000e+00	3.0000e+00	3.0000e+00	3.0000e+00	1.5000e+00	3.0000e+00	

B = Detector Channel
B-1	B-2	B-3	B-4	B-5	B-6	B-7	B-8	B-9	B-10	B-11	B-12	B-13	B-14	B-15	B-16	

1.0000e+01	1.0000e+01	1.0000e+01	1.4400e+00	1.0000e+01	1.0000e+01	1.5100e+00	1.9400e+00	1.0000e+01	1.0000e+01	1.9900e+00	2.4900e+00	2.4100e+00	2.9000e+00	1.0000e+01	2.9800e+00	




#DATA BEGINS
time	group	step	mark	flag	A-AC1	A-AC2	A-AC3	A-AC4	A-AC5	A-AC6	A-AC7	A-AC8	A-AC9	A-AC10	A-AC11	A-AC12	A-AC13	A-AC14	A-AC15	A-AC16	A-DC1	A-DC2	A-DC3	A-DC4	A-DC5	A-DC6	A-DC7	A-DC8	A-DC9	A-DC10	A-DC11	A-DC12	A-DC13	A-DC14	A-DC15	A-DC16	A-Ph1	A-Ph2	A-Ph3	A-Ph4	A-Ph5	A-Ph6	A-Ph7	A-Ph8	A-Ph9	A-Ph10	A-Ph11	A-Ph12	A-Ph13	A-Ph14	A-Ph15	A-Ph16	B-AC1	B-AC2	B-AC3	B-AC4	B-AC5	B-AC6	B-AC7	B-AC8	B-AC9	B-AC10	B-AC11	B-AC12	B-AC13	B-AC14	B-AC15	B-AC16	B-DC1	B-DC2	B-DC3	B-DC4	B-DC5	B-DC6	B-DC7	B-DC8	B-DC9	B-DC10	B-DC11	B-DC12	B-DC13	B-DC14	B-DC15	B-DC16	B-Ph1	B-Ph2	B-Ph3	B-Ph4	B-Ph5	B-Ph6	B-Ph7	B-Ph8	B-Ph9	B-Ph10	B-Ph11	B-Ph12	B-Ph13	B-Ph14	B-Ph15	B-Ph16	aux-1	digaux	

28713.703	1	1	0	256	0.22805	0.18589	0.16306	0.24959	0.18489	0.089338	0.18801	0.16284	0.13279	0.29448	0.25292	0.10926	0.12781	0.17105	0.21926	0.12946	-1.6125	-1.2625	-2.0542	-1.9521	-1.4896	-2.2896	-1.6125	-1.8	-2.1708	-1.2583	-2.0271	-2	-1.5792	-2.1271	-1.4375	-1.825	184.105	271.993	212.840	388.431	123.986	375.976	343.006	410.961	251.108	96.737	186.335	111.103	278.931	211.630	114.529	398.106	0.00084843	0.0003792	0.00038386	882.96	3.4425e-06	1.2333e-05	1271.8	292.53	4.7324e-06	1.7815e-05	533.91	247.63	134.13	52.249	9.3486e-06	110.16	0.0013236	0.0013691	0.00037349	811.04	1.4824e-05	1.4752e-05	1145.7	267.23	1.5006e-05	1.4975e-05	484.37	223.11	122.86	47.792	1.5351e-05	99.031	168.927	105.982	170.731	78.698	328.912	166.373	78.495	84.276	259.804	191.678	83.382	86.736	88.487	92.790	208.732	90.907	-8191	255	
28713.799	1	1	0	0	0.070151	0.22955	0.1178	0.24494	0.33488	0.15947	0.32432	0.15491	0.2136	0.021348	0.33651	0.11956	0.15158	0.24615	0.25828	0.28652	-1.7375	-1.4062	-1.7146	-1.9604	-1.4292	-2.2229	-1.7062	-1.7	-2.1083	-1.3583	-2.0687	-2.1417	-1.4875	-2.2292	-1.6313	-1.7396	390.964	67.511	354.647	356.375	90.973	257.814	394.820	353.491	313.244	96.639	396.994	315.571	101.122	380.610	200.892	372.001	0.00078212	0.00065618	0.00022782	882.75	1.1324e-05	1.442e-05	1266.4	291.97	5.0976e-06	3.2909e-06	529.78	245.7	132.85	51.918	1.3289e-05	109.39	0.0013154	0.0013909	0.00037818	811.54	1.5007e-05	1.4792e-05	1141.1	266.08	1.4971e-05	1.5275e-05	482.08	221.56	122.01	47.695	1.5609e-05	98.643	166.761	147.393	153.585	79.090	281.960	245.165	78.576	84.385	206.550	217.481	83.351	87.132	88.710	92.906	156.955	90.992	-8191	255	
28713.895	1	1	0	0	0.026673	0.13011	0.27203	0.15695	0.1047	0.16782	0.24356	0.2707	0.31763	0.10249	0.18035	0.18786	0.14096	0.11788	0.21056	0.43843	-1.6042	-1.1812	-1.8854	-2.0187	-1.2833	-2.2604	-1.7542	-1.5625	-2.2833	-1.5063	-1.7854	-2.3333	-1.4542	-2.2104	-1.8271	-1.6667	158.848	198.681	418.181	383.061	143.875	194.307	361.165	329.963	172.177	68.554	68.714	390.542	76.905	401.610	342.949	356.350	0.00074583	0.0010859	0.00014929	875.83	5.3727e-06	6.5645e-06	1263.1	292.45	6.4976e-06	6.1963e-06	533.1	247.02	133.4	52.366	5.2704e-06	110.36	0.0013243	0.0013907	0.00038642	804.89	1.5167e-05	1.5002e-05	1139.1	265.69	1.4719e-05	1.5178e-05	483.14	222.83	122.71	47.789	1.524e-05	99.528	175.182	226.566	175.279	79.355	72.219	215.796	78.870	84.184	234.623	158.174	83.020	87.225	88.326	93.141	218.952	91.109	-8191	255	
28714.016	1	1	0	0	0.11657	0.16783	0.21345	0.26774	0.30693	0.10821	0.15218	0.13369	0.1011	0.066124	0.031143	0.32783	0.1453	0.19442	0.27368	0.19866	-1.7354	-1.475	-1.8563	-2.2021	-1.3333	-2.0354	-2.0042	-1.3917	-2.175	-1.6521	-1.6708	-2.4688	-1.5	-2.0271	-2.05	-1.7188	236.053	72.349	261.487	386.961	228.722	401.549	79.050	415.629	358.732	359.511	402.248	331.178	228.267	316.288	105.922	374.180	0.00085004	0.0011367	0.00049593	882.67	1.1838e-05	9.2137e-06	1276.7	292.76	1.3895e-06	9.3263e-06	538.44	249.44	134.44	52.774	6.8005e-06	111.69	0.0013164	0.0013974	0.00037933	810.31	1.4749e-05	1.4728e-05	1145.4	267.17	1.4573e-05	1.5105e-05	487.88	225.42	123.83	48.259	1.5049e-05	100.68	170.169	185.116	169.199	78.979	269.519	234.633	78.829	84.208	287.570	204.031	82.816	86.939	88.259	92.887	210.693	90.940	-8191	255	
28714.109	1	1	0	0	0.052191	0.29572	0.040913	0.10511	0.27503	0.22266	0.12808	0.25335	0.058969	0.14508	0.31172	0.30077	0.14853	0.28761	0.19834	0.44696	-1.7208	-1.6542	-1.4646	-2.25	-1.4292	-1.7417	-2.0042	-1.3146	-2.1083	-1.7604	-1.6896	-2.3167	-1.6688	-1.9167	-2.1146	-1.5604	309.860	169.125	309.941	370.711	118.786	260.081	344.100	377.435	76.282	78.698	372.978	391.631	403.913	394.786	115.886	363.635	0.00073742	0.00061253	0.0003718	888.21	6.6798e-06	9.8463e-06	1286	297.97	3.8214e-06	3.0406e-06	540.24	250.55	136.19	53.082	1.3173e-05	111.89	0.001284	0.0013808	0.00037674	814.42	1.4815e-05	1.4648e-05	1153.7	270.52	1.4604e-05	1.4957e-05	490.23	226.47	124.91	48.616	1.4907e-05	100.72	172.456	196.810	200.557	79.194	230.799	146.948	78.673	84.204	294.360	167.161	83.172	86.785	88.277	92.664	225.833	90.934	-8191	255	
28714.207	1	1	0	0	0.094481	0.10631	0.39345	0.23059	0.13069	0.12544	0.32637	0.20519	0.12274	0.20832	0.19925	0.16316	0.28423	0.10189	0.029502	0.53878	-1.7208	-1.8833	-1.2938	-2.2667	-1.625	-1.75	-2.2562	-1.475	-1.9771	-2.0167	-1.5812	-2.4083	-1.6875	-1.6187	-2.1562	-1.4146	123.776	246.977	160.050	99.683	349.221	263.046	412.693	395.211	77.735	149.202	353.390	373.796	331.522	426.402	394.226	339.310	0.00083861	0.00036897	9.2286e-05	884.33	4.6933e-06	8.5317e-06	1264.5	295.03	5.9136e-06	1.0217e-05	534.53	249.22	134.13	52.864	6.9826e-06	111.17	0.0012643	0.0013767	0.00037345	810.6	1.5109e-05	1.4963e-05	1143.5	268.57	1.4781e-05	1.5265e-05	487.8	224.67	123.98	48.393	1.5297e-05	100.11	171.776	175.177	407.949	79.043	239.455	221.871	78.723	84.460	237.193	80.595	82.948	86.921	88.167	92.625	172.084	90.951	-8191	255	
28714.303	1	1	0	0	0.092102	0.26966	0.19192	0.26191	0.13328	0.23467	0.38631	0.23925	0.19865	0.11574	0.22426	0.27601	0.087533	0.30474	0.23443	0.26096	-1.5354	-1.7917	-1.3563	-2.3229	-1.5146	-1.6708	-2.4646	-1.6292	-1.8875	-2.0646	-1.5396	-2.3563	-1.7792	-1.675	-2.1917	-1.6375	370.654	163.412	180.861	418.332	253.136	385.987	328.837	382.256	314.828	178.300	410.151	68.952	138.931	377.213	254.169	295.796	0.00080966	0.00041433	0.00024259	869.6	3.9247e-06	7.3722e-06	1258.5	292.69	8.3104e-06	9.5296e-06	533.57	248.61	133.17	52.604	1.524e-05	111.34	0.0013091	0.0014179	0.00038297	803.81	1.4936e-05	1.5118e-05	1139.6	267.15	1.4897e-05	1.5224e-05	486.02	224.48	123.16	47.996	1.5161e-05	100.28	174.815	196.088	126.347	78.872	275.598	265.974	78.560	84.268	204.055	230.862	82.778	86.937	87.961	92.963	180.774	91.103	-8191	255	
28714.398	1	1	0	0	0.35687	0.1406	0.21313	0.1447	0.2306	0.20854	0.35844	0.1559	0.12791	0.060642	0.069482	0.22066	0.21177	0.27297	0.053685	0.47247	-1.3563	-2.1021	-1.1854	-2.0667	-1.6542	-1.5438	-2.3312	-1.5312	-1.775	-2.2313	-1.3563	-2.0646	-1.7625	-1.3292	-2.225	-1.6812	238.262	260.177	96.545	354.612	320.734	290.149	378.873	222.673	214.434	249.501	283.153	381.051	371.200	120.026	393.860	366.440	0.00082047	0.00024696	0.00023139	883.12	6.9816e-06	1.2422e-05	1273	292.86	1.342e-05	3.9977e-06	536.86	251.22	135.2	53.06	5.4582e-06	112.36	0.0013095	0.0013993	0.000383	808.22	1.5158e-05	1.486e-05	1143	267.47	1.4766e-05	1.5045e-05	488.06	226.94	124.46	48.523	1.4484e-05	101.36	176.092	224.934	178.381	79.102	290.402	124.504	78.953	84.276	308.015	258.280	82.928	86.969	88.588	93.049	402.319	90.962	-8191	255	
28714.494	1	1	0	0	0.10729	0.072036	0.24388	0.28439	0.12423	0.15722	0.076161	0.32401	0.35592	0.14482	0.3112	0.10157	0.13471	0.14418	0.06679	0.36301	-1.1646	-2.0167	-1.3312	-2.1917	-1.7542	-1.2896	-2.3208	-1.7188	-1.6437	-1.9354	-1.4646	-2.025	-1.925	-1.4958	-2	-1.7	140.923	259.644	73.132	375.967	262.291	410.932	92.016	75.580	235.304	398.597	366.975	410.932	93.794	286.862	273.901	379.178	0.00058136	0.00016755	0.00016947	888.2	1.6866e-05	8.843e-06	1276.4	297.09	3.0361e-06	1.1229e-05	540.29	251.67	135.68	53.173	1.004e-05	111.4	0.0012945	0.0013702	0.00037793	815.31	1.5034e-05	1.4968e-05	1152.6	270.85	1.4764e-05	1.5127e-05	492.19	227.42	124.89	48.716	1.4902e-05	100.87	164.904	222.570	157.880	79.195	179.947	207.195	78.805	84.459	257.406	272.122	82.985	86.877	88.642	92.802	291.212	90.989	-8191	255	
28714.615	1	1	0	0	0.14025	0.21318	0.47921	0.26924	0.19322	0.11953	0.40865	0.18634	0.16383	0.1332	0.29769	0.37122	0.023252	0.11165	0.012827	0.10906	-1.2062	-2.1937	-1.1208	-1.9542	-1.9667	-1.3292	-2.4104	-1.8771	-1.3979	-1.9729	-1.5562	-2.1583	-2.0187	-1.4354	-2.1917	-1.8833	396.279	257.133	378.913	373.509	85.534	394.190	378.479	337.541	149.395	131.506	425.683	392.089	141.189	391.354	140.806	403.697	0.00079825	0.0013918	0.00028575	880.66	9.9618e-06	2.1321e-05	1264.1	292.35	5.6746e-06	5.689e-06	534.79	248.22	134.43	52.681	1.4021e-05	111.6	0.0013271	0.0013736	0.00038821	808.98	1.5217e-05	1.5167e-05	1144.2	268.13	1.4999e-05	1.4969e-05	487.14	224.86	124.04	48.333	1.4811e-05	100.32	173.189	167.405	149.008	79.519	215.338	235.928	78.782	84.434	223.496	309.714	83.412	87.274	88.369	92.590	216.041	90.959	-8191	255	
28714.713	1	1	0	0	0.34675	0.14732	0.22773	0.27162	0.088729	0.02703	0.096332	0.20262	0.07245	0.15836	0.22896	0.22002	0.074361	0.14221	0.14441	0.19544	-0.98333	-2.2	-1.3583	-1.7146	-2.0354	-1.5271	-2.0917	-1.9417	-1.4542	-2.05	-1.7021	-1.6833	-2.0625	-1.5271	-1.9062	-2.0312	334.565	319.376	79.595	406.349	364.724	152.568	284.943	421.780	341.037	115.910	407.387	419.936	395.941	369.064	330.242	331.581	0.00087766	0.0020817	0.00035081	884.82	3.1236e-06	9.3847e-06	1266.2	292.02	1.3783e-05	1.0537e-05	536.87	248.49	134.14	52.066	2.9441e-06	110.31	0.0013423	0.001364	0.00038769	807.18	1.49e-05	1.4992e-05	1141.7	266.59	1.4759e-05	1.4649e-05	487.23	224.32	123.21	47.889	1.4638e-05	99.682	166.826	153.816	133.283	79.010	140.523	195.858	78.885	84.712	243.848	160.792	82.746	87.125	88.168	92.694	244.342	90.805	-8191	255	
28714.809	1	1	0	0	0.18745	0.22062	0.27995	0.21874	0.14649	0.1426	0.13013	0.335	0.21564	0.096809	0.15556	0.30522	0.10338	0.32313	0.028873	0.17529	-0.95417	-2.1396	-1.725	-1.5979	-2.1604	-1.3708	-2.0292	-1.9417	-1.1042	-2.2104	-1.7375	-1.6604	-2.425	-1.4458	-1.7792	-2.0854	277.340	252.012	223.282	100.246	117.612	104.764	327.875	370.466	200.708	212.026	238.628	334.556	122.721	347.779	363.184	389.234	0.00069414	1.955e-05	0.00045544	884.57	1.1556e-05	8.6527e-06	1272.4	292.72	1.2925e-05	1.6539e-05	538.86	251.71	135.41	52.626	1.9209e-05	111.84	0.001295	0.0013381	0.00038422	808.76	1.4454e-05	1.4899e-05	1149.1	267.54	1.4565e-05	1.4527e-05	489.87	226.85	124.46	48.26	1.4607e-05	101	168.688	389.681	136.186	79.012	233.827	267.147	78.985	84.138	240.265	247.130	82.978	87.202	88.481	92.421	205.535	91.038	-8191	255	
28714.904	1	1	0	0	0.29032	0.26911	0.19319	0.2442	0.14483	0.14986	0.21621	0.22827	0.31529	0.14499	0.11447	0.27377	0.06358	0.40982	0.18813	0.14693	-1.0083	-2.0521	-1.6542	-1.3458	-2.225	-1.5542	-1.8729	-2.2438	-1.4625	-1.9104	-1.9604	-1.4458	-2.2125	-1.5208	-1.5792	-2.3208	149.254	375.154	230.869	353.015	299.942	151.938	368.458	348.583	375.161	83.741	390.036	371.467	419.336	410.818	202.824	273.291	0.00082121	0.0014981	0.00029215	886.62	1.6504e-05	8.1756e-06	1275.8	297.03	5.5243e-06	1.1916e-05	543.66	251.11	135.94	52.848	2.0203e-05	111.15	0.0013208	0.0013453	0.00038969	813.4	1.4528e-05	1.4953e-05	1155	271	1.4777e-05	1.4628e-05	493.13	227.46	124.67	48.481	1.4737e-05	100.45	171.336	158.490	178.032	78.985	239.211	171.854	78.859	84.272	99.962	189.757	83.469	87.332	88.139	92.706	206.337	90.898	-8191	255	
28715.000	1	1	0	0	0.16974	0.09007	0.037492	0.13978	0.15405	0.10139	0.24757	0.41204	0.23722	0.12396	0.25729	0.17765	0.43968	0.30949	0.15555	0.2157	-0.90417	-1.9521	-2.0438	-1.6292	-2.1	-1.3292	-1.8208	-2.2229	-1.2729	-1.9312	-2.1813	-1.5167	-2.1646	-1.7167	-1.4396	-2.1625	81.785	413.553	354.014	68.783	356.545	404.274	366.434	386.899	341.563	279.069	391.153	342.144	419.720	410.828	305.911	411.619	0.00069438	0.001145	0.00022597	888.95	4.3964e-06	1.1327e-05	1279.9	295.03	4.8532e-06	9.0534e-06	534.51	248.28	134.7	51.885	8.9188e-06	109.93	0.0013185	0.0013357	0.00037759	814.49	1.4432e-05	1.4984e-05	1153.1	268.43	1.4737e-05	1.4608e-05	487.36	224.67	123.43	47.804	1.4877e-05	98.934	177.166	89.587	194.199	78.981	315.760	385.795	78.851	84.102	285.288	217.922	83.194	87.252	88.764	93.062	242.056	91.002	-8191	255	
28715.096	1	1	0	0	0.19499	0.1379	0.22962	0.15827	0.27033	0.093929	0.40158	0.08266	0.29932	0.02267	0.12046	0.30573	0.34356	0.27702	0.053564	0.25383	-1.0271	-1.9083	-1.9146	-1.4021	-2.1125	-1.8354	-1.5688	-2.3042	-1.4229	-1.7979	-2.2917	-1.6354	-2.1958	-1.9229	-1.3021	-2.2771	403.923	359.211	393.846	349.064	239.229	203.291	377.461	381.743	340.611	415.316	109.289	396.297	349.330	405.631	214.200	401.818	0.00090571	0.0010318	0.00030082	885.72	8.6388e-06	1.4204e-05	1278	293.12	3.7407e-06	5.703e-06	529.09	246.1	132.37	51.402	7.8734e-06	108.66	0.0013167	0.0013577	0.00038578	810.47	1.492e-05	1.5282e-05	1147.7	265.9	1.5317e-05	1.5073e-05	483.23	222.35	121.97	47.302	1.5485e-05	97.939	170.125	141.407	213.591	79.380	230.191	139.661	79.055	84.127	302.523	257.619	83.662	87.155	88.648	92.969	259.658	91.224	-8191	255	
28715.191	1	1	0	0	0.014505	0.10169	0.12592	0.13806	0.10346	0.11487	0.10583	0.074401	0.1327	0.10337	0.21323	0.091839	0.13258	0.22765	0.061857	0.46686	-0.9375	-1.6875	-1.975	-1.5542	-2.1125	-1.8833	-1.5583	-2.2458	-1.4688	-1.5938	-2.2833	-1.2875	-2.0083	-1.9229	-1.3729	-2.2938	329.151	259.995	138.696	86.944	182.710	165.042	108.122	311.697	127.345	395.809	360.198	102.882	312.632	103.600	91.248	372.826	0.00060393	0.00079183	4.863e-05	877.24	1.5692e-06	1.0364e-05	1268	288.19	1.6956e-06	1.2916e-05	528.13	245.27	133.03	51.456	4.1485e-06	109.06	0.0013567	0.0014067	0.00039768	806.13	1.5169e-05	1.5688e-05	1144.2	263.89	1.5564e-05	1.5697e-05	483.38	222.02	122.07	47.317	1.5625e-05	98.551	166.279	128.678	376.846	79.008	307.228	211.376	79.084	84.427	250.978	179.415	83.234	87.519	88.819	92.644	337.056	91.259	-8191	255	
28715.289	1	1	0	0	0.21639	0.26997	0.34377	0.21363	0.02384	0.16791	0.33113	0.31892	0.14535	0.068911	0.28879	0.16931	0.18407	0.15804	0.23319	0.35096	-1.0958	-1.5083	-2.0958	-1.4312	-1.7771	-2.1688	-1.2563	-2.2375	-1.6979	-1.4792	-2.2875	-1.6396	-2.0687	-2.0312	-1.4333	-2.2333	368.633	232.868	125.868	399.872	374.722	184.165	312.844	390.840	72.957	90.108	340.571	402.759	266.091	425.200	158.128	319.584	0.00072481	0.0012981	0.00024628	887.31	1.0664e-05	1.2108e-05	1278.2	292.88	9.121e-06	1.6578e-06	535.87	247.85	134.38	51.835	1.4709e-05	109.93	0.0013876	0.0014215	0.00039502	811.39	1.5174e-05	1.5557e-05	1153.9	266.87	1.5446e-05	1.5375e-05	487.92	223.99	123.31	47.701	1.5299e-05	99.146	170.941	142.799	93.148	79.356	156.023	193.547	78.986	84.639	131.980	233.652	83.265	87.312	88.215	92.869	205.444	91.312	-8191	255	
28715.406	1	1	0	0	0.16865	0.15053	0.063265	0.1077	0.22036	0.13275	0.13428	0.24674	0.21648	0.12669	0.22443	0.16986	0.19208	0.34693	0.096548	0.081303	-1.3021	-1.4542	-2.1917	-1.5958	-1.7771	-1.9833	-1.4979	-2.1396	-1.55	-1.5021	-2.2396	-1.7062	-1.7646	-2.1229	-1.4021	-2.3021	415.445	105.060	154.546	75.922	161.578	316.289	370.915	94.683	92.278	407.368	341.061	331.672	350.017	347.666	393.539	296.138	0.00071227	0.00094458	9.5783e-05	890.74	6.5718e-06	1.8758e-05	1277.5	293.66	9.5869e-06	1.9357e-05	538.88	247.46	133.37	51.72	6.298e-06	109.11	0.0013731	0.0013875	0.00038368	815.7	1.501e-05	1.5614e-05	1156.1	268.02	1.5299e-05	1.5279e-05	487.49	223.4	122.66	47.582	1.5075e-05	98.292	179.714	125.486	153.417	79.128	293.135	207.567	79.011	84.625	249.726	163.463	83.572	86.809	88.472	92.990	183.148	90.899	-8191	255	
28715.504	1	1	0	0	0.1562	0.10499	0.16523	0.090709	0.10539	0.08209	0.26415	0.19198	0.097084	0.27234	0.012756	0.27805	0.23919	0.256	0.37824	0.04291	-1.3375	-1.3958	-2.1104	-1.5896	-1.6771	-2.2125	-1.4792	-1.9833	-1.8125	-1.4417	-2.2854	-1.8208	-1.7479	-2.3479	-1.525	-1.9104	230.124	154.105	224.699	375.021	358.362	406.044	399.085	306.083	291.938	327.727	314.846	381.132	99.625	296.289	134.475	417.911	0.0009211	0.00027407	0.00012859	883.54	3.2372e-06	1.1692e-05	1288.3	292.84	7.6068e-06	1.1731e-05	532.43	247.53	133.06	51.429	1.7942e-06	109.03	0.001345	0.0013534	0.00037384	813.65	1.4668e-05	1.4846e-05	1157.6	267.07	1.5018e-05	1.4794e-05	485.99	223.02	122.39	47.289	1.501e-05	98.118	168.053	370.448	282.106	79.098	211.955	182.760	78.924	84.819	225.093	160.517	83.205	86.901	88.792	92.691	264.287	91.309	-8191	255	
28715.574	1	1	0	0	0.1418	0.27514	0.12246	0.056708	0.069474	0.1443	0.089788	0.309	0.11612	0.37216	0.043889	0.3508	0.17768	0.31829	0.20492	0.26027	-1.6083	-1.3542	-2.2125	-1.8813	-1.4562	-2.3521	-1.5958	-1.6708	-2.0792	-1.2708	-2.1104	-2.0438	-1.6042	-2.1792	-1.4896	-1.8438	263.918	230.584	117.146	186.566	70.672	109.476	387.813	410.318	88.732	171.497	385.138	79.242	78.014	75.338	205.987	311.073	0.00083599	0.00080727	0.00028225	887.77	7.5398e-06	1.0478e-05	1278.5	291.85	1.0203e-05	3.7235e-06	534.49	247.51	133.26	51.999	4.2467e-06	109.4	0.0013151	0.0013619	0.00037698	813.08	1.4499e-05	1.4524e-05	1154.6	265.76	1.4804e-05	1.4999e-05	487.16	223.13	122.4	47.469	1.4902e-05	98.771	168.719	123.989	164.980	78.743	116.415	244.127	78.933	84.733	142.905	272.963	83.228	87.182	88.683	93.205	295.263	91.111	-8191	255	
28715.695	1	1	0	0	0.18079	0.060618	0.11189	0.11842	0.14259	0.26055	0.26579	0.3752	0.15197	0.13804	0.242	0.28097	0.21134	0.14797	0.10657	0.23412	-1.5938	-1.2792	-1.9375	-1.8667	-1.3833	-2.1146	-1.5542	-1.5729	-2.0625	-1.4396	-1.9604	-2.1021	-1.4146	-2.1667	-1.6812	-1.9271	314.394	359.789	280.161	159.783	153.460	101.787	324.763	346.766	365.871	394.397	310.874	351.187	126.356	107.553	148.035	352.872	0.00080611	0.0013205	0.0001716	893.85	3.903e-06	1.1788e-05	1294.1	296.66	8.9858e-06	1.6068e-05	541.86	249.08	135.45	52.036	5.5494e-06	110.76	0.0013294	0.0013599	0.00037222	817.84	1.4563e-05	1.4873e-05	1165.7	268.96	1.4941e-05	1.505e-05	492.19	225.17	123.98	47.898	1.5163e-05	99.528	173.825	144.145	301.224	79.460	267.600	149.943	79.188	84.496	209.065	234.433	83.528	87.306	88.879	92.829	250.869	91.220	-8191	255	
28715.793	1	1	0	0	0.080038	0.14602	0.023744	0.23461	0.14216	0.17086	0.13595	0.24513	0.12635	0.16828	0.059139	0.28647	0.32773	0.086108	0.13742	0.28025	-1.8	-1.4458	-1.7896	-1.9417	-1.3083	-2.1896	-1.7687	-1.5021	-2.2958	-1.4396	-2	-2.1417	-1.5292	-2.2292	-1.7375	-1.55	155.185	182.197	402.436	240.330	255.794	136.221	178.213	370.807	406.634	286.733	386.431	323.635	388.789	369.880	111.461	416.301	0.0008187	0.0014156	4.7368e-05	898.2	6.4577e-06	9.9158e-06	1292.5	295.49	1.0685e-05	1.3872e-05	539.11	249.53	134.31	52.022	1.3766e-05	110.36	0.0013319	0.0013628	0.00037081	820.08	1.4677e-05	1.4441e-05	1166.5	269.09	1.4477e-05	1.4782e-05	491.14	225.26	123.03	47.596	1.4628e-05	98.866	177.434	158.815	192.038	79.174	251.458	179.155	78.987	84.495	218.960	177.879	83.362	87.203	89.033	92.976	247.065	90.900	-8191	255	
28715.889	1	1	0	0	0.20138	0.18572	0.18653	0.20032	0.29635	0.12999	0.22865	0.090335	0.21961	0.18223	0.037328	0.11989	0.16552	0.13437	0.15201	0.24105	-1.7521	-1.4167	-1.8417	-2.0604	-1.3563	-1.95	-2.0812	-1.675	-2.2771	-1.5646	-1.8708	-2.2396	-1.3062	-2.0021	-1.8896	-1.4125	347.438	314.700	241.625	334.813	138.815	422.341	307.685	319.841	81.812	321.662	107.913	413.054	347.584	378.384	258.438	342.121	0.00082978	0.0010287	0.00023399	892.57	4.3278e-06	5.1222e-06	1293.7	294.09	2.4364e-06	9.6229e-06	536.59	248.26	135.24	51.69	2.5802e-06	109.2	0.0012731	0.0013486	0.00036726	818.1	1.4441e-05	1.4204e-05	1165.7	268.47	1.4211e-05	1.4585e-05	489.25	224.5	123.48	47.344	1.4536e-05	98.373	177.373	422.234	92.357	79.095	143.775	346.763	78.616	84.285	272.295	112.898	83.482	87.019	88.674	92.883	284.084	91.077	-8191	255	
28716.010	1	1	0	0	0.089197	0.089988	0.27702	0.29347	0.1255	0.18998	0.14331	0.201	0.21339	0.18254	0.33928	0.32422	0.066996	0.13513	0.27877	0.13207	-1.8271	-1.5479	-1.5958	-2.1854	-1.55	-1.8937	-2.0583	-1.5458	-2.0583	-1.5	-1.875	-2.3958	-1.5542	-1.9771	-2.1375	-1.55	348.506	160.023	206.349	362.044	136.324	264.092	253.543	351.329	134.436	423.596	69.739	398.683	121.974	114.253	368.735	216.902	0.00076531	0.0013277	0.00023936	894.35	1.4118e-05	4.9758e-06	1294.3	293.84	7.6682e-06	1.3166e-05	539.71	249.57	134.63	51.72	1.5207e-05	109.77	0.0012517	0.0013387	0.00036535	818.92	1.4142e-05	1.4035e-05	1165.2	267.28	1.3909e-05	1.4453e-05	490.26	223.97	122.85	47.227	1.4345e-05	98.633	170.130	206.148	78.315	78.936	303.227	282.655	78.727	84.376	250.259	198.782	83.096	87.048	88.377	93.093	192.611	91.146	-8191	255	
28716.105	1	1	0	0	0.068175	0.096088	0.28178	0.13284	0.061422	0.10032	0.18497	0.25096	0.41187	0.24484	0.062474	0.1369	0.25997	0.37337	0.2162	0.23939	-1.7729	-1.6396	-1.2771	-2.1354	-1.3771	-1.8438	-2.2542	-1.45	-2.025	-1.7521	-1.5708	-2.3958	-1.5625	-1.8042	-2.0854	-1.5125	395.556	135.145	370.230	375.849	148.005	296.291	90.944	370.728	249.618	111.538	425.444	400.135	416.385	357.122	178.809	289.454	0.00086844	0.0011602	0.00013413	893.28	1.3852e-05	1.3587e-06	1297.6	296.97	4.1423e-06	1.4605e-05	543.55	248.85	134.3	51.499	6.3223e-06	109.21	0.0012529	0.0012989	0.00035858	817.86	1.4062e-05	1.4098e-05	1170.6	269.14	1.358e-05	1.4283e-05	491.66	224.84	122.46	46.994	1.4142e-05	98.365	173.148	181.119	164.102	79.270	220.489	146.967	78.597	84.510	258.928	192.502	83.492	87.411	88.253	92.543	153.239	91.142	-8191	255	
28716.178	1	1	0	0	0.25461	0.090204	0.058721	0.064317	0.17484	0.11391	0.46571	0.28996	0.21458	0.39134	0.28072	0.42032	0.34448	0.29915	0.21894	0.2189	-1.5562	-1.6667	-1.3354	-2.2	-1.5187	-1.6812	-2.4667	-1.3333	-1.8563	-2.0771	-1.2104	-2.1958	-1.6333	-1.6167	-2.2583	-1.5333	206.118	97.573	320.883	372.226	137.991	369.054	412.698	352.233	409.020	410.555	394.975	414.898	396.490	384.565	70.242	193.394	0.00064688	0.00073882	0.00014622	893.25	9.2662e-06	7.5034e-06	1302.7	293.66	1.9725e-06	3.5375e-06	541.04	246.83	132.12	51.168	9.9446e-06	108.33	0.0012453	0.001334	0.00036184	816.27	1.4089e-05	1.4165e-05	1167.8	266.53	1.3809e-05	1.4303e-05	488.93	222.83	121.17	46.748	1.3977e-05	97.719	174.466	131.207	346.523	79.396	213.553	201.431	78.650	84.405	326.216	140.616	83.350	87.175	88.477	93.214	225.725	91.317	-8191	255	
28716.297	1	1	0	0	0.22228	0.096606	0.076602	0.18345	0.13352	0.27555	0.19543	0.2697	0.13082	0.051322	0.29708	0.25778	0.04257	0.17346	0.29354	0.43903	-1.5542	-2.0229	-1.1771	-2.3063	-1.675	-1.4937	-2.3979	-1.2563	-1.8729	-2.05	-1.2729	-2.1917	-1.7021	-1.3958	-2.0375	-1.5771	245.706	129.523	301.177	411.257	292.745	86.916	384.608	378.847	205.512	335.852	392.726	336.852	225.959	236.973	238.265	405.046	0.00085928	0.00085203	0.00014427	897.27	1.1602e-05	1.3149e-05	1292.2	292.52	7.3544e-06	1.2897e-05	539.1	247.03	132.18	50.79	9.2785e-06	108.84	0.0012225	0.0013	0.00034982	813.9	1.3862e-05	1.3703e-05	1162.8	265.67	1.3505e-05	1.4054e-05	488.05	222.57	121.08	46.485	1.3627e-05	97.718	168.073	314.618	419.632	79.350	213.971	221.667	79.002	84.700	275.759	235.204	83.279	87.367	88.851	93.021	221.519	91.252	-8191	255	
28716.393	1	1	0	0	0.23278	0.16631	0.12847	0.17172	0.2285	0.16339	0.31151	0.3117	0.23999	0.07399	0.28702	0.18825	0.14743	0.20303	0.12526	0.3003	-1.425	-2.2271	-1.3375	-2.1896	-1.8813	-1.4875	-2.4208	-1.5104	-1.7146	-2.0542	-1.5854	-1.9333	-1.9958	-1.4229	-2.2292	-1.7542	111.116	417.820	212.945	69.418	402.043	363.960	371.840	363.512	312.676	398.129	338.629	365.589	74.525	79.233	406.289	423.824	0.00080064	0.0008557	0.00022517	892.28	1.0503e-05	8.0249e-06	1303.2	292.03	1.2026e-05	1.6557e-05	542.82	249.46	133.15	50.86	1.5134e-05	109.14	0.0012079	0.0012513	0.00034804	814.76	1.3666e-05	1.3508e-05	1169.9	266.06	1.331e-05	1.3653e-05	491.07	224.11	121.65	46.551	1.3322e-05	98.187	165.908	176.246	230.787	79.183	232.665	398.743	79.205	84.390	245.311	149.831	83.217	87.128	88.685	92.745	215.415	91.116	-8191	255	
28716.488	1	1	0	0	0.14992	0.27376	0.060957	0.20396	0.30134	0.36202	0.13201	0.11219	0.11968	0.22544	0.23064	0.1778	0.13748	0.27671	0.1431	0.23003	-1.175	-1.9396	-1.4125	-1.8875	-1.9042	-1.3583	-2.2792	-1.8979	-1.3813	-2.3521	-1.4125	-1.975	-1.9479	-1.2771	-2.0104	-1.825	103.994	89.879	130.165	247.198	117.382	241.912	406.814	109.728	96.053	105.152	268.769	337.550	87.574	416.853	201.377	375.404	0.00083624	0.0010924	0.00030339	901.58	3.8147e-06	7.1098e-06	1319.1	297.6	4.7655e-06	1.5383e-05	550.03	253.71	135.91	51.932	1.0275e-05	110.74	0.001207	0.0012657	0.00034395	821.54	1.3652e-05	1.346e-05	1182.6	270.21	1.3439e-05	1.3611e-05	498.59	228.33	123.65	47.347	1.335e-05	99.454	166.203	128.100	139.556	79.150	250.109	200.712	78.767	84.583	304.387	226.357	83.286	87.504	88.121	93.030	214.376	91.041	-8191	255	
28716.584	1	1	0	0	0.18275	0.16697	0.061401	0.16469	0.25213	0.23784	0.39517	0.25806	0.048788	0.11256	0.071461	0.23667	0.055163	0.24029	0.0051494	0.27045	-0.84375	-2.2104	-1.6063	-1.9833	-1.9583	-1.4062	-2.2708	-1.9521	-1.275	-2.1542	-1.5125	-1.9312	-2.2104	-1.5958	-1.9333	-2.0062	373.844	315.804	279.458	415.698	361.560	395.548	381.218	74.189	115.694	196.946	391.406	377.416	325.795	388.490	147.256	376.392	0.00088729	0.00050001	0.00029331	907.55	1.8128e-06	6.1982e-06	1324.5	300.55	8.218e-06	1.9787e-05	550.65	252.41	135.22	52.205	9.2309e-06	110.77	0.0012199	0.0012659	0.00035531	828.96	1.3777e-05	1.3704e-05	1190.1	272.39	1.3554e-05	1.3875e-05	498.35	227.7	123.81	47.417	1.3749e-05	99.204	174.480	125.937	186.449	79.227	92.628	225.899	79.306	84.438	219.034	169.501	83.575	87.377	88.572	92.984	225.691	91.207	-8191	255	
28716.680	1	1	0	0	0.23585	0.17126	0.27308	0.0292	0.10382	0.10708	0.27038	0.028968	0.14104	0.29316	0.20867	0.42088	0.31746	0.33515	0.098541	0.16063	-0.85625	-2.1312	-1.4375	-1.5583	-2.05	-1.3521	-2.1312	-1.9813	-1.2854	-2.2875	-1.5625	-1.6417	-2.4021	-1.6104	-1.9292	-1.9833	273.085	408.574	119.275	201.712	180.337	189.121	357.555	425.139	150.445	126.954	356.452	385.136	391.937	398.262	224.338	366.347	0.00069104	0.0010609	0.00038578	906.9	1.0584e-05	8.8491e-06	1326.6	296.41	9.4843e-06	1.7865e-06	542.99	254.02	134.89	51.815	5.0223e-06	109.71	0.0012355	0.0012495	0.00036092	826.02	1.3803e-05	1.3948e-05	1193.3	271.12	1.3539e-05	1.3777e-05	496.21	227.46	123.3	47.275	1.386e-05	98.764	161.029	191.043	182.474	79.487	232.523	252.037	79.085	84.777	257.864	250.611	82.950	87.307	88.738	93.110	169.709	90.848	-8191	255	
28716.801	1	1	0	0	0.072016	0.24148	0.071419	0.28069	0.025241	0.092174	0.13331	0.066534	0.033998	0.15149	0.29107	0.31168	0.37676	0.20685	0.15146	0.22849	-0.93542	-1.9729	-1.5333	-1.6	-2.2438	-1.4104	-2.0687	-2.1646	-1.2646	-2.2229	-1.9625	-1.6542	-2.25	-1.3813	-1.6375	-2.3146	338.341	417.687	136.545	383.241	277.554	340.385	337.204	310.287	220.408	312.126	412.120	390.470	341.879	363.704	182.518	393.731	0.0009113	0.0010436	3.8168e-05	913.04	7.5181e-06	1.1968e-05	1326.6	297.43	1.4328e-05	6.1275e-06	551.44	250.31	134.42	51.446	1.8691e-05	110.2	0.0012461	0.0012675	0.00036249	831.05	1.3885e-05	1.4116e-05	1192.1	271.1	1.3914e-05	1.3857e-05	499.43	226.48	123.08	47.007	1.3829e-05	99.131	173.573	92.441	275.342	79.631	212.685	240.397	78.945	84.154	247.410	160.621	83.139	87.208	88.311	92.774	200.656	91.040	-8191	255	
28716.871	1	1	0	0	0.20441	0.10259	0.10972	0.31525	0.41285	0.14134	0.27768	0.2476	0.19839	0.090431	0.089724	0.16728	0.066306	0.33968	0.19828	0.23074	-0.94792	-2.0729	-1.6812	-1.6896	-2.0979	-1.6292	-1.8188	-2.2083	-1.1583	-2.1083	-1.9208	-1.5333	-2.2604	-1.6208	-1.475	-2.425	291.801	98.445	225.455	350.379	70.015	75.740	343.276	338.623	388.173	215.563	385.351	370.515	353.211	362.521	399.089	71.860	0.00070661	0.0010597	0.00030855	910.11	1.2029e-05	1.4677e-05	1343.5	299.33	2.4302e-06	1.1472e-05	555.74	253.91	135.86	52.238	1.0634e-05	110.95	0.0012386	0.0012601	0.00036043	832.15	1.3754e-05	1.4285e-05	1202.5	273.13	1.4e-05	1.3834e-05	503.24	228.99	123.97	47.593	1.4048e-05	100.02	169.674	146.280	167.334	79.459	246.387	284.021	79.239	84.743	143.651	258.090	83.069	87.299	88.602	92.739	224.050	91.421	-8191	255	
28716.969	1	1	0	0	0.08582	0.45266	0.14095	0.12279	0.16861	0.079646	0.3292	0.15036	0.070598	0.082389	0.1877	0.21801	0.15628	0.2262	0.087584	0.47347	-0.92292	-1.7833	-2.0938	-1.4604	-2.3167	-1.6604	-1.7375	-2.3563	-1.3667	-1.9229	-1.9979	-1.5646	-2.2562	-1.5792	-1.4688	-2.3479	194.821	271.255	337.577	312.509	309.353	353.041	307.209	364.908	376.299	156.504	347.435	337.959	358.471	84.117	121.771	342.621	0.00083292	0.0010392	0.00018398	921.13	3.7877e-06	9.0464e-06	1343.9	302.59	2.3815e-06	7.0108e-06	556.61	253.32	135.67	52.523	4.3114e-06	110.85	0.00128	0.0013003	0.00037116	838.58	1.3608e-05	1.4666e-05	1207.5	274.52	1.4396e-05	1.4307e-05	505.84	229.42	124.83	47.761	1.4181e-05	99.682	171.801	141.917	119.444	79.436	210.926	205.275	79.248	84.674	210.394	310.923	83.245	87.200	88.515	93.097	222.477	91.194	-8191	255	
28717.090	1	1	0	0	0.25428	0.17741	0.18115	0.13848	0.15853	0.2238	0.25441	0.10961	0.33417	0.10728	0.10109	0.26697	0.042977	0.19492	0.11629	0.23509	-0.96667	-1.7188	-2.1875	-1.4688	-2.0542	-1.625	-1.5187	-2.3708	-1.4875	-1.8646	-2.3771	-1.4667	-2.2	-1.95	-1.4833	-2.3312	92.258	256.989	120.184	75.696	148.018	423.765	292.232	361.296	342.941	417.252	414.945	346.828	191.197	311.545	296.882	343.800	0.00069325	0.00087225	0.00033148	916.41	1.0777e-05	1.7116e-05	1338.4	300.03	6.8015e-06	1.6167e-05	551.87	253.18	135.17	52.11	5.5802e-06	110.05	0.0012978	0.0013058	0.0003699	833.71	1.4222e-05	1.4615e-05	1199.9	273.9	1.4477e-05	1.4213e-05	502.22	228	123.91	47.59	1.4447e-05	99.161	181.940	153.018	168.933	79.300	231.866	184.523	79.054	84.766	225.638	220.668	83.649	87.434	88.688	92.975	208.576	91.114	-8191	255	
28717.184	1	1	0	0	0.17426	0.24774	0.15277	0.1303	0.1195	0.21181	0.39129	0.28607	0.20925	0.30071	0.17334	0.36135	0.12957	0.28656	0.23634	0.44083	-1.1187	-1.6938	-2.2979	-1.3375	-2.0271	-1.8208	-1.6167	-2.3354	-1.5167	-1.5646	-2.3229	-1.3854	-1.8896	-2.0604	-1.15	-2.4583	388.059	277.825	414.020	93.692	165.681	413.269	357.522	349.214	86.088	312.185	370.603	425.222	322.166	361.575	362.597	297.728	0.00077864	0.00022857	0.00012772	912.44	2.7297e-06	3.1739e-06	1333.2	300.62	9.2705e-06	1.374e-05	552.57	251.35	135.47	51.418	7.3263e-06	110.15	0.0012853	0.0013168	0.00037869	834.82	1.4225e-05	1.4874e-05	1198.5	272.73	1.4715e-05	1.4632e-05	500.75	227.04	123.62	47.209	1.4672e-05	99.094	170.139	69.257	190.285	78.780	155.207	136.239	78.867	84.521	227.217	257.843	83.344	86.839	88.290	93.129	202.025	91.558	-8191	255	
28717.279	1	1	0	0	0.25999	0.094869	0.24383	0.4159	0.10934	0.079467	0.16651	0.28116	0.10361	0.15759	0.15997	0.21822	0.11376	0.21333	0.21494	0.22723	-1.0708	-1.4042	-2.1542	-1.4625	-1.775	-1.8104	-1.475	-2.3521	-1.8979	-1.5312	-2.4271	-1.5021	-1.8062	-2.2042	-1.3104	-2.1104	111.839	122.985	251.681	103.217	278.307	75.556	389.551	381.737	241.700	179.789	310.643	406.775	411.212	368.114	416.185	385.462	0.00081565	0.0015189	0.00037061	905.42	1.1882e-05	1.8218e-05	1333.8	301.39	1.1286e-05	2.1475e-05	554.38	253.88	134.7	52.318	8.4507e-06	111.13	0.001332	0.0013749	0.0003734	831.55	1.4421e-05	1.4787e-05	1200.5	273.29	1.4615e-05	1.4627e-05	503.61	229.15	124.18	47.775	1.4617e-05	100.38	171.624	87.665	409.997	79.173	263.649	219.214	78.741	84.473	265.659	253.137	82.984	87.192	88.569	92.675	217.736	91.423	-8191	255	
28717.377	1	1	0	0	0.14257	0.28989	0.046659	0.1419	0.19098	0.21922	0.40578	0.10104	0.21984	0.2353	0.20087	0.43312	0.030678	0.22281	0.3394	0.16243	-1.2458	-1.2104	-2.2708	-1.6667	-1.6063	-2.0583	-1.6021	-2.1458	-1.8813	-1.1688	-2.1063	-1.6812	-1.8542	-2.2958	-1.4708	-2.2375	138.855	284.857	209.765	68.980	149.159	274.305	378.712	344.925	345.948	344.079	366.728	381.627	399.703	350.554	137.529	426.508	0.00086221	0.00081264	0.00011869	919.17	9.5381e-06	6.5399e-06	1344.3	303.88	8.4007e-06	1.6905e-05	560.62	254.68	137.25	52.304	8.0856e-06	111.61	0.0013102	0.0013493	0.00036661	837.6	1.4181e-05	1.4754e-05	1210.5	275.72	1.4482e-05	1.4535e-05	508.94	230.3	125.51	47.927	1.4501e-05	100.61	176.165	215.922	123.722	79.098	172.459	192.979	78.696	84.908	226.431	224.596	83.336	87.093	88.366	92.814	125.938	91.219	-8191	255	
28717.473	1	1	0	0	0.18328	0.27042	0.029782	0.33127	0.075385	0.20544	0.25901	0.2659	0.1853	0.16305	0.29962	0.36289	0.25296	0.11475	0.021932	0.30648	-1.5229	-1.3729	-2.15	-2.0292	-1.5958	-2.1	-1.5146	-1.7979	-1.75	-1.2208	-2.0417	-1.8917	-1.475	-2.325	-1.2396	-2.1542	75.083	241.454	186.644	390.912	81.520	274.922	397.410	377.194	366.151	159.280	108.634	382.027	75.383	401.552	164.871	373.302	0.00093105	0.00091027	0.00019609	911.02	9.9708e-06	8.959e-06	1337.9	304.33	1.0177e-05	1.6815e-05	561.46	255.73	136.27	52.034	1.081e-05	111.58	0.001296	0.0013123	0.00036525	836.23	1.4106e-05	1.4344e-05	1207.9	276.19	1.4492e-05	1.4366e-05	507.29	230.23	125.56	47.67	1.4305e-05	100.27	165.500	206.970	233.105	79.235	322.483	259.180	79.209	84.734	275.689	240.568	83.110	87.515	88.598	92.993	206.018	91.146	-8191	255	
28717.568	1	1	0	0	0.16132	0.097016	0.13228	0.34355	0.12292	0.27938	0.17476	0.35058	0.12572	0.22821	0.18053	0.32195	0.11084	0.27053	0.062223	0.19771	-1.7479	-1.5271	-2.1479	-1.8729	-1.5208	-2.2229	-1.6063	-1.9312	-2.2	-1.3958	-2.0375	-1.8958	-1.3708	-2.2333	-1.4625	-1.8375	372.834	376.616	237.693	424.259	138.879	287.229	90.386	324.260	291.676	90.183	363.352	415.939	387.937	389.153	213.149	364.451	0.00084565	0.0013486	0.00027201	917.21	5.2701e-06	7.9528e-06	1344.3	304.3	6.1728e-06	8.326e-06	556.81	254.26	135.85	51.888	1.107e-05	110.87	0.0012773	0.0013247	0.00035959	838.56	1.4164e-05	1.4134e-05	1208.2	275.44	1.3975e-05	1.4446e-05	505.26	229.91	124.93	47.347	1.4469e-05	99.77	172.227	126.560	108.936	79.463	194.218	262.097	78.588	84.484	205.599	181.961	83.766	87.126	88.764	92.745	149.496	91.124	-8191	255	
28717.689	1	1	0	0	0.047824	0.12883	0.027591	0.2138	0.11471	0.13343	0.27113	0.089839	0.085632	0.1629	0.33066	0.30731	0.11898	0.15953	0.25826	0.24578	-1.6667	-1.4062	-1.7396	-2.1375	-1.4	-2.0938	-1.9438	-1.3521	-2.0896	-1.2938	-1.9854	-1.9896	-1.3125	-2.3146	-1.6833	-1.7208	195.268	189.115	69.993	351.066	169.668	404.206	362.859	129.313	283.776	102.674	310.350	413.475	113.230	396.373	149.371	357.323	0.00080105	0.001135	0.00020692	917.04	1.0316e-05	1.1977e-05	1350.6	304.13	9.527e-06	9.7329e-06	561.54	254.84	136.03	52.332	1.0665e-05	112.21	0.0012778	0.0013179	0.00036144	839.46	1.41e-05	1.4148e-05	1210.7	275.49	1.4428e-05	1.4551e-05	507.8	229.98	124.75	47.647	1.4763e-05	100.6	173.185	143.319	80.385	79.145	242.172	199.219	79.020	84.741	262.622	286.097	83.318	87.189	88.566	92.648	129.425	91.181	-8191	255	
28717.785	1	1	0	0	0.048491	0.15921	0.08367	0.31973	0.25814	0.13685	0.26639	0.2119	0.18338	0.19528	0.13504	0.29443	0.21279	0.2419	0.14472	0.42185	-1.7188	-1.3646	-1.9875	-2.0729	-1.2229	-2.1667	-1.9375	-1.625	-2.3042	-1.6042	-1.8646	-2.3563	-1.4125	-2.2375	-1.7812	-1.5792	247.319	346.023	100.557	383.290	199.803	151.274	81.290	352.055	92.235	224.130	426.210	403.254	333.683	403.043	80.464	309.506	0.00082787	0.0004622	0.00021219	921.39	9.2278e-06	9.1551e-06	1355	304.67	4.9512e-06	1.8501e-05	564.31	255.02	137.17	52.236	8.3122e-06	111.95	0.0012924	0.0013527	0.00035964	840.46	1.4372e-05	1.4369e-05	1218.5	277.71	1.4179e-05	1.4859e-05	510.22	231.22	125.54	47.853	1.4949e-05	100.69	173.239	99.412	199.527	79.110	247.802	188.540	78.486	84.587	151.205	212.174	83.268	87.087	88.303	93.141	189.667	91.189	-8191	255	
28717.881	1	1	0	0	0.34739	0.1656	0.24553	0.085382	0.16657	0.2985	0.05023	0.072845	0.16209	0.22015	0.44703	0.19968	0.15445	0.14457	0.20161	0.15142	-1.9146	-1.4896	-1.6708	-2.2958	-1.375	-2.0708	-2.0687	-1.6167	-2.2729	-1.5562	-1.8229	-2.4208	-1.3354	-1.9333	-1.85	-1.3854	301.510	211.834	114.652	358.479	266.023	222.260	331.828	379.408	184.845	114.148	409.749	385.057	358.325	395.399	266.254	86.850	0.00075866	0.0014489	0.00038546	919.2	6.4282e-06	4.1325e-06	1353.7	305.05	3.1437e-06	8.5212e-06	558.65	253.98	137.31	52.149	2.5791e-06	110.67	0.001307	0.0013773	0.00036923	840.26	1.4526e-05	1.4516e-05	1211.2	276.42	1.4459e-05	1.4804e-05	505.4	229.14	125.26	47.631	1.4772e-05	99.683	181.817	104.768	140.084	79.324	262.891	179.667	78.745	84.639	358.971	414.522	83.456	87.336	88.972	92.964	155.727	91.137	-8191	255	
28717.977	1	1	0	0	0.15155	0.28092	0.14658	0.2363	0.048853	0.21721	0.21271	0.25347	0.14842	0.11032	0.34937	0.31102	0.1661	0.18707	0.15977	0.038906	-1.9208	-1.6167	-1.5354	-2.2729	-1.4792	-1.9062	-2.1708	-1.3	-2.025	-1.8896	-1.7354	-2.4458	-1.5187	-1.8563	-2.025	-1.5208	258.771	216.509	277.086	403.923	134.802	182.803	384.245	383.158	96.023	130.394	75.260	289.998	263.590	410.559	136.022	407.751	0.00073985	0.0017337	0.00033622	918.98	2.6042e-06	2.5544e-05	1342.1	301.15	8.5179e-06	1.1982e-05	558.09	255.03	135.38	51.773	7.301e-06	110.55	0.0012744	0.0013607	0.00036965	837.87	1.4604e-05	1.4549e-05	1207.6	274.91	1.425e-05	1.4784e-05	505.62	229.49	124.27	47.283	1.4631e-05	99.494	173.557	129.525	166.737	79.206	261.933	192.449	78.896	84.791	227.290	284.466	82.953	87.010	88.500	93.197	140.498	91.574	-8191	255	
28718.098	1	1	0	0	0.15349	0.16573	0.137	0.12496	0.23767	0.2312	0.23506	0.16335	0.10605	0.01511	0.30545	0.26404	0.34156	0.099485	0.16637	0.27165	-1.7833	-1.8042	-1.4312	-2.3792	-1.4937	-1.7375	-2.3042	-1.3583	-1.9937	-1.9125	-1.625	-2.4833	-1.6854	-1.9604	-2.1771	-1.5604	322.226	67.702	246.458	378.431	116.051	191.362	332.091	392.411	132.220	339.461	332.676	80.464	415.135	329.222	394.500	373.820	0.00072736	0.00094882	0.00038649	912.33	8.499e-06	7.4354e-06	1336.3	300.3	1.0989e-05	7.6181e-06	559.75	253.96	136.15	51.562	8.3695e-06	111.25	0.0012452	0.0013426	0.00036762	835.27	1.4413e-05	1.4064e-05	1205.2	274.66	1.4143e-05	1.4671e-05	506.76	229.2	124.76	47.313	1.4804e-05	99.847	170.602	198.734	148.802	79.547	194.936	232.434	78.953	84.668	253.971	173.197	83.555	87.467	88.891	93.471	315.293	91.267	-8191	255	
28718.170	1	1	0	0	0.0094442	0.068337	0.23022	0.20236	0.29544	0.070714	0.39294	0.22619	0.33436	0.10224	0.17786	0.206	0.33327	0.17178	0.15301	0.16579	-1.6229	-1.9646	-1.3354	-2.2979	-1.6771	-1.5583	-2.3458	-1.5417	-2.0521	-2.1375	-1.5625	-2.2208	-1.7292	-1.7146	-2.1854	-1.5917	302.032	151.412	288.485	386.763	415.516	250.106	381.317	374.910	147.343	110.697	79.870	407.376	68.930	404.653	223.081	103.674	0.00081326	0.0020087	0.00022868	919.77	3.9738e-06	2.0724e-05	1351.8	302.78	8.4592e-06	5.2154e-06	561.51	256.77	136.43	52.173	9.361e-06	110.68	0.0012686	0.0013563	0.00037682	838.95	1.4727e-05	1.4619e-05	1215.3	275.83	1.4308e-05	1.4812e-05	507.53	230.96	125.03	47.774	1.4796e-05	99.957	163.802	133.783	181.629	79.751	136.701	181.395	79.201	84.557	235.276	252.295	83.601	87.451	88.987	93.372	226.004	91.339	-8191	255	
28718.264	1	1	0	0	0.2408	0.22104	0.15272	0.22635	0.29605	0.074388	0.24585	0.21965	0.081178	0.062672	0.43317	0.21023	0.237	0.17484	0.081666	0.32995	-1.6667	-2.1188	-1.4333	-2.3563	-1.6396	-1.5333	-2.4813	-1.4708	-1.5979	-2.1	-1.5667	-2.2375	-1.8271	-1.425	-2.2208	-1.6354	421.765	139.731	171.504	405.656	175.161	360.893	351.333	337.525	306.409	309.397	359.616	424.785	400.501	412.039	69.477	375.437	0.00083916	5.2677e-05	0.00033428	920.57	1.4685e-06	1.8046e-05	1343	301.21	6.3736e-06	9.2691e-06	556.34	255.78	136.43	51.747	1.2596e-05	110.76	0.0012954	0.0013689	0.00038104	840.8	1.4783e-05	1.4899e-05	1207.1	275	1.4489e-05	1.5007e-05	505.51	229.54	124.45	47.526	1.4409e-05	99.388	171.761	235.571	132.997	79.242	164.577	205.154	79.316	84.874	214.970	214.146	83.265	87.293	88.464	93.156	205.036	91.328	-8191	255	
28718.359	1	1	0	0	0.21032	0.1269	0.093312	0.1965	0.36375	0.16609	0.27432	0.49425	0.14271	0.087104	0.22588	0.26073	0.30124	0.32701	0.15687	0.18015	-1.2417	-2.1917	-1.175	-2.0667	-1.9375	-1.6375	-2.2583	-1.7667	-1.5146	-2.2104	-1.425	-2.1292	-2.1229	-1.3875	-2.0021	-1.8958	274.874	356.748	227.748	360.229	392.250	247.776	368.212	355.222	362.971	305.453	344.395	416.243	362.155	130.543	85.715	401.345	0.00086578	0.00063549	0.00034225	917.99	6.3925e-06	1.3146e-05	1353.7	302.61	4.9885e-06	6.1448e-06	557.52	253.88	134.55	51.381	6.7688e-06	110.36	0.0012763	0.0013284	0.0003722	836.71	1.4305e-05	1.4385e-05	1210.7	274.24	1.4172e-05	1.4593e-05	506.05	228.66	123.65	46.983	1.4266e-05	98.956	174.294	360.481	134.787	79.685	206.831	119.319	79.402	84.435	199.020	212.311	83.513	87.714	89.158	93.103	211.919	91.357	-8191	255	
28718.480	1	1	0	0	0.21598	0.12785	0.15831	0.072433	0.2612	0.32545	0.22746	0.17596	0.24697	0.24454	0.046784	0.46303	0.18064	0.20204	0.094804	0.14752	-1.1542	-2.1521	-1.3625	-1.7417	-2.0062	-1.3	-2.3688	-1.7021	-1.6646	-2.2667	-1.6458	-1.9688	-2.1688	-1.425	-1.9729	-1.9958	84.472	273.132	247.767	418.816	213.998	423.098	370.508	379.896	417.040	276.129	395.529	367.729	355.690	420.000	249.431	419.705	0.00090472	0.00031176	0.00037351	915.25	4.0064e-06	1.7633e-05	1342.7	297.88	1.0512e-05	1.3639e-05	556.19	252.38	133.16	51.025	2.1206e-06	110.3	0.0012903	0.0013352	0.00037096	836.06	1.4502e-05	1.4593e-05	1208	271.28	1.4555e-05	1.4916e-05	503.05	227.46	122.6	46.91	1.4733e-05	99.035	171.835	177.079	165.030	79.588	334.462	236.183	79.333	84.660	284.063	178.288	83.690	87.737	88.976	93.460	343.214	91.454	-8191	255	
28718.576	1	1	0	0	0.066733	0.059533	0.11395	0.20292	0.083838	0.21164	0.39761	0.21204	0.077804	0.2364	0.069098	0.21388	0.15166	0.35413	0.066237	0.15084	-1.1229	-2.2229	-1.675	-1.8146	-1.9708	-1.4521	-2.3354	-2.0521	-1.4396	-2.2875	-1.7729	-1.9542	-2.2896	-1.3854	-1.9479	-2.1667	418.101	333.585	243.050	352.226	165.674	399.442	366.399	332.174	315.314	219.562	78.028	399.753	366.414	77.716	327.711	365.612	0.0006595	0.00091272	0.00024024	911.34	9.6427e-06	1.2717e-05	1340.4	299.41	1.9881e-06	7.8857e-06	556.41	251.89	134.97	51.465	1.6005e-05	110.63	0.0013519	0.0013926	0.0003906	836.41	1.5376e-05	1.5388e-05	1206.6	272.27	1.5168e-05	1.5305e-05	504.02	227.44	123.36	47.204	1.5327e-05	99.427	176.703	415.547	114.949	79.513	263.199	171.790	79.387	84.878	72.316	244.702	83.441	87.676	89.034	93.350	213.902	91.727	-8191	255	
28718.674	1	1	0	0	0.15886	0.10844	0.46338	0.029068	0.16381	0.15691	0.30978	0.016835	0.043461	0.071255	0.28702	0.17356	0.36524	0.28584	0.20996	0.44268	-0.80833	-2.3125	-1.6021	-1.7042	-2.1646	-1.3979	-1.9583	-2.0062	-1.2479	-2.2604	-1.7687	-1.6437	-2.3063	-1.6542	-1.6729	-2.3354	399.927	282.850	407.080	337.373	77.247	102.332	399.863	383.901	374.701	394.366	374.038	327.086	399.823	417.840	355.221	380.457	0.00086012	9.3458e-05	0.00035422	910.33	3.725e-06	5.642e-07	1347.5	298.62	7.8754e-06	5.9696e-06	545.28	249.32	132.94	51.272	1.5453e-05	109.36	0.0013796	0.0014005	0.00040002	834.67	1.5193e-05	1.5617e-05	1211	271.51	1.5301e-05	1.5333e-05	499.95	225.43	122.45	46.89	1.514e-05	98.473	172.981	223.926	165.794	79.731	336.775	299.789	79.351	84.631	229.560	355.598	83.419	87.138	88.423	92.973	221.276	91.590	-8191	255	
28718.770	1	1	0	0	0.025868	0.034966	0.27054	0.15549	0.17779	0.21107	0.19196	0.31297	0.34747	0.26313	0.13887	0.08416	0.20109	0.18214	0.37294	0.35786	-0.94375	-2.0729	-1.7396	-1.6313	-2.0271	-1.2771	-1.8667	-2.325	-1.2167	-1.9417	-1.9188	-1.2646	-2.2	-1.5688	-1.5438	-2.1792	84.321	245.201	421.532	300.261	413.318	114.837	343.742	371.376	357.349	105.343	153.992	73.042	417.432	146.575	350.468	395.083	0.00088525	0.00070644	0.00052678	911.68	2.9878e-06	1.0597e-05	1349.1	293.19	7.3521e-06	1.1467e-05	550.01	249.58	132.29	50.569	1.1144e-05	108.96	0.0013573	0.001403	0.00039695	833.51	1.5135e-05	1.5589e-05	1204.2	268.76	1.5332e-05	1.5124e-05	498.18	224.64	121.32	46.404	1.5041e-05	98.001	171.156	90.953	205.303	79.032	107.757	273.741	78.957	84.412	264.305	204.367	83.228	87.241	88.490	92.979	238.015	91.470	-8191	255	
28718.865	1	1	0	0	0.072862	0.20713	0.095902	0.35304	0.1869	0.11782	0.41294	0.11794	0.13248	0.13705	0.24657	0.040968	0.26299	0.081122	0.046167	0.12932	-1.0833	-2.0271	-1.7396	-1.3604	-2.1042	-1.5562	-1.7771	-2.2854	-1.3104	-2.0396	-2.1417	-1.3604	-2.2833	-1.7896	-1.4104	-2.3563	310.141	359.835	169.189	364.832	214.017	336.684	413.686	313.049	252.430	67.088	97.015	377.094	270.241	275.375	388.506	331.585	0.00090082	0.0011974	0.00027635	901.57	4.377e-06	1.4992e-05	1331.8	294.81	7.7063e-06	1.2808e-05	548.26	246.97	131.17	50.204	9.029e-06	107.93	0.0013435	0.0013745	0.00038619	829.35	1.4758e-05	1.517e-05	1198.2	268.46	1.5083e-05	1.5073e-05	497.9	222.87	120.47	46.066	1.5122e-05	97.707	171.259	144.169	164.670	79.024	98.583	249.811	79.162	84.667	176.345	206.103	83.148	87.318	88.368	93.399	239.033	90.959	-8191	255	
28718.963	1	1	0	0	0.27032	0.10488	0.15835	0.48291	0.19007	0.14605	0.31744	0.15681	0.48189	0.25857	0.079872	0.16238	0.17048	0.17542	0.1884	0.30341	-1.0458	-1.8917	-1.9729	-1.5438	-1.9792	-1.6708	-1.6771	-2.2229	-1.45	-1.7625	-2.1771	-1.4875	-2.1521	-1.7604	-1.4229	-2.3354	257.470	308.828	83.559	413.196	382.744	300.689	344.522	393.160	77.173	176.774	120.399	384.044	328.102	93.897	410.059	364.136	0.00085087	0.0014917	0.00013667	904.75	2.3597e-06	1.0804e-05	1335.5	295.22	7.9916e-06	1.6855e-05	546.1	248.09	130.88	50.314	3.5251e-06	108.53	0.0013695	0.0014076	0.00039717	828.66	1.5051e-05	1.5496e-05	1201.1	269.13	1.5344e-05	1.5367e-05	497.73	223.66	120.66	46.258	1.5682e-05	97.89	173.520	105.131	84.685	79.740	249.155	209.467	79.412	84.624	249.562	274.055	83.335	87.554	88.795	93.008	85.840	91.192	-8191	255	
28719.059	1	1	0	0	0.037887	0.074652	0.096913	0.042607	0.15832	0.17864	0.42165	0.2718	0.15691	0.15235	0.04428	0.1703	0.17786	0.18283	0.20471	0.096845	-1.0208	-1.5333	-2.0667	-1.4125	-2.1312	-1.9375	-1.5938	-2.3625	-1.6042	-1.4479	-2.1271	-1.4104	-1.9937	-2.0187	-1.4125	-2.3688	96.312	377.580	84.102	211.075	295.871	185.137	361.825	347.299	119.165	395.471	224.766	356.405	279.008	317.324	277.694	340.597	0.00082334	0.0019034	6.9232e-05	905.69	5.7716e-06	8.6301e-06	1332.7	291.92	2.571e-06	1.1601e-05	543.68	245.75	130.19	50.029	1.8677e-05	108.07	0.0013804	0.0013974	0.00039336	829.02	1.4957e-05	1.528e-05	1198.4	266.41	1.5328e-05	1.4971e-05	494.34	222.21	119.78	46.05	1.5033e-05	96.944	175.568	206.131	169.768	79.207	207.950	117.416	79.094	84.964	126.820	220.808	83.352	87.459	88.999	93.058	194.407	91.339	-8191	255	
28719.178	1	1	0	0	0.047874	0.020581	0.32485	0.38203	0.14195	0.089884	0.20621	0.20216	0.40814	0.16998	0.21358	0.22495	0.37946	0.20126	0.19487	0.29722	-1.0458	-1.4375	-2.3375	-1.275	-2.0208	-2.0812	-1.5146	-2.1583	-1.8854	-1.5479	-2.2479	-1.5063	-2.1271	-2.125	-1.3792	-2.3521	89.977	376.058	399.908	386.915	101.388	132.043	337.784	389.573	134.783	202.493	389.638	425.668	396.083	93.405	291.297	382.125	0.00089584	0.0016172	0.00028418	902.64	1.0197e-05	1.9368e-05	1331.6	289.93	9.344e-06	8.4955e-06	546.04	245.47	130.42	49.879	6.3836e-06	107.86	0.0013475	0.0013535	0.00037626	824.22	1.4422e-05	1.5036e-05	1197.2	264.99	1.4813e-05	1.4638e-05	494.84	222.11	119.89	45.894	1.4562e-05	96.908	174.362	189.937	132.890	79.244	222.166	223.729	79.234	84.902	306.676	176.623	83.807	87.469	89.118	93.177	234.454	91.525	-8191	255	
28719.273	1	1	0	0	0.078716	0.25384	0.10107	0.3695	0.038145	0.10362	0.30812	0.26775	0.3201	0.16038	0.0811	0.20271	0.32221	0.11862	0.16773	0.4509	-1.5333	-1.35	-2.1813	-1.5333	-1.7208	-2.4062	-1.4	-1.9375	-1.9	-1.3875	-2.1917	-1.55	-1.8167	-2.1958	-1.4042	-2.2833	229.919	297.973	212.215	88.311	295.580	120.912	296.660	377.586	235.360	80.629	91.238	71.020	114.158	206.247	112.097	369.292	0.0007842	0.00093209	0.00036224	896.15	3.1446e-06	1.4011e-05	1326.7	291.21	7.6934e-06	9.2337e-06	543.3	246.6	129.36	49.652	1.1657e-05	107.71	0.0013105	0.0013425	0.0003742	820.95	1.4677e-05	1.4804e-05	1193.9	264.93	1.4894e-05	1.4884e-05	493.44	222.41	119.22	45.631	1.4795e-05	96.999	176.771	173.618	194.710	79.417	321.505	205.655	79.231	84.761	114.165	197.130	83.814	87.585	88.702	92.782	278.318	91.447	-8191	255	
28719.369	1	1	0	0	0.25084	0.072756	0.25147	0.19413	0.43456	0.18527	0.037691	0.32935	0.048326	0.37775	0.26953	0.46201	0.12402	0.066929	0.37922	0.26146	-1.5229	-1.4729	-2.2083	-1.6688	-1.4583	-2.2146	-1.3833	-1.8937	-2.1479	-1.4125	-2	-1.6688	-1.6354	-2.3167	-1.2146	-1.925	144.978	338.332	114.987	83.562	184.694	229.116	87.986	349.747	312.667	390.697	169.939	377.065	400.711	310.898	329.930	398.084	0.00075362	0.00043667	0.00025197	900.11	7.7979e-06	7.4491e-07	1320.7	292.07	5.9681e-06	8.7573e-06	545.32	247.64	130.61	50.373	1.9226e-05	108.16	0.001318	0.0013422	0.00037486	824.26	1.4619e-05	1.4959e-05	1195.2	265.76	1.4899e-05	1.4866e-05	494.53	223.62	120.01	45.939	1.4579e-05	97.546	166.929	280.701	112.933	79.352	203.608	357.242	79.185	84.827	243.037	179.752	83.289	87.563	89.051	93.267	194.066	91.307	-8191	255	
28719.465	1	1	0	0	0.2277	0.13265	0.12922	0.11706	0.099675	0.24584	0.20581	0.25441	0.10151	0.07669	0.11382	0.2043	0.14435	0.18381	0.2209	0.061246	-1.5833	-1.3312	-2.1146	-1.675	-1.4208	-2.2604	-1.8	-1.8521	-1.9688	-1.3042	-2.2646	-1.9	-1.5708	-2.2458	-1.2229	-1.8	289.867	402.969	98.669	390.023	137.763	268.800	334.456	266.784	390.386	373.478	111.194	255.068	98.854	68.764	414.544	415.018	0.00093807	0.0013685	0.00017261	894.66	1.5165e-05	1.3277e-05	1328	290.37	7.0031e-06	5.216e-06	545.43	245.94	130.7	49.842	3.8412e-06	107.6	0.0012936	0.0013228	0.00036216	821.96	1.4556e-05	1.465e-05	1193.7	265.41	1.4447e-05	1.4609e-05	494.61	222.32	119.67	45.681	1.4505e-05	96.872	172.278	116.452	222.521	78.632	247.252	256.675	78.566	84.595	200.421	303.648	83.089	86.539	87.992	92.195	362.673	90.758	-8191	255	
28719.561	1	1	0	0	0.14455	0.25864	0.074712	0.11743	0.03455	0.073652	0.19156	0.41125	0.14809	0.21583	0.23483	0.291	0.10861	0.34199	0.14163	0.34963	-1.6458	-1.1396	-2.0083	-1.8792	-1.1708	-2.1312	-1.5063	-1.7521	-2.0458	-1.1146	-2.0292	-2.0563	-1.4083	-2.1458	-1.4167	-1.7083	218.964	359.072	386.159	321.021	311.346	369.636	383.636	416.371	111.143	172.919	406.823	367.398	385.727	356.913	192.418	366.917	0.00077501	0.0010687	0.00032637	898.03	1.1989e-05	9.8258e-06	1329.3	293.26	1.8103e-06	1.1376e-05	539.08	247.06	130.08	49.645	1.1083e-05	107.76	0.0012921	0.0013251	0.00036061	822.42	1.4326e-05	1.435e-05	1193.2	266.26	1.4687e-05	1.4737e-05	492.48	222.75	119.54	45.487	1.4755e-05	96.939	178.409	111.962	176.306	78.649	224.938	242.519	78.440	83.955	409.501	222.029	83.055	86.823	88.256	92.279	214.443	90.455	-8191	255	
28719.656	1	1	0	0	0.15698	0.22585	0.098122	0.30755	0.18895	0.048069	0.042343	0.08987	0.23557	0.13985	0.1481	0.17087	0.19467	0.28194	0.17072	0.19498	-1.9188	-1.2375	-1.7563	-2.1479	-1.2	-2.25	-1.7896	-1.7188	-2.1333	-1.3833	-1.8438	-2.1063	-1.5354	-2.0896	-1.6875	-1.5292	261.632	366.655	223.639	412.187	171.513	210.336	275.878	212.925	410.977	298.149	203.776	415.284	361.675	124.048	219.925	396.380	0.00065086	0.00070762	9.9534e-05	893.89	8.8678e-06	1.3341e-05	1335.5	291.32	2.606e-06	1.3499e-05	550	246.94	131.12	49.936	5.0837e-06	107.88	0.0012786	0.0013171	0.00036228	820.3	1.4366e-05	1.4477e-05	1197	266.25	1.4416e-05	1.4672e-05	497.11	223.2	120.2	45.78	1.4975e-05	97.308	180.750	170.021	214.045	78.765	238.850	196.495	78.610	84.260	279.668	224.677	82.855	86.576	88.064	92.629	192.946	90.917	-8191	255	
28719.777	1	1	0	0	0.1493	0.057673	0.0878	0.16632	0.16571	0.15204	0.42529	0.097254	0.025869	0.26291	0.32373	0.37165	0.09256	0.023372	0.16312	0.32377	-1.6812	-1.5312	-1.7521	-2.3375	-1.3042	-2.0729	-1.9813	-1.5271	-2.1688	-1.475	-1.6417	-2.2812	-1.3958	-1.8937	-1.8667	-1.6021	107.856	219.626	250.851	92.546	355.016	102.243	353.669	420.381	394.726	369.433	382.085	369.787	244.978	84.287	162.680	309.685	0.00070211	0.0007194	0.00012097	904.33	8.5251e-06	1.3846e-05	1339.7	294.68	4.3673e-06	7.7759e-06	547.04	250.03	133.06	50.727	1.311e-05	109.31	0.0012954	0.0013659	0.00037259	827.39	1.4628e-05	1.4496e-05	1204	268.95	1.4489e-05	1.4996e-05	498.24	225.81	121.56	46.264	1.5177e-05	98.352	164.439	194.549	185.571	78.775	218.591	191.479	78.657	83.766	244.785	355.050	83.050	86.860	87.774	92.452	223.212	90.595	-8191	255	
28719.873	1	1	0	0	0.1239	0.30379	0.18224	0.10989	0.20613	0.17029	0.24682	0.12344	0.17483	0.096127	0.10077	0.15684	0.21004	0.1578	0.10827	0.38474	-1.7917	-1.475	-1.5771	-2.3604	-1.1792	-1.9312	-1.9813	-1.4813	-2.1146	-1.6583	-1.7125	-2.1979	-1.4958	-1.825	-1.8042	-1.5021	278.857	355.475	175.954	338.237	216.326	166.270	391.984	210.314	329.693	90.759	120.649	107.792	70.593	174.236	363.883	326.752	0.00078509	0.00036264	9.4241e-05	911.42	1.1229e-05	1.8219e-05	1338.1	296.39	1.0575e-05	1.0835e-05	554.56	250.86	131.91	50.75	1.8787e-05	108.97	0.0012898	0.0013679	0.00036803	829.88	1.4786e-05	1.4528e-05	1206.8	270.24	1.433e-05	1.48e-05	501.36	226.19	121.57	46.329	1.4822e-05	97.901	165.056	162.213	77.445	78.848	303.290	191.395	78.282	84.333	183.022	218.119	82.850	86.814	87.804	92.653	167.812	90.869	-8191	255	
28719.971	1	1	0	0	0.018946	0.098697	0.37423	0.087372	0.16272	0.16859	0.015694	0.27654	0.17722	0.11227	0.14507	0.19238	0.17825	0.19653	0.14087	0.13473	-1.8125	-1.3958	-1.4896	-2.3292	-1.2417	-1.7042	-2.3708	-1.6646	-2.1646	-1.75	-1.5938	-2.3812	-1.7229	-1.7604	-2.1437	-1.4562	132.971	361.665	373.386	370.901	325.967	133.683	154.831	161.250	378.770	151.925	400.934	326.940	376.451	398.370	422.477	343.946	0.00085391	0.0011738	0.00039068	906.4	3.0154e-06	8.8043e-06	1343.9	291.88	5.5999e-06	1.2616e-05	549.9	248.84	132.53	50.295	7.5774e-06	107.63	0.0012977	0.0013819	0.00037616	829.52	1.4546e-05	1.4786e-05	1203.2	268.35	1.4256e-05	1.5207e-05	499.87	224.2	121.64	46.203	1.4973e-05	97.298	173.065	95.985	202.901	78.930	365.435	192.206	78.277	84.132	195.179	243.021	83.077	87.145	88.205	92.483	212.683	90.751	-8191	255	
28720.043	1	1	0	0	0.25361	0.065654	0.17071	0.24254	0.14224	0.27221	0.28863	0.18076	0.023001	0.048562	0.3431	0.15731	0.12075	0.21717	0.091665	0.38468	-1.6271	-1.9354	-1.2354	-2.2188	-1.5333	-1.5771	-2.175	-1.3333	-1.825	-2.0312	-1.5583	-2.2417	-1.5042	-1.5375	-2.2	-1.4708	363.543	395.488	125.477	92.905	293.324	368.685	82.661	98.556	415.335	125.353	391.784	376.917	203.425	92.741	344.575	369.150	0.00081048	0.0010534	0.00026744	899.84	7.8178e-06	1.4871e-05	1326.1	295.14	9.5424e-06	8.8743e-06	546.68	248.72	131.49	50.151	1.2754e-05	107.82	0.001293	0.0013846	0.00038128	824.74	1.4723e-05	1.4774e-05	1196.9	268.43	1.4604e-05	1.5128e-05	497.13	224.51	121.04	46.018	1.4957e-05	97.361	173.522	177.093	152.842	78.745	238.299	327.029	78.444	84.084	278.489	226.921	83.054	86.703	88.180	92.524	248.600	90.417	-8191	255	
28720.160	1	1	0	0	0.11466	0.035682	0.05163	0.07145	0.086356	0.24404	0.44203	0.1848	0.35115	0.24757	0.05878	0.15266	0.20221	0.082782	0.1249	0.41385	-1.4979	-1.7437	-1.4042	-2.0625	-1.5375	-1.6417	-2.1437	-1.5396	-1.8292	-1.9417	-1.4521	-2.3229	-1.8542	-1.5	-2.0958	-1.6125	265.433	406.667	181.904	288.585	183.197	117.217	69.404	402.174	386.442	273.008	248.501	363.773	386.619	349.546	107.674	376.538	0.00083304	0.0018557	0.0003105	897.47	1.5863e-05	1.5728e-05	1334.1	295.65	7.7224e-06	1.4772e-05	550.31	251.01	132.22	50.513	1.5658e-05	108.92	0.0012872	0.0013815	0.00037643	822.57	1.4703e-05	1.4794e-05	1199.8	269.06	1.4408e-05	1.5033e-05	500.7	226	121.65	46.305	1.4627e-05	98.211	167.204	145.474	210.870	78.847	227.935	229.321	78.666	84.087	223.711	278.180	82.814	86.792	88.146	92.274	211.351	90.755	-8191	255	
28720.258	1	1	0	0	0.15532	0.18922	0.064888	0.23108	0.074731	0.062821	0.44154	0.11554	0.15993	0.24495	0.088361	0.24572	0.092414	0.10626	0.11005	0.23355	-1.2771	-2.0604	-1.0417	-2.0896	-1.8333	-1.2167	-2.3625	-1.6208	-1.7625	-2.1375	-1.2563	-1.975	-1.9104	-1.4167	-2.1979	-1.7458	188.068	332.634	335.048	346.757	296.316	78.144	375.463	242.070	218.751	348.591	84.545	420.969	91.375	130.868	236.249	366.961	0.00076989	0.00088868	0.00011609	906.5	1.8447e-06	8.4817e-06	1334.4	296.39	1.5879e-05	1.6062e-05	550.75	251.5	132.75	50.595	1.8427e-05	108.5	0.0013019	0.0013846	0.00037606	830.79	1.5015e-05	1.499e-05	1203.9	270.92	1.4617e-05	1.4977e-05	501.42	226.72	122.11	46.652	1.4824e-05	98.177	158.828	128.307	281.367	78.860	249.444	182.791	78.505	84.263	253.976	245.461	82.748	86.706	88.259	92.629	182.615	90.856	-8191	255	
28720.354	1	1	0	0	0.21851	0.11682	0.10395	0.045139	0.069042	0.19443	0.21594	0.38939	0.049198	0.063744	0.22918	0.37356	0.18598	0.29442	0.26432	0.37882	-1.0708	-2.1396	-1.2604	-2.025	-1.8104	-1.275	-2.2896	-1.7104	-1.6313	-2.1562	-1.6042	-1.95	-2.0771	-1.4	-2.1083	-1.9333	354.911	365.964	226.964	280.639	137.219	112.242	342.471	343.506	158.078	373.383	198.354	409.473	107.934	401.046	166.921	379.301	0.00077663	0.00089221	0.00015003	899.2	4.8114e-06	2.7194e-06	1331.7	293.35	1.139e-06	5.1112e-06	547.09	248.51	132.28	50.367	1.0287e-06	107.97	0.001311	0.0014002	0.00038631	826.53	1.5334e-05	1.5104e-05	1199.1	269.03	1.5102e-05	1.4968e-05	497.97	225.1	121.36	46.249	1.4605e-05	97.563	170.304	132.218	193.371	79.182	249.703	194.093	78.336	84.053	319.021	200.289	83.127	86.681	88.169	92.602	414.450	90.437	-8191	255	
28720.449	1	1	0	0	0.14095	0.072303	0.31303	0.22634	0.066509	0.19436	0.21259	0.33545	0.27202	0.14336	0.40408	0.21365	0.10705	0.15912	0.17324	0.28375	-1.1063	-2.1458	-1.2646	-1.7208	-1.9583	-1.1792	-2.1292	-1.7271	-1.4021	-2.2042	-1.5583	-1.8479	-2.2958	-1.2437	-1.9771	-1.8125	72.586	121.661	247.308	358.360	136.750	211.963	295.411	365.296	378.728	213.316	416.296	410.167	364.984	312.737	110.742	74.469	0.00088687	0.00025587	0.00029289	896.57	1.0371e-05	5.7101e-06	1332.6	292.41	1.0338e-05	6.6203e-06	550.29	247.51	131.84	50.268	3.054e-06	107.84	0.0013102	0.001364	0.00038049	822.96	1.4661e-05	1.4772e-05	1195.6	266.99	1.4537e-05	1.4811e-05	498.12	225.22	121.18	45.941	1.441e-05	97.319	172.466	130.288	176.021	79.023	399.965	291.375	78.350	84.138	189.734	167.315	83.014	87.126	88.262	92.294	346.975	90.172	-8191	255	
28720.570	1	1	0	0	0.26708	0.15187	0.23718	0.10138	0.3667	0.1043	0.17296	0.27258	0.10542	0.25715	0.2558	0.19796	0.16241	0.35905	0.13658	0.21748	-1.0562	-2.2125	-1.5271	-1.7354	-2.1792	-1.3479	-2.1167	-2.1708	-1.4312	-2.225	-1.725	-1.6146	-2.3875	-1.6083	-1.8312	-2.05	403.730	146.955	309.239	268.641	285.634	242.240	409.806	87.084	195.366	255.958	361.556	392.963	414.191	407.741	251.346	347.007	0.00068402	0.0014204	0.00024607	896.39	2.4419e-06	8.7914e-06	1320.1	292.61	3.3253e-06	8.683e-06	549.89	251.19	132.92	50.433	6.5392e-06	108.9	0.0013085	0.0013658	0.00037772	821.06	1.4775e-05	1.4744e-05	1194.5	267.72	1.4676e-05	1.442e-05	499.36	226.52	122.08	46.378	1.4502e-05	98.551	159.775	125.819	233.781	79.071	283.525	215.850	78.833	84.257	145.616	159.456	82.814	86.858	88.330	92.377	256.947	90.725	-8191	255	
28720.643	1	1	0	0	0.1221	0.21018	0.055875	0.12558	0.27848	0.18885	0.26682	0.17789	0.38115	0.17545	0.21528	0.18501	0.032723	0.29825	0.16384	0.51552	-0.92083	-2.1604	-1.6354	-1.6333	-2.0646	-1.275	-2.05	-2.0521	-1.1896	-2.1083	-1.6688	-1.4417	-2.2458	-1.6333	-1.5875	-2.1625	200.718	286.566	420.000	307.562	373.898	204.489	402.652	328.606	196.418	295.540	351.113	187.853	86.942	123.149	261.081	374.429	0.00068872	0.00042021	9.8807e-05	906.65	1.9101e-05	8.3773e-06	1336.9	298.23	6.7089e-06	3.8388e-06	554.77	253.35	134.13	51.064	7.4611e-06	109.41	0.0013199	0.0013484	0.00038181	828.21	1.47e-05	1.4955e-05	1205.1	271.62	1.457e-05	1.4386e-05	504.15	228.1	122.68	46.725	1.4625e-05	98.819	171.697	226.371	167.330	78.935	225.645	286.548	78.954	84.045	215.533	154.816	82.982	86.881	87.851	92.291	194.601	90.690	-8191	255	
28720.738	1	1	0	0	0.27236	0.046867	0.042255	0.1657	0.13941	0.17591	0.19975	0.072882	0.14943	0.071203	0.38778	0.07544	0.26823	0.18388	0.13097	0.23225	-0.87708	-1.9208	-1.6042	-1.3937	-2.3271	-1.55	-1.7333	-2.2375	-1.2458	-1.8208	-2.1792	-1.4312	-2.1292	-1.6479	-1.6208	-2.3771	284.084	172.583	128.487	410.103	390.152	194.488	368.546	92.994	225.571	202.926	80.865	273.752	379.053	66.511	84.807	357.217	0.00079523	0.00029537	0.00018405	902.24	7.7996e-06	9.4157e-06	1336.5	295.54	2.0932e-06	6.6596e-06	554.06	251.38	132.93	50.575	1.4421e-06	108.58	0.0012997	0.0013119	0.00037491	825.12	1.4333e-05	1.4739e-05	1201.3	270.24	1.4506e-05	1.4566e-05	502.89	227.28	122.46	46.433	1.4695e-05	98.263	166.944	171.127	135.776	79.296	245.660	166.819	78.662	84.276	205.096	228.180	83.159	87.115	88.211	92.462	367.199	90.390	-8191	255	
28720.857	1	1	0	0	0.29752	0.10484	0.11021	0.1584	0.25629	0.11838	0.25299	0.19697	0.36975	0.33111	0.13268	0.24823	0.18178	0.4386	0.091248	0.21971	-0.92708	-1.775	-1.9604	-1.6729	-2.1042	-1.5958	-1.7646	-2.4792	-1.4979	-1.8312	-1.9729	-1.4292	-2.2292	-1.7917	-1.55	-2.3396	86.902	334.895	279.436	340.599	212.382	348.392	411.905	236.306	165.125	180.339	384.709	390.115	67.074	409.093	118.545	392.835	0.00077876	0.001483	9.2516e-05	901.97	9.4909e-06	5.7313e-06	1337.8	295.71	7.3284e-06	7.1771e-06	550.44	249.79	132.32	50.148	8.4672e-06	108.31	0.0012927	0.0012957	0.00036946	823.44	1.4173e-05	1.489e-05	1198.3	269.08	1.4419e-05	1.4458e-05	500.52	226.02	120.99	46.009	1.4586e-05	97.669	169.242	101.529	174.300	78.724	250.079	198.207	78.650	83.844	262.395	184.058	83.001	86.880	88.201	92.704	343.646	90.912	-8191	255	
28720.953	1	1	0	0	0.12041	0.16844	0.099149	0.28016	0.041742	0.18954	0.33478	0.19037	0.15031	0.24787	0.15884	0.19265	0.11295	0.28966	0.058248	0.19209	-1.0896	-1.7792	-1.9042	-1.625	-2.1479	-1.7062	-1.5229	-2.1854	-1.5146	-1.675	-2.3042	-1.4813	-2.0125	-1.9333	-1.1583	-2.3979	75.270	208.803	139.293	359.592	252.770	83.976	356.401	363.858	71.311	395.065	366.449	414.855	423.246	78.084	78.527	321.672	0.0010067	0.00015514	0.00026899	895.57	1.0494e-05	9.1022e-06	1336.2	293.85	8.5395e-06	1.1015e-05	552.49	251.49	132.13	50.557	1.1815e-05	109.61	0.0013015	0.0013268	0.00037893	821.28	1.4132e-05	1.4903e-05	1199.3	268.31	1.4673e-05	1.45e-05	500.78	226.18	121.5	46.238	1.4515e-05	98.387	170.720	130.207	245.287	78.870	228.378	160.144	78.607	84.312	211.190	247.593	83.071	86.896	88.457	91.724	203.816	90.828	-8191	255	
28721.051	1	1	0	0	0.26652	0.17517	0.067485	0.43056	0.060958	0.12163	0.23827	0.14446	0.2608	0.21102	0.34287	0.25421	0.10902	0.22302	0.22267	0.29245	-1.0854	-1.65	-2.0563	-1.3667	-1.8729	-1.9604	-1.6208	-2.3354	-1.5958	-1.4062	-2.2042	-1.3167	-2.1562	-1.9979	-1.1667	-2.2375	102.518	296.079	160.592	378.025	390.444	262.507	292.964	74.264	412.926	165.891	370.007	383.312	386.608	73.199	225.444	364.369	0.00082732	0.00082879	0.00017097	900.27	4.0278e-06	1.2483e-05	1346.4	296.61	5.2875e-06	1.3266e-05	555.85	252.86	133.41	50.62	7.2917e-06	109.75	0.0013031	0.0013496	0.00037725	824.27	1.4226e-05	1.4924e-05	1207.5	270.82	1.4612e-05	1.4694e-05	505.85	227.88	122.52	46.538	1.453e-05	98.619	171.228	155.447	166.546	78.761	229.737	233.616	78.679	84.343	291.398	221.273	83.140	86.995	88.217	92.598	228.570	90.734	-8191	255	
28721.170	1	1	0	0	0.12012	0.14446	0.10985	0.066367	0.38074	0.099039	0.072572	0.094333	0.064793	0.17502	0.25137	0.18438	0.2221	0.15529	0.29261	0.15301	-1.3292	-1.2583	-2.2521	-1.3208	-1.6667	-2.1396	-1.4854	-2.1771	-1.7354	-1.45	-2.1896	-1.6021	-1.8146	-2.1271	-1.1896	-2.075	371.560	69.551	413.067	341.802	267.907	96.296	415.486	67.758	216.178	205.373	310.771	322.204	177.592	73.165	110.452	326.340	0.00080019	0.0011036	0.00014875	903.47	7.6821e-06	1.8857e-06	1330.7	295.11	7.372e-06	8.5752e-06	552.11	249.6	132.18	50.206	7.446e-06	108.51	0.0013241	0.0013524	0.00037757	824.28	1.4381e-05	1.4749e-05	1201.2	269.51	1.5052e-05	1.4964e-05	500.45	225.56	121.37	46.186	1.485e-05	97.522	168.608	136.170	91.831	79.005	213.678	128.097	79.010	84.096	295.824	240.904	83.033	86.852	88.105	92.625	177.410	90.580	-8191	255	
28721.266	1	1	0	0	0.18386	0.20746	0.10818	0.11951	0.062731	0.13953	0.19038	0.36262	0.098065	0.098595	0.073041	0.31733	0.09356	0.30646	0.25068	0.20785	-1.3	-1.4542	-2.0792	-1.4229	-1.625	-1.9979	-1.4083	-2.1063	-1.55	-1.4208	-2.3688	-1.7979	-1.5396	-2.4021	-1.2333	-2.0812	323.102	83.195	308.335	395.875	73.941	285.954	320.193	381.164	376.983	338.609	180.020	400.775	326.623	389.571	326.047	370.395	0.00080977	0.00038892	0.00024361	894.35	2.0165e-06	8.0173e-06	1324.7	295.14	3.4134e-06	1.416e-05	550.32	249.68	130.9	49.937	4.7695e-06	108.26	0.0013329	0.0013798	0.00037263	820.1	1.4727e-05	1.5103e-05	1192.6	268.11	1.515e-05	1.4966e-05	497.15	224.44	120.23	45.814	1.4796e-05	97.219	167.306	405.840	145.461	79.171	232.055	260.123	78.549	84.488	201.265	201.353	82.676	87.013	88.437	92.745	173.577	91.005	-8191	255	
28721.338	1	1	0	0	0.063885	0.10204	0.074936	0.21193	0.21415	0.1323	0.24441	0.26637	0.071914	0.2011	0.090509	0.14508	0.019637	0.060879	0.23595	0.29387	-1.4083	-1.3021	-2.2396	-1.6521	-1.4771	-2.1625	-1.6583	-1.7458	-2.1562	-1.2437	-2.2271	-1.8833	-1.5458	-2.3854	-1.2208	-1.9896	186.050	125.732	177.671	368.506	104.308	219.870	406.370	293.820	242.958	205.974	290.032	360.421	280.833	87.169	243.486	72.096	0.00086638	0.0010959	0.00019049	890.83	9.7162e-06	8.7965e-06	1321.3	292.84	1.208e-05	1.2651e-05	550.58	248.26	130.89	50.234	7.4372e-06	108.41	0.0013181	0.001343	0.00036856	817.05	1.4622e-05	1.4832e-05	1190.7	266.88	1.5003e-05	1.493e-05	500.49	224.59	120.69	45.923	1.4722e-05	97.585	164.553	135.185	142.258	78.840	171.696	177.954	78.797	84.548	222.722	141.892	82.990	87.040	88.600	92.687	227.323	91.113	-8191	255	
28721.457	1	1	0	0	0.1372	0.55322	0.32662	0.45302	0.18497	0.12569	0.3932	0.24638	0.17173	0.22929	0.43295	0.13833	0.20313	0.35563	0.25204	0.27303	-1.6167	-1.1896	-2.0229	-1.7979	-1.5042	-2.3042	-1.5417	-1.8375	-2.1208	-1.3062	-2.0396	-1.9479	-1.45	-2.1104	-1.4542	-1.8833	192.840	262.620	120.382	397.331	183.830	355.670	76.412	242.714	185.353	199.945	379.349	103.503	418.557	385.150	205.087	366.911	0.00086248	0.00066809	3.4472e-05	895.01	4.2692e-06	4.1731e-06	1337.3	295.24	4.0128e-06	8.184e-06	551.96	249.75	131.86	50.077	1.4036e-05	108.77	0.0013327	0.0013369	0.00036819	823.34	1.4762e-05	1.4712e-05	1202.4	268.64	1.491e-05	1.4768e-05	502.51	226	121.57	46.153	1.5051e-05	98.061	167.665	409.883	255.042	78.670	220.194	199.876	78.376	84.518	212.669	182.862	83.012	86.535	88.268	92.415	205.442	90.917	-8191	255	
28721.555	1	1	0	0	0.21704	0.13869	0.087714	0.094974	0.1455	0.072896	0.15392	0.18725	0.15069	0.18494	0.20892	0.054577	0.17267	0.14391	0.26268	0.23616	-1.8417	-1.4979	-1.9854	-2.0229	-1.2833	-2.0042	-1.5708	-1.5312	-2.2896	-1.3458	-1.9729	-2.375	-1.5	-2.1583	-1.7	-1.5833	265.665	410.713	267.516	286.808	237.704	349.710	346.842	76.504	361.553	374.846	319.885	341.218	394.051	425.257	396.501	357.769	0.00068867	0.00058022	4.696e-05	892.71	3.1093e-06	1.5475e-05	1325.1	292.97	8.9745e-06	1.4004e-05	550.53	248	131.48	49.822	1.0429e-05	106.85	0.0013302	0.0013789	0.00038442	820.99	1.5085e-05	1.4852e-05	1196.2	267.47	1.491e-05	1.4968e-05	498.17	224.28	120.73	45.802	1.5046e-05	96.566	175.692	201.922	335.273	79.102	168.254	249.760	78.612	84.177	208.467	230.512	82.807	86.465	88.437	93.042	175.214	90.826	-8191	255	
28721.650	1	1	0	0	0.10709	0.18637	0.26189	0.22246	0.18443	0.11228	0.25363	0.30824	0.14782	0.12107	0.1021	0.18528	0.12977	0.22678	0.25561	0.21459	-1.8687	-1.2229	-1.7812	-2.2021	-1.4208	-2.1771	-1.9354	-1.4396	-2.1375	-1.3979	-1.8354	-2.2021	-1.3813	-2.1188	-1.9667	-1.6167	408.681	302.875	383.679	371.940	99.236	360.037	390.300	314.875	119.323	379.506	322.566	425.105	407.210	78.538	266.998	400.371	0.00073024	0.00081524	0.0004705	882.06	5.9603e-06	5.3655e-06	1318.5	290.42	1.0678e-05	5.3002e-06	547.5	247	130.71	49.337	6.1081e-06	107.12	0.0013327	0.0013711	0.00037957	817.42	1.4944e-05	1.4745e-05	1190.8	265.34	1.481e-05	1.4869e-05	497.15	223.39	119.88	45.458	1.5064e-05	96.468	178.238	90.458	158.790	78.684	192.847	401.912	78.783	84.113	233.609	219.421	82.859	86.880	88.361	92.521	375.227	90.913	-8191	255	
28721.746	1	1	0	0	0.18514	0.16409	0.16798	0.19144	0.19972	0.23757	0.37707	0.52009	0.033133	0.19939	0.12959	0.26013	0.32586	0.13469	0.2439	0.44931	-1.8417	-1.4188	-1.5063	-2.2021	-1.3062	-1.8271	-2.0792	-1.3625	-2.0708	-1.4542	-1.65	-2.4125	-1.4354	-2.0667	-1.8875	-1.4854	319.944	143.692	76.746	375.398	341.586	311.364	399.907	399.463	91.400	413.406	368.697	383.248	399.657	126.285	326.524	71.556	0.00076371	0.00018869	6.3865e-05	900.28	1.0808e-05	1.9241e-05	1318.7	289.94	1.1076e-05	6.547e-06	546.97	246.19	128.97	49.683	2.4491e-06	107.3	0.0013187	0.0013504	0.00037876	818.33	1.4784e-05	1.4731e-05	1189.1	264.74	1.4236e-05	1.5053e-05	495.9	222.7	119.18	45.465	1.492e-05	96.89	173.139	207.933	151.167	78.614	232.912	227.686	78.363	83.948	287.783	203.604	83.527	86.675	87.935	92.782	302.519	90.809	-8191	255	
28721.867	1	1	0	0	0.12597	0.19401	0.051164	0.17492	0.24255	0.22842	0.28489	0.18305	0.229	0.1381	0.31053	0.4049	0.14425	0.26219	0.12321	0.12565	-2.0229	-1.7146	-1.5208	-2.1896	-1.2812	-1.775	-2.0542	-1.3854	-2.0521	-1.7625	-1.6042	-2.475	-1.5958	-1.6979	-2.0771	-1.4312	413.664	189.023	253.895	83.235	257.568	70.386	345.097	293.587	204.507	343.579	390.899	369.837	358.801	111.666	200.597	255.414	0.00087833	0.0015765	0.00027917	901.89	5.2822e-06	1.4984e-05	1326.6	292.37	8.9883e-06	2.1938e-05	553.37	248.9	131.28	50.188	1.2843e-05	108.04	0.0012864	0.0013653	0.0003714	818.51	1.4347e-05	1.4474e-05	1195.1	266.51	1.3877e-05	1.4447e-05	501.16	224.76	120.16	45.831	1.457e-05	97.39	161.112	148.843	166.047	78.856	254.469	208.095	78.601	83.936	259.348	189.482	82.974	86.888	88.196	92.492	153.348	91.003	-8191	255	
28721.939	1	1	0	0	0.09333	0.16804	0.16384	0.23006	0.25837	0.1918	0.093284	0.30039	0.027407	0.15327	0.18662	0.42398	0.1861	0.28754	0.21902	0.1653	-1.8479	-1.7437	-1.3396	-2.1833	-1.55	-1.675	-2.2625	-1.4083	-1.9375	-1.75	-1.5896	-2.3417	-1.3771	-1.7396	-2.2146	-1.5625	261.786	128.207	271.689	354.173	347.699	193.200	386.108	358.476	108.127	192.576	347.338	418.760	75.591	346.607	66.767	104.845	0.00069244	0.0012298	0.00015042	896	1.276e-06	8.9989e-06	1325.9	291.43	1.0187e-05	1.6426e-05	544.01	245.61	128.08	49.356	1.2312e-05	106.36	0.0012594	0.0013317	0.00036845	819.66	1.4575e-05	1.4552e-05	1196.2	265.11	1.4259e-05	1.4709e-05	493.68	221.32	118.28	45.306	1.4391e-05	95.723	169.488	170.480	239.423	79.139	346.828	209.323	78.618	84.450	230.771	238.852	83.048	86.868	87.850	92.562	204.329	90.829	-8191	255	
28722.035	1	1	0	0	0.05881	0.032635	0.27297	0.17865	0.1397	0.20593	0.31502	0.34082	0.074147	0.1342	0.23991	0.3089	0.17157	0.51071	0.18697	0.11903	-1.5042	-1.8042	-1.3312	-2.1229	-1.475	-1.5104	-2.2729	-1.5083	-2.0687	-2.15	-1.3354	-2.1	-1.625	-1.4229	-2.2729	-1.4937	323.982	284.910	341.318	421.215	327.143	219.565	346.787	404.454	356.570	323.486	303.666	385.259	373.922	399.976	184.871	148.613	0.00087689	0.00070333	0.0001471	892.68	1.2884e-06	1.3763e-05	1319.7	288.33	1.0641e-05	1.009e-05	541.42	245.65	128.68	49.002	8.5435e-06	106.18	0.0012502	0.0013427	0.00036798	814.49	1.4084e-05	1.4391e-05	1187.3	262.65	1.3867e-05	1.4414e-05	492.05	220.87	118.3	44.903	1.3902e-05	95.665	163.722	184.897	180.837	78.964	282.182	171.950	78.613	84.238	252.578	235.798	83.132	87.164	88.215	92.825	133.283	90.836	-8191	255	
28722.131	1	1	0	0	0.13113	0.15741	0.17701	0.036607	0.13342	0.11048	0.25823	0.24594	0.15828	0.30271	0.082542	0.25072	0.18914	0.054393	0.19417	0.26176	-1.4979	-2.0896	-1.2188	-2.3812	-1.9	-1.425	-2.4625	-1.5292	-1.7292	-2.125	-1.5354	-2.3125	-1.9188	-1.3813	-2.1896	-1.7542	405.550	101.015	107.882	410.115	280.201	313.600	410.476	367.263	317.692	91.759	268.599	370.671	235.830	167.757	357.394	295.195	0.00083037	0.00081821	0.00040432	895.58	3.6168e-06	4.634e-06	1331.5	289.34	1.0597e-05	4.684e-06	546.2	246.9	129.28	49.183	1.2136e-05	106.3	0.0012347	0.0013027	0.00035846	813.26	1.3974e-05	1.3964e-05	1191.9	263.69	1.3567e-05	1.4153e-05	495.57	221.8	118.4	44.895	1.3642e-05	95.782	169.337	97.750	159.660	78.700	142.613	178.401	78.521	84.221	248.602	132.130	83.123	87.004	88.256	92.341	225.504	90.442	-8191	255	
28722.250	1	1	0	0	0.30955	0.23025	0.30402	0.24128	0.21025	0.41501	0.053437	0.16654	0.094147	0.2623	0.27053	0.10452	0.18086	0.096124	0.069845	0.3356	-1.3604	-2.2354	-1.1833	-2.1063	-1.8875	-1.2	-2.2604	-1.7104	-1.5604	-2.1917	-1.525	-1.9271	-1.9792	-1.4042	-2.1771	-1.95	361.272	130.819	288.238	353.476	66.097	100.192	415.659	412.269	345.939	72.686	419.227	268.481	345.120	70.685	167.492	340.793	0.00081446	0.00096383	0.00038561	893.48	3.3309e-06	1.7703e-05	1324.8	291.16	5.8489e-06	1.0115e-05	544.89	247.12	129.79	49.524	4.287e-06	106.7	0.0012328	0.0012752	0.00035057	813.69	1.416e-05	1.3892e-05	1193.8	264.62	1.3883e-05	1.392e-05	496.42	223.15	118.96	45.169	1.3601e-05	95.982	162.388	166.230	171.133	78.771	166.805	147.224	78.844	84.025	214.537	268.660	82.810	87.084	88.525	92.841	164.813	90.779	-8191	255	
28722.346	1	1	0	0	0.051253	0.29039	0.21755	0.21165	0.14992	0.065703	0.29288	0.41608	0.26934	0.26862	0.26541	0.19614	0.26447	0.074848	0.14126	0.12203	-0.93333	-2.1354	-1.2479	-2	-1.8854	-1.2771	-2.2875	-1.7417	-1.2812	-2.1146	-1.7604	-1.8667	-2.0667	-1.5708	-2.1396	-2.0083	408.108	374.806	337.461	335.905	403.981	312.137	362.785	309.641	154.393	251.265	389.956	402.206	206.112	374.273	228.240	318.512	0.00077027	0.00067698	9.5449e-05	896.88	3.6025e-06	3.2109e-06	1328.7	288.39	6.4735e-07	1.0646e-05	540.8	245.39	127.18	48.507	1.1985e-05	104.74	0.0012367	0.0012605	0.00035559	815.81	1.4018e-05	1.3976e-05	1189	262.59	1.3805e-05	1.3958e-05	491.43	220.34	117.31	44.39	1.3815e-05	94.538	181.745	272.673	207.175	78.663	121.666	373.281	78.678	84.054	280.428	259.194	82.791	87.095	87.988	92.902	216.680	90.543	-8191	255	
28722.441	1	1	0	0	0.16662	0.14257	0.1917	0.1832	0.14736	0.11283	0.2579	0.20114	0.3037	0.32309	0.16031	0.28485	0.34128	0.23112	0.027945	0.43084	-0.91458	-2.1417	-1.3854	-1.7021	-1.925	-1.3458	-2.2771	-1.8458	-1.2396	-2.1875	-1.725	-1.7333	-2.1604	-1.3896	-2.0271	-1.9729	304.406	425.735	193.995	303.130	233.340	373.677	319.569	399.822	209.682	292.234	396.734	379.797	366.293	324.286	237.257	368.086	0.00075194	0.0012618	0.00021288	883.44	9.5327e-06	1.3129e-05	1312.5	283.13	6.6095e-06	6.0808e-06	536.15	241.19	127.25	48.086	1.1204e-05	104.49	0.0012656	0.0012869	0.00036392	808.9	1.4433e-05	1.4309e-05	1178.4	259.49	1.4171e-05	1.4168e-05	486.58	218.15	116.88	44.08	1.4073e-05	94.255	174.084	150.877	180.462	79.339	246.757	202.470	78.924	84.374	201.360	357.688	83.343	87.159	87.967	92.505	186.987	90.539	-8191	255	
28722.537	1	1	0	0	0.13962	0.25495	0.31286	0.1567	0.16439	0.18735	0.35087	0.2749	0.19341	0.14992	0.11681	0.11848	0.20005	0.13407	0.12785	0.17975	-0.79167	-2.1625	-1.5312	-1.6021	-2.0187	-1.3583	-1.9917	-1.9229	-1.1708	-2.2271	-1.6729	-1.6146	-2.15	-1.5479	-1.7604	-2.1271	231.415	192.269	177.096	391.855	326.756	324.870	363.418	300.609	192.168	306.617	288.907	286.156	286.956	402.135	373.000	378.408	0.0007871	0.0010762	0.00015086	874.03	7.2095e-06	5.8825e-06	1320.8	284.96	2.7986e-06	7.0029e-06	538.37	241.83	127.03	48.404	8.4998e-06	104.84	0.0012571	0.0012987	0.00036668	804.18	1.4105e-05	1.4478e-05	1184.7	260.37	1.4325e-05	1.398e-05	489.45	218.95	117.01	44.368	1.4285e-05	94.461	160.468	119.352	69.510	78.886	253.229	191.970	78.524	84.115	403.412	256.592	82.919	86.871	88.319	92.335	232.939	90.501	-8191	255	
28722.635	1	1	0	0	0.089265	0.17336	0.063996	0.16511	0.26482	0.040656	0.080456	0.22906	0.32223	0.27869	0.41557	0.18173	0.28409	0.29438	0.18174	0.2609	-0.93958	-2.1292	-1.6896	-1.4333	-2.1979	-1.4604	-1.7563	-2.1437	-1.4438	-2.0563	-2.0229	-1.6083	-2.2792	-1.6375	-1.5708	-2.4917	121.884	422.299	142.982	365.678	200.642	272.099	342.568	400.525	302.927	221.719	373.390	382.442	356.145	416.919	68.107	368.347	0.00076914	0.0007028	0.00030324	888.17	2.6434e-06	1.8157e-05	1330.1	289.76	4.5065e-06	6.124e-06	544.7	246.39	130.07	49.028	1.6528e-05	105.83	0.001261	0.0013009	0.00036726	811.55	1.405e-05	1.4194e-05	1193.6	263.49	1.4368e-05	1.4062e-05	495.57	222.3	118.72	44.918	1.4346e-05	95.65	179.704	213.255	165.135	78.642	118.239	201.425	78.770	83.840	347.083	264.678	82.658	86.860	88.020	92.754	193.163	90.810	-8191	255	
28722.730	1	1	0	0	0.43055	0.012104	0.095317	0.14999	0.12422	0.08532	0.22519	0.24177	0.16835	0.086342	0.2312	0.20505	0.29069	0.1618	0.093694	0.23733	-0.89375	-1.8563	-1.7896	-1.6146	-2.1896	-1.5771	-1.5854	-2.1542	-1.2396	-1.8771	-2.0062	-1.4833	-2.2062	-1.7875	-1.3917	-2.3563	208.427	309.339	128.526	187.942	276.542	258.740	373.987	343.637	193.732	312.727	383.374	346.924	85.647	366.869	89.928	268.892	0.00083942	0.00092332	0.00025549	881.87	1.0232e-05	1.4043e-05	1325.2	291	7.9201e-06	2.1602e-05	541.5	245.59	128.42	49.166	1.1338e-05	105.55	0.0012812	0.0013205	0.00037314	814.82	1.4194e-05	1.4802e-05	1193.7	265.26	1.4565e-05	1.419e-05	495.08	221.75	118.44	44.971	1.4611e-05	94.933	172.595	79.023	161.855	78.779	285.783	232.101	78.747	84.358	282.077	180.779	82.483	87.016	87.903	92.432	247.564	90.792	-8191	255	
28722.852	1	1	0	0	0.071757	0.2268	0.39821	0.05298	0.22618	0.25206	0.30522	0.20857	0.18327	0.23444	0.18111	0.13104	0.11127	0.21824	0.19155	0.30299	-1.0542	-1.9	-1.8604	-1.3542	-2.0125	-1.5083	-1.6229	-2.3458	-1.3917	-1.5958	-2.1542	-1.4604	-2.1312	-2.0229	-1.1104	-2.2812	142.832	246.437	182.944	183.029	194.179	239.551	322.144	281.363	369.674	194.626	315.504	385.207	386.562	105.389	203.452	381.514	0.00084044	0.00087772	5.4295e-05	887.88	4.4188e-06	6.484e-06	1317.7	287.42	1.2851e-05	9.274e-06	544.1	245.16	128.43	48.308	5.4297e-06	104.53	0.0012942	0.0013317	0.0003823	812.89	1.4268e-05	1.4947e-05	1185.2	263.16	1.4692e-05	1.4439e-05	492.95	221.11	117.9	44.622	1.4722e-05	94.43	174.719	266.783	124.849	79.257	273.811	252.274	78.609	84.313	208.950	211.620	82.857	86.946	88.211	92.586	286.003	90.492	-8191	255	
28722.947	1	1	0	0	0.038984	0.23449	0.10653	0.30512	0.16801	0.26369	0.20968	0.26397	0.1012	0.26376	0.31198	0.1082	0.32138	0.29181	0.066711	0.40035	-0.88958	-1.5063	-2.0062	-1.4625	-2.1833	-1.8292	-1.3979	-2.3063	-1.4229	-1.6083	-2.2625	-1.3312	-2.0021	-1.9312	-1.3188	-2.3417	242.805	368.769	411.933	370.919	75.249	113.694	368.387	371.121	118.771	351.338	72.157	118.520	306.216	413.780	386.643	315.334	0.00088114	0.00085491	0.000408	875.22	1.0843e-05	1.1625e-05	1314.8	287.89	8.4832e-06	1.0352e-05	540.14	242.73	127.77	48.585	7.846e-06	104.26	0.0013024	0.0013497	0.00038081	805.19	1.4495e-05	1.5105e-05	1184.1	262.26	1.467e-05	1.4832e-05	491.11	219.39	117.68	44.666	1.5027e-05	94.428	162.444	173.304	153.519	78.948	244.017	204.255	78.785	84.175	187.241	310.545	82.788	86.962	88.547	92.267	230.075	90.807	-8191	255	
28723.045	1	1	0	0	0.14962	0.14349	0.15071	0.41956	0.1756	0.11309	0.09384	0.24092	0.34842	0.20347	0.2354	0.4547	0.27836	0.12728	0.24872	0.44112	-1.2333	-1.5417	-2.1333	-1.2083	-1.8625	-1.9188	-1.2812	-2.0667	-1.5729	-1.5208	-2.3438	-1.5104	-1.7437	-1.9688	-1.3583	-2.0604	67.695	156.385	371.842	379.362	98.389	228.493	406.257	372.187	417.842	247.027	341.339	73.891	141.794	415.238	181.784	380.517	0.00082967	0.0018735	0.00020214	881.49	8.8259e-06	2.1385e-05	1320.4	287.03	2.3724e-06	4.9077e-06	543.77	245.33	128.84	49.331	1.1026e-06	106.84	0.0013375	0.0013624	0.00038297	808.02	1.4629e-05	1.5253e-05	1188.9	262.57	1.5092e-05	1.4851e-05	492.86	221.55	118.65	45.181	1.4763e-05	95.677	169.592	131.187	194.840	78.711	190.441	284.467	78.271	84.329	89.756	182.343	82.601	86.775	88.318	93.088	154.708	90.735	-8191	255	
28723.141	1	1	0	0	0.21878	0.13342	0.10268	0.2003	0.037632	0.16462	0.24253	0.017911	0.1644	0.12721	0.094085	0.38767	0.16277	0.23696	0.074525	0.2787	-1.1562	-1.3062	-2.1437	-1.4438	-1.7458	-1.9542	-1.4625	-2.0833	-1.75	-1.2042	-2.0396	-1.8396	-1.5229	-1.9208	-1.3708	-2.2208	213.102	174.959	275.322	312.076	354.698	396.865	128.804	211.138	139.358	308.244	206.388	425.609	396.856	398.183	265.718	372.845	0.00083973	0.0015487	0.00032509	885.41	4.2928e-06	6.7291e-06	1318.4	289.79	1.8533e-06	7.5525e-06	545.67	245.55	130.23	49.401	6.9316e-06	106.68	0.0013433	0.0013871	0.0003787	812.46	1.4763e-05	1.4999e-05	1188.9	265.15	1.4862e-05	1.4918e-05	497.8	222.63	119.65	45.405	1.4567e-05	95.91	177.353	188.521	178.322	78.898	253.102	201.368	78.754	84.455	336.102	192.898	83.159	86.848	88.432	92.574	251.340	90.591	-8191	255	
28723.234	1	1	0	0	0.28957	0.14729	0.28009	0.06784	0.16089	0.20012	0.554	0.3702	0.14867	0.21895	0.055952	0.17611	0.11436	0.12889	0.11362	0.079509	-1.4125	-1.3062	-2.0208	-1.5187	-1.5708	-2.1813	-1.5125	-1.9771	-1.875	-1.2188	-2.1729	-1.9229	-1.6458	-2.2146	-1.1562	-2.0104	331.500	318.605	374.614	142.104	412.359	288.935	406.053	346.902	195.462	235.328	148.870	368.002	92.727	348.938	328.758	70.764	0.00080219	0.00071465	0.0002241	882.13	8.1943e-06	5.8691e-06	1311.2	291.57	5.6883e-06	6.3685e-06	543.38	247.78	129.79	49.427	1.0839e-05	106.1	0.0013386	0.001349	0.00036377	810.26	1.4349e-05	1.4512e-05	1187.3	265.89	1.4767e-05	1.4576e-05	494.62	223.24	119.51	45.267	1.4526e-05	95.609	177.625	140.973	166.341	79.001	184.996	334.163	78.580	83.991	89.855	113.509	82.957	86.593	88.247	92.680	174.607	90.813	-8191	255	
28723.330	1	1	0	0	0.14242	0.18121	0.062961	0.17023	0.22564	0.16073	0.13558	0.168	0.070462	0.051191	0.10733	0.19084	0.11542	0.19985	0.097828	0.095726	-1.6208	-1.2958	-2.1479	-1.85	-1.5812	-2.075	-1.5625	-2.0062	-2.1146	-1.1187	-2.0687	-1.9417	-1.3312	-2.2729	-1.4479	-1.7542	359.227	148.942	210.436	343.829	425.170	236.092	353.803	311.923	344.254	125.674	331.721	378.857	426.250	387.778	102.107	310.605	0.00088911	0.00088298	0.00023899	886.34	2.6769e-06	9.6427e-06	1311.5	292.18	7.0097e-06	1.0839e-05	545.23	246.82	129.78	49.163	5.7355e-06	105.47	0.0012957	0.0013242	0.00036242	811.27	1.4281e-05	1.4286e-05	1182.2	264.67	1.4486e-05	1.4445e-05	495.96	222.48	119.29	45.012	1.4674e-05	95.459	172.864	78.142	188.986	78.721	395.381	217.505	78.637	84.589	288.333	219.494	83.456	86.920	88.225	92.644	203.723	90.601	-8191	255	
28723.426	1	1	0	0	0.25315	0.19832	0.22354	0.21254	0.048091	0.24286	0.16194	0.22036	0.29399	0.16286	0.42361	0.35474	0.18474	0.17321	0.11854	0.25462	-1.6917	-1.2146	-1.9875	-1.8312	-1.325	-2.1104	-1.6354	-1.6917	-2.0438	-1.225	-2.0417	-2.0938	-1.4042	-2.1917	-1.5562	-1.725	365.170	274.341	241.197	401.903	237.903	187.841	359.833	415.729	149.364	78.434	143.808	381.516	374.719	219.598	104.151	268.394	0.00072065	0.00057783	0.00038943	877.55	1.0591e-05	1.6537e-05	1312.6	290.91	6.0247e-06	1.7177e-05	548.98	246.89	129.65	49.271	1.5654e-05	106.17	0.0013148	0.0013327	0.00036263	808.69	1.442e-05	1.4354e-05	1185.9	264.86	1.4686e-05	1.4564e-05	497.22	222.75	119.42	45.378	1.4759e-05	95.995	160.565	182.748	174.247	78.711	219.069	235.771	78.636	84.467	100.466	239.931	83.067	86.775	88.180	92.551	194.875	90.842	-8191	255	
28723.547	1	1	0	0	0.18104	0.13723	0.10508	0.26886	0.19119	0.12262	0.23736	0.29415	0.16693	0.050739	0.049204	0.31569	0.21662	0.2384	0.33172	0.022612	-1.9	-1.4396	-1.7854	-2.1104	-1.2313	-2.2104	-1.9479	-1.5354	-2.1854	-1.2875	-1.8271	-2.1167	-1.4125	-2.1167	-1.7604	-1.5104	124.456	114.694	302.002	317.783	321.217	119.781	104.867	391.020	114.462	97.623	420.322	385.536	99.957	358.986	317.492	286.370	0.00074486	0.0013954	0.00039103	884.88	9.7831e-06	7.3929e-06	1325	292.69	5.7678e-06	9.1502e-06	550.58	249.78	130.05	49.793	5.8364e-06	107.3	0.0013136	0.0013315	0.00037589	812.84	1.4634e-05	1.4428e-05	1194	266.53	1.4701e-05	1.4875e-05	500	225	120.13	45.67	1.5059e-05	96.472	165.720	124.725	136.304	79.075	162.272	220.880	78.766	84.221	339.773	233.717	83.285	86.903	88.321	92.981	149.712	90.668	-8191	255	
#DATA ENDS
