BOXY.EXE: ISS Imagent and Oximeter Data Acquisition Program Version 0.80
Ascii Record File

#ACQ INFORMATION
2  Detector Channels 
16  External MUX Channels 
1  Auxiliary Channels 
5000  Waveform (CCF) Frequency (Hz)
1  Waveforms Skipped 
30  Waveforms Averaged 
1  Cycles Averaged 
16  Acquisitions per Waveform 
10.0806  Updata Rate (Hz) 

#FILE INFORMATION
TRUE -- External MUX Channel results are PARSED.
FALSE -- AC DC and Phase are NOT grouped.
TRUE -- Companion Program Settings File CREATED.
FALSE -- AC data not excluded
FALSE -- DC data not excluded
FALSE -- Phase data not excluded
FALSE -- Auxillary Chn. data not excluded
Tab delimiters

#CALIBRATION STATE
TRUE -- Waveform Calibration Values APPLIED.


#AUX CALIBRATION VALUES
Val Type	aux-1	

Term	1.0000e+00	
Factor	0.0000e+00	


#WF CALIBRATION VALUES
A = Detector Channel
Val Type	A-AC1	A-AC2	A-AC3	A-AC4	A-AC5	A-AC6	A-AC7	A-AC8	A-AC9	A-AC10	A-AC11	A-AC12	A-AC13	A-AC14	A-AC15	A-AC16	A-DC1	A-DC2	A-DC3	A-DC4	A-DC5	A-DC6	A-DC7	A-DC8	A-DC9	A-DC10	A-DC11	A-DC12	A-DC13	A-DC14	A-DC15	A-DC16	A-Ph1	A-Ph2	A-Ph3	A-Ph4	A-Ph5	A-Ph6	A-Ph7	A-Ph8	A-Ph9	A-Ph10	A-Ph11	A-Ph12	A-Ph13	A-Ph14	A-Ph15	A-Ph16	

Term	0.00000e+00	0.00000e+00	0.00000e+00	0.00000e+00	0.00000e+00	0.00000e+00	0.00000e+00	0.00000e+00	0.00000e+00	0.00000e+00	0.00000e+00	0.00000e+00	0.00000e+00	0.00000e+00	0.00000e+00	0.00000e+00	0.00000e+00	0.00000e+00	0.00000e+00	0.00000e+00	0.00000e+00	0.00000e+00	0.00000e+00	0.00000e+00	0.00000e+00	0.00000e+00	0.00000e+00	0.00000e+00	0.00000e+00	0.00000e+00	0.00000e+00	0.00000e+00	0.00000e+00	0.00000e+00	0.00000e+00	0.00000e+00	0.00000e+00	0.00000e+00	0.00000e+00	0.00000e+00	0.00000e+00	0.00000e+00	0.00000e+00	0.00000e+00	0.00000e+00	0.00000e+00	0.00000e+00	0.00000e+00	
Factor	1.00000e+00	1.00000e+00	1.00000e+00	1.00000e+00	1.00000e+00	1.00000e+00	1.00000e+00	1.00000e+00	1.00000e+00	1.00000e+00	1.00000e+00	1.00000e+00	1.00000e+00	1.00000e+00	1.00000e+00	1.00000e+00	1.00000e+00	1.00000e+00	1.00000e+00	1.00000e+00	1.00000e+00	1.00000e+00	1.00000e+00	1.00000e+00	1.00000e+00	1.00000e+00	1.00000e+00	1.00000e+00	1.00000e+00	1.00000e+00	1.00000e+00	1.00000e+00	X	X	X	X	X	X	X	X	X	X	X	X	X	X	X	X	

B = Detector Channel
Val Type	B-AC1	B-AC2	B-AC3	B-AC4	B-AC5	B-AC6	B-AC7	B-AC8	B-AC9	B-AC10	B-AC11	B-AC12	B-AC13	B-AC14	B-AC15	B-AC16	B-DC1	B-DC2	B-DC3	B-DC4	B-DC5	B-DC6	B-DC7	B-DC8	B-DC9	B-DC10	B-DC11	B-DC12	B-DC13	B-DC14	B-DC15	B-DC16	B-Ph1	B-Ph2	B-Ph3	B-Ph4	B-Ph5	B-Ph6	B-Ph7	B-Ph8	B-Ph9	B-Ph10	B-Ph11	B-Ph12	B-Ph13	B-Ph14	B-Ph15	B-Ph16	

Term	0.00000e+00	0.00000e+00	0.00000e+00	0.00000e+00	0.00000e+00	0.00000e+00	0.00000e+00	0.00000e+00	0.00000e+00	0.00000e+00	0.00000e+00	0.00000e+00	0.00000e+00	0.00000e+00	0.00000e+00	0.00000e+00	0.00000e+00	0.00000e+00	0.00000e+00	0.00000e+00	0.00000e+00	0.00000e+00	0.00000e+00	0.00000e+00	0.00000e+00	0.00000e+00	0.00000e+00	0.00000e+00	0.00000e+00	0.00000e+00	0.00000e+00	0.00000e+00	-2.03808e+02	-1.26914e+02	-1.21665e+02	-1.82284e+02	-9.97973e+01	-6.70612e+01	-1.58386e+02	-1.62015e+02	-9.23245e+01	-5.47240e+01	-1.79153e+02	-1.73355e+02	-1.82277e+02	-1.78265e+02	-9.35483e+01	-1.51023e+02	
Factor	4.16203e-05	1.29908e-04	3.88856e-05	1.52783e-01	1.56517e-06	1.40541e-06	1.69293e-01	4.87466e-02	1.56402e-06	1.54847e-06	1.08150e+00	2.87519e-02	2.79038e-02	8.23139e-03	1.38566e-06	1.17084e-02	2.55365e-06	2.72466e-06	7.60423e-07	8.14313e-02	2.95165e-08	3.00081e-08	8.46997e-02	2.60561e-02	2.96002e-08	2.99262e-08	4.46141e-01	1.47748e-02	1.49295e-02	4.41557e-03	2.97076e-08	6.06583e-03	X	X	X	X	X	X	X	X	X	X	X	X	X	X	X	X	



#DISTANCE SETTINGS
A = Detector Channel
A-1	A-2	A-3	A-4	A-5	A-6	A-7	A-8	A-9	A-10	A-11	A-12	A-13	A-14	A-15	A-16	

2.5000e+00	3.0000e+00	2.5000e+00	3.0000e+00	2.0000e+00	3.0000e+00	1.5000e+00	3.0000e+00	3.0000e+00	3.0000e+00	3.0000e+00	3.0000e+00	3.0000e+00	3.0000e+00	1.5000e+00	3.0000e+00	

B = Detector Channel
B-1	B-2	B-3	B-4	B-5	B-6	B-7	B-8	B-9	B-10	B-11	B-12	B-13	B-14	B-15	B-16	

1.0000e+01	1.0000e+01	1.0000e+01	1.4400e+00	1.0000e+01	1.0000e+01	1.5100e+00	1.9400e+00	1.0000e+01	1.0000e+01	1.9900e+00	2.4900e+00	2.4100e+00	2.9000e+00	1.0000e+01	2.9800e+00	




#DATA BEGINS
time	group	step	mark	flag	A-AC1	A-AC2	A-AC3	A-AC4	A-AC5	A-AC6	A-AC7	A-AC8	A-AC9	A-AC10	A-AC11	A-AC12	A-AC13	A-AC14	A-AC15	A-AC16	A-DC1	A-DC2	A-DC3	A-DC4	A-DC5	A-DC6	A-DC7	A-DC8	A-DC9	A-DC10	A-DC11	A-DC12	A-DC13	A-DC14	A-DC15	A-DC16	A-Ph1	A-Ph2	A-Ph3	A-Ph4	A-Ph5	A-Ph6	A-Ph7	A-Ph8	A-Ph9	A-Ph10	A-Ph11	A-Ph12	A-Ph13	A-Ph14	A-Ph15	A-Ph16	B-AC1	B-AC2	B-AC3	B-AC4	B-AC5	B-AC6	B-AC7	B-AC8	B-AC9	B-AC10	B-AC11	B-AC12	B-AC13	B-AC14	B-AC15	B-AC16	B-DC1	B-DC2	B-DC3	B-DC4	B-DC5	B-DC6	B-DC7	B-DC8	B-DC9	B-DC10	B-DC11	B-DC12	B-DC13	B-DC14	B-DC15	B-DC16	B-Ph1	B-Ph2	B-Ph3	B-Ph4	B-Ph5	B-Ph6	B-Ph7	B-Ph8	B-Ph9	B-Ph10	B-Ph11	B-Ph12	B-Ph13	B-Ph14	B-Ph15	B-Ph16	aux-1	digaux	

1150.422	1	1	0	256	0.28915	0.14318	0.20647	0.52283	0.31459	0.26575	0.37935	0.3019	0.13852	0.17517	0.20122	0.21698	0.34561	0.13028	0.35311	0.097241	-1.1875	-1.0792	-0.96458	-1.7479	-0.68333	-1.1104	-1.6375	-0.7875	-1.4333	-1.2479	-0.9	-1.6271	-0.80625	-1.2812	-1.4271	-0.77083	153.883	256.411	178.176	327.388	358.967	327.724	298.876	186.023	249.063	181.035	273.829	82.005	325.326	119.392	64.357	283.455	0.00033713	0.00026167	6.2752e-05	1023.7	2.6856e-06	2.1374e-06	1105.5	209.62	1.2758e-06	3.8514e-06	271.02	74.528	58.972	16.564	2.5693e-06	22.547	5.5872e-05	3.911e-05	1.1186e-05	1000.5	4.8272e-07	4.1536e-07	1082.3	206.09	4.6226e-07	4.2664e-07	214.92	73.471	57.78	16.449	4.4716e-07	22.489	70.035	102.036	107.387	31.444	178.644	159.286	30.899	38.860	168.962	172.460	38.833	44.788	45.798	53.292	176.933	52.735	-8191	255	
1150.542	1	1	0	0	0.18629	0.086028	0.036683	0.32894	0.33163	0.14123	0.13523	0.22781	0.096172	0.18342	0.19934	0.096432	0.051514	0.1943	0.33601	0.15157	-1.1521	-1.1521	-0.85417	-1.7062	-0.95625	-1.1292	-1.5021	-0.72917	-1.3937	-1.0979	-0.56875	-1.3583	-0.9375	-0.77292	-1.5562	-0.73333	169.761	81.633	220.427	288.710	276.025	279.292	317.900	362.599	295.281	135.097	267.944	303.584	91.673	278.891	314.237	220.892	0.00039064	0.00023645	8.4731e-05	1022	2.0579e-06	1.506e-06	1103.9	208.99	3.4661e-06	2.2184e-06	260.92	74.111	58.703	16.424	3.0891e-06	22.563	5.5989e-05	3.9292e-05	1.1338e-05	998.23	4.9526e-07	4.3981e-07	1082.1	205.96	4.4838e-07	4.0195e-07	213.2	73.338	57.534	16.414	4.6988e-07	22.491	67.785	111.821	170.350	31.405	120.910	185.711	31.351	39.063	164.323	181.567	38.272	45.464	45.891	52.563	142.073	52.241	-8191	255	
1150.637	1	1	0	0	0.15527	0.30218	0.25548	0.19785	0.1056	0.25948	0.44062	0.1907	0.09935	0.11137	0.16607	0.058789	0.11058	0.33646	0.14822	0.19923	-0.85833	-1.1604	-0.54167	-1.7042	-0.90208	-1.0562	-1.7125	-0.89167	-1.0771	-1.425	-0.57708	-1.6625	-0.975	-0.9	-1.6396	-0.70625	313.494	220.366	356.842	24.817	322.683	179.170	320.218	200.815	189.556	372.088	65.687	43.958	317.249	339.501	339.580	304.492	0.00042675	0.00028219	2.8477e-05	1016.8	2.4928e-06	3.0163e-06	1107.9	208.88	2.2614e-06	3.6043e-06	257.92	74.104	58.865	16.353	2.2802e-06	22.644	6.1703e-05	4.0228e-05	1.1207e-05	997.01	5.0719e-07	4.5894e-07	1080.7	205.49	5.0512e-07	4.3162e-07	214.19	73.027	57.596	16.415	4.3299e-07	22.485	71.689	85.297	91.419	31.492	139.606	148.231	31.366	38.932	173.561	181.914	38.331	45.227	45.320	53.202	156.075	52.733	-8191	255	
1150.733	1	1	0	0	0.20569	0.31572	0.19964	0.19525	0.30576	0.37857	0.27693	0.16024	0.12735	0.20584	0.10527	0.12143	0.1688	0.18285	0.17974	0.23534	-0.6125	-1.2729	-0.74375	-1.6375	-1.0333	-0.68542	-1.6521	-0.66875	-1.0375	-1.4146	-0.71667	-1.4896	-1.4271	-0.8375	-1.5229	-0.93542	327.051	101.600	344.207	326.691	192.198	94.720	313.119	285.007	119.682	306.887	129.143	237.837	30.901	376.463	235.929	241.365	0.00038636	0.00027845	6.0851e-05	1012.7	2.3215e-06	1.8346e-06	1101.8	207.33	4.8564e-07	1.7568e-06	258.63	73.601	58.513	16.315	1.6987e-06	22.46	5.8713e-05	3.676e-05	1.1589e-05	994.4	4.9662e-07	4.3962e-07	1077.3	204.62	4.7194e-07	4.0999e-07	211.48	72.854	57.435	16.334	4.2958e-07	22.5	61.709	164.668	117.022	31.372	139.301	173.258	31.388	38.935	114.603	246.868	39.324	45.328	45.812	53.222	122.030	52.558	-8191	255	
1150.829	1	1	0	0	0.23213	0.14268	0.16037	0.34002	0.067733	0.13817	0.14794	0.20928	0.10653	0.080111	0.028519	0.066382	0.18207	0.11686	0.15027	0.082251	-0.55833	-1.5	-0.62292	-1.45	-1.225	-0.65	-1.7625	-1.0875	-0.88958	-1.375	-0.65	-1.3542	-1.4021	-0.74167	-1.5187	-1.0833	375.281	333.622	326.326	326.381	346.198	317.200	355.725	308.804	349.811	142.151	29.184	256.857	53.521	211.916	330.868	67.357	0.0003817	0.00025709	5.389e-05	1011.3	2.9454e-06	9.7355e-07	1099.3	207.64	2.4027e-06	9.5578e-07	260.29	73.571	58.68	16.383	2.8646e-06	22.287	5.9069e-05	3.9962e-05	1.1387e-05	992.89	5.0713e-07	4.3824e-07	1077	204.85	4.7052e-07	4.0812e-07	210.59	72.924	57.391	16.372	4.4246e-07	22.377	70.738	136.332	107.901	31.378	153.095	74.512	31.264	38.912	155.589	187.084	40.040	45.409	46.002	52.806	171.367	52.056	-8191	255	
1150.925	1	1	0	0	0.048443	0.182	0.096372	0.083893	0.057587	0.21942	0.24008	0.10504	0.15754	0.26814	0.15516	0.13674	0.12802	0.19258	0.029098	0.21649	-0.46667	-1.5458	-0.66875	-1.2792	-1.3021	-0.73542	-1.8813	-1.175	-0.88333	-1.4625	-0.525	-1.1792	-1.4125	-0.62292	-1.4438	-1.375	337.237	324.065	72.756	51.773	100.619	44.227	225.055	351.084	191.152	35.695	40.283	290.157	298.730	59.248	144.379	366.648	0.00042268	0.00016237	6.195e-05	1014.1	3.1413e-06	2.1527e-06	1094.4	206	2.6736e-06	4.2693e-06	262.36	73.206	58.289	16.401	1.6104e-06	22.362	5.999e-05	3.718e-05	1.0689e-05	992.91	5.11e-07	4.2061e-07	1076	204	4.5973e-07	4.0756e-07	212.88	72.779	57.281	16.369	4.6171e-07	22.373	72.442	135.875	137.310	31.708	160.334	202.419	31.713	38.709	171.019	193.917	36.982	45.530	45.570	53.164	130.902	52.434	-8191	255	
1151.021	1	1	0	0	0.11063	0.10643	0.29842	0.22396	0.2354	0.25613	0.20675	0.15519	0.11261	0.10839	0.15202	0.22504	0.1051	0.055174	0.17631	0.10034	-0.43542	-1.5	-0.7375	-1.1979	-1.5375	-0.9	-1.6313	-1.1354	-0.65833	-1.6792	-0.76458	-1.0646	-1.3979	-0.63125	-1.2208	-1.2875	211.822	203.188	264.122	43.259	350.521	373.302	315.295	24.215	96.257	241.567	222.632	272.872	380.281	214.190	254.783	209.813	0.00035308	0.00030127	3.8459e-05	1004.9	3.2589e-06	1.9276e-06	1082.4	204.11	3.4414e-06	2.4481e-06	262.32	72.733	58.101	16.145	2.5277e-06	22.27	5.8324e-05	3.4881e-05	1.105e-05	989.24	4.9083e-07	4.3262e-07	1072.3	203.57	4.8415e-07	4.0269e-07	212.4	72.665	57.279	16.274	4.5347e-07	22.354	71.340	118.138	168.851	31.233	169.511	148.032	31.023	38.841	171.334	207.256	38.388	45.357	45.628	52.994	173.213	52.027	-8191	255	
1151.118	1	1	0	0	0.12456	0.16823	0.1796	0.13881	0.20369	0.31866	0.16693	0.07749	0.21974	0.11963	0.15203	0.073773	0.099848	0.22567	0.20665	0.17943	-0.25625	-1.3458	-0.83125	-0.97292	-1.5625	-0.65417	-1.4813	-1.5708	-0.66458	-1.5333	-1.0729	-0.82292	-1.4854	-0.60833	-1.2021	-1.5396	190.581	31.029	361.888	374.542	359.506	366.686	301.592	246.070	125.442	103.355	261.605	320.396	113.504	121.041	226.025	231.805	0.00038651	0.00018993	5.3179e-05	1008.1	2.4181e-06	1.3199e-06	1088.4	205.29	4.4964e-06	3.9109e-06	252.12	73.379	58.356	16.152	4.4002e-07	22.449	5.8942e-05	3.8196e-05	1.1341e-05	992.14	4.821e-07	4.5912e-07	1075.9	204.43	4.9846e-07	4.0182e-07	210.44	72.829	57.497	16.318	4.4017e-07	22.403	67.478	79.610	110.088	31.485	167.430	179.200	31.170	38.944	158.194	148.740	39.116	45.269	45.865	53.266	134.564	52.057	-8191	255	
1151.214	1	1	0	0	0.20635	0.055937	0.16404	0.2312	0.16132	0.24027	0.46767	0.068006	0.33659	0.23082	0.26746	0.058746	0.2133	0.13056	0.16175	0.31728	-0.3125	-1.4458	-1.0354	-1.0667	-1.5375	-0.80417	-1.3813	-1.5812	-0.7625	-1.4083	-1.3396	-0.81667	-1.475	-0.92083	-1.0312	-1.4521	231.544	306.546	137.732	348.362	218.847	238.809	284.040	173.159	230.593	175.585	331.990	374.157	332.171	368.419	280.401	319.723	0.00034633	0.00021541	6.5803e-05	1006.9	2.6734e-06	1.702e-06	1094.2	205.7	2.0479e-06	4.2784e-06	260.8	72.692	58.566	16.106	1.6013e-06	22.344	5.7878e-05	3.8923e-05	1.1273e-05	992.82	4.9065e-07	4.4887e-07	1076.1	204.5	4.8988e-07	4.1697e-07	211.73	72.79	57.487	16.286	4.3992e-07	22.407	67.283	106.359	101.208	31.344	139.472	234.880	31.364	38.966	130.424	194.548	38.509	45.126	45.918	53.036	212.365	52.410	-8191	255	
1151.334	1	1	0	0	0.27368	0.13573	0.24636	0.21359	0.23473	0.16296	0.1923	0.11324	0.20019	0.11245	0.24134	0.030386	0.076386	0.13934	0.12532	0.11071	-0.25417	-1.2021	-1.2687	-0.76042	-1.5542	-0.72708	-1.1187	-1.5812	-0.625	-1.1708	-1.3667	-0.875	-1.5625	-1.1604	-0.89167	-1.8813	48.399	224.864	162.919	269.196	273.872	238.653	323.852	249.177	295.219	233.922	316.146	208.274	242.597	157.971	219.971	65.573	0.00037002	0.00020599	6.4038e-05	1006	3.0625e-06	1.7836e-06	1090.1	205.74	2.6772e-06	2.1725e-06	261.64	72.488	58.348	16.282	2.6562e-06	22.415	5.8851e-05	3.8985e-05	1.0834e-05	991.01	4.7731e-07	4.5231e-07	1078.1	204.31	4.8421e-07	4.3443e-07	212.39	72.618	57.445	16.324	4.7285e-07	22.423	69.788	116.339	109.811	31.644	151.256	180.708	31.505	38.932	127.179	182.690	38.953	45.507	46.160	52.732	155.803	53.013	-8191	255	
1151.431	1	1	0	0	0.1812	0.19051	0.19527	0.55688	0.07096	0.033263	0.19481	0.34497	0.2134	0.12037	0.13984	0.19435	0.089594	0.15602	0.086962	0.14465	-0.3125	-1.3062	-1.5083	-0.70833	-1.6125	-1.1583	-1.0979	-1.6792	-0.64792	-1.2458	-1.3417	-0.55417	-1.4	-1.0271	-0.97917	-1.7896	216.191	53.498	52.851	307.740	140.913	65.099	304.785	35.786	90.628	227.033	351.316	370.765	358.391	357.080	34.702	333.442	0.00040282	0.00022147	5.9185e-05	1008.2	3.0787e-06	2.9769e-06	1097.5	207.81	3.6649e-06	1.6964e-06	262.88	73.325	58.573	16.33	1.0553e-06	22.358	6.0506e-05	4.2068e-05	1.0755e-05	992.48	5.0233e-07	4.5687e-07	1079	205.1	5.0832e-07	4.4609e-07	212.36	72.824	57.579	16.332	4.5632e-07	22.48	72.036	125.023	89.873	31.384	174.563	176.054	31.283	38.833	159.273	212.378	37.957	45.120	46.019	52.767	149.337	52.311	-8191	255	
1151.502	1	1	0	0	0.1431	0.16844	0.08708	0.29612	0.18175	0.32596	0.035287	0.27092	0.21348	0.19112	0.35592	0.078448	0.22567	0.27113	0.13082	0.086741	-0.39375	-1.3	-1.5396	-0.92292	-1.4813	-1.1	-0.95208	-1.7792	-0.85208	-1.0271	-1.4458	-0.91042	-1.4604	-1.3062	-0.67292	-1.7604	246.862	309.286	257.366	82.182	84.779	26.395	44.019	101.327	345.818	200.245	322.318	329.309	192.351	304.424	269.008	337.447	0.00036117	0.00025323	5.8542e-05	1014	3.3891e-06	2.2713e-06	1096.2	208.14	3.2261e-06	2.6513e-06	259.36	73.515	58.266	16.451	2.5065e-06	22.528	6.0192e-05	3.9411e-05	1.0914e-05	994.48	4.7257e-07	4.1055e-07	1077.4	205.36	4.7786e-07	4.3287e-07	212.12	72.785	57.361	16.385	4.5217e-07	22.508	73.360	118.833	134.466	31.355	171.448	175.231	31.475	39.112	155.888	187.784	38.450	44.947	46.016	52.796	138.615	52.055	-8191	255	
1151.623	1	1	0	0	0.056576	0.11154	0.25218	0.059932	0.14329	0.24803	0.16497	0.17538	0.02394	0.31923	0.019955	0.18866	0.17753	0.47423	0.2646	0.18249	-0.55417	-0.75833	-1.5125	-0.75625	-1.0021	-1.3708	-0.67083	-1.6104	-0.85833	-1.0896	-1.5187	-0.73125	-1.3167	-1.2292	-0.52083	-1.5854	39.768	294.493	104.563	314.252	57.305	75.015	320.893	230.916	339.227	85.629	304.611	58.137	75.788	91.070	357.347	353.933	0.00042064	0.00013214	6.5186e-05	1012.8	1.9505e-06	2.7341e-06	1102.9	208.47	3.9624e-06	2.6475e-06	264.98	73.269	58.391	16.34	1.9923e-06	22.39	5.9862e-05	4.0944e-05	1.099e-05	992.61	5e-07	4.5175e-07	1077	204.9	4.876e-07	4.3362e-07	212.66	72.774	57.671	16.359	4.8331e-07	22.478	76.759	142.022	145.903	31.414	179.518	181.741	31.642	38.810	165.959	199.333	39.532	45.107	46.254	53.239	196.231	53.208	-8191	255	
1151.717	1	1	0	0	0.24931	0.068492	0.15131	0.44352	0.058254	0.11614	0.04567	0.11886	0.23638	0.29014	0.15921	0.44305	0.1611	0.24477	0.16677	0.2655	-0.71458	-0.89167	-1.6688	-0.9125	-1.2375	-1.4729	-0.72708	-1.5167	-1.0938	-0.69375	-1.5792	-0.97083	-1.2	-1.4604	-0.71042	-1.3563	191.021	106.683	289.390	335.515	361.174	256.605	112.694	373.161	308.803	150.674	91.171	113.717	278.207	324.777	215.801	49.443	0.00039924	0.00026998	6.3756e-05	1013	3.2116e-06	1.3212e-06	1093.2	207.02	2.2983e-06	1.1123e-06	262.21	73.503	58.205	16.366	2.5375e-06	22.391	5.9325e-05	4.2056e-05	1.0909e-05	993.28	5.1088e-07	4.5994e-07	1076	204.58	5.0197e-07	4.3536e-07	209.77	72.807	57.349	16.358	4.8547e-07	22.327	65.896	133.664	139.364	31.801	155.986	130.907	31.334	38.964	166.306	205.346	38.513	45.264	46.447	53.560	96.993	52.369	-8191	255	
1151.815	1	1	0	0	0.26593	0.34598	0.292	0.30556	0.12366	0.12072	0.18062	0.38681	0.16216	0.18081	0.25546	0.096269	0.10678	0.36541	0.25553	0.1239	-0.70625	-0.72708	-1.6583	-1.0604	-0.85	-1.4292	-0.85833	-1.4688	-1.1313	-0.70208	-1.5729	-0.9125	-0.96042	-1.5979	-0.7	-1.3125	35.917	310.819	237.448	324.980	83.510	339.432	326.992	272.032	255.615	132.414	124.591	26.538	346.380	376.733	84.055	123.034	0.0003939	0.00014783	6.0205e-05	1009	2.7537e-06	1.5128e-06	1097.5	208.78	2.3248e-06	2.7829e-06	262.61	73.543	58.541	16.357	1.568e-06	22.162	6.0389e-05	4.1733e-05	1.0345e-05	991.01	5.0898e-07	4.2149e-07	1077.9	205.19	4.9673e-07	4.4777e-07	211.59	72.686	57.496	16.357	4.6647e-07	22.395	68.670	149.310	134.391	31.705	153.353	170.299	31.423	39.459	186.132	200.361	39.890	45.593	45.980	53.372	238.712	52.488	-8191	255	
1151.934	1	1	0	0	0.2937	0.055368	0.10604	0.12116	0.21676	0.068328	0.29047	0.12542	0.12585	0.16351	0.27871	0.14801	0.17661	0.23812	0.10686	0.22139	-0.81458	-0.725	-1.6271	-0.94583	-0.98958	-1.6854	-0.90208	-1.4167	-1.4146	-0.55208	-1.4312	-1.1083	-0.89792	-1.6542	-0.82292	-1.1938	259.628	289.571	76.023	205.754	116.154	151.906	309.496	32.430	213.279	24.633	224.515	328.112	288.377	206.448	364.563	328.382	0.00038434	9.3942e-05	7.9981e-05	1010.4	3.6475e-06	1.5322e-06	1098.3	207.43	4.1848e-06	2.2841e-06	251.75	73.947	57.862	16.481	1.6023e-06	22.371	5.9708e-05	4.2561e-05	1.1276e-05	989.47	5.2011e-07	4.1493e-07	1076	204.91	4.839e-07	4.7801e-07	209.13	72.788	57.236	16.374	4.7402e-07	22.381	72.713	83.631	148.360	31.544	152.676	181.492	31.655	39.249	170.214	197.278	39.866	45.305	46.020	52.946	203.716	52.708	-8191	255	
1152.030	1	1	0	0	0.19475	0.14311	0.069734	0.24967	0.29938	0.15808	0.14294	0.30242	0.088192	0.26631	0.13337	0.18111	0.17903	0.075631	0.23056	0.28384	-1.2062	-0.82708	-1.3396	-1.1792	-0.81667	-1.5729	-0.95625	-1.3104	-1.3438	-0.44583	-1.5292	-1.225	-0.95417	-1.5938	-0.7625	-1.1021	229.021	121.735	119.752	318.301	375.459	364.746	353.920	270.387	298.638	122.623	249.221	167.141	127.415	219.588	121.035	285.263	0.00042102	0.00026705	8.3513e-05	1010.4	3.2247e-06	1.5038e-06	1090.1	207.79	2.6224e-06	2.2705e-06	257.56	73.12	58.412	16.227	8.0265e-07	22.418	5.7079e-05	4.3538e-05	1.1414e-05	991.44	5.0719e-07	4.2186e-07	1074.1	204.65	4.6842e-07	4.4073e-07	210.4	72.678	57.37	16.299	4.4326e-07	22.421	77.417	109.586	132.420	31.425	159.838	187.502	31.584	39.777	195.773	167.194	38.398	45.463	46.078	53.145	122.846	52.745	-8191	255	
1152.102	1	1	0	0	0.088648	0.070581	0.1668	0.086694	0.14503	0.26022	0.26119	0.38579	0.26098	0.13464	0.22513	0.15339	0.23108	0.096407	0.16942	0.25439	-1.0583	-0.7375	-1.4979	-1.3	-0.67292	-1.575	-1.2854	-1.1708	-1.7521	-0.7	-1.4396	-1.4417	-0.78125	-1.5271	-0.9875	-0.80833	189.713	139.569	373.010	95.574	191.078	65.003	261.826	355.840	72.024	194.403	61.551	30.866	340.242	131.834	323.357	271.044	0.00038035	0.00021754	6.3173e-05	1011.5	3.1585e-06	2.9659e-06	1091.5	206.82	2.9079e-06	1.4068e-06	261.73	73.325	58.613	16.432	2.9079e-06	22.283	6.0633e-05	4.1012e-05	1.0424e-05	991.04	5.1432e-07	4.3124e-07	1073.8	204.76	4.6226e-07	4.4933e-07	212.58	72.53	57.263	16.334	4.6765e-07	22.339	66.744	97.564	117.308	31.436	160.336	185.353	31.491	39.179	182.614	169.953	38.615	45.758	45.885	53.133	139.107	52.797	-8191	255	
1152.222	1	1	0	0	0.17475	0.12435	0.20988	0.33796	0.053145	0.15612	0.072938	0.028647	0.125	0.049935	0.1526	0.22222	0.20261	0.11049	0.16393	0.13021	-1.1938	-0.86458	-1.2417	-1.6271	-0.93542	-1.5229	-1.4104	-1.0542	-1.6229	-0.93333	-1.1437	-1.5271	-0.74375	-1.5125	-1.2542	-0.92708	252.670	352.446	44.050	22.587	28.955	246.314	350.970	339.597	244.427	76.600	238.891	204.056	214.102	368.541	339.857	282.994	0.00045202	5.1911e-05	5.9822e-05	1012.7	1.2772e-06	3.0919e-06	1095.2	206.59	2.1413e-06	2.2746e-06	259.91	73.062	58.746	16.466	3.1695e-06	22.265	5.7585e-05	3.9161e-05	1.1436e-05	988.98	5.1057e-07	4.3712e-07	1073.2	204.67	4.5763e-07	4.7159e-07	211.31	72.568	57.412	16.325	4.7761e-07	22.303	73.684	75.051	112.748	31.644	162.142	171.992	31.677	39.376	122.381	184.940	39.912	45.632	46.157	52.983	153.002	52.552	-8191	255	
1152.319	1	1	0	0	0.16062	0.099503	0.11421	0.45565	0.014842	0.095605	0.13317	0.3291	0.091799	0.23786	0.19012	0.14633	0.26312	0.19111	0.35281	0.16521	-1.2563	-0.98542	-1.3563	-1.6812	-0.7875	-1.5146	-1.5	-0.69167	-1.6292	-1.0854	-0.93542	-1.6521	-0.81042	-1.2792	-1.4417	-0.77083	271.583	53.834	179.226	22.414	290.059	339.790	365.801	359.634	312.455	307.124	31.884	316.167	72.359	368.140	190.684	41.670	0.00040548	0.00029244	9.7808e-05	1004.1	9.7355e-07	1.7316e-06	1094.9	208.44	2.7402e-06	3.7055e-06	261.97	73.241	58.583	16.335	2.4549e-06	22.394	5.775e-05	3.9814e-05	1.0934e-05	986.8	5.1586e-07	4.47e-07	1072.8	204.82	4.7496e-07	4.5357e-07	212.67	72.599	57.332	16.314	4.5137e-07	22.331	67.212	113.778	127.597	31.644	175.540	135.484	31.530	39.084	204.994	199.597	38.055	45.381	46.236	53.230	130.907	52.252	-8191	255	
1152.415	1	1	0	0	0.0028963	0.0095012	0.17762	0.083311	0.1095	0.11529	0.27062	0.18957	0.13413	0.16462	0.086717	0.035205	0.28354	0.13213	0.035497	0.27698	-1.2125	-0.86458	-0.93542	-1.8833	-0.68125	-1.4354	-1.7042	-0.76042	-1.475	-1.0438	-0.94792	-1.5938	-0.925	-1.2958	-1.5646	-0.63333	355.238	57.428	30.508	184.330	163.984	346.305	324.662	39.104	314.569	302.354	44.183	378.092	344.968	155.211	190.447	189.561	0.00040046	0.00025677	9.1907e-05	1006.1	3.8136e-06	1.5449e-06	1099.8	207.15	4.5352e-06	4.3248e-06	262.05	74.094	57.919	16.392	3.1078e-06	22.491	5.8558e-05	4.0847e-05	1.091e-05	985.22	5.0848e-07	4.2055e-07	1072.7	204.31	4.6627e-07	4.2707e-07	211.28	72.696	57.085	16.352	4.5347e-07	22.37	71.819	128.622	88.293	31.410	167.895	188.977	31.513	39.222	167.311	180.567	38.461	45.233	46.160	53.608	175.834	52.523	-8191	255	
1152.511	1	1	0	0	0.23492	0.2828	0.012261	0.36006	0.0096939	0.15434	0.19935	0.087147	0.17209	0.082594	0.22707	0.089596	0.21217	0.2218	0.26732	0.14014	-1.0458	-1.1354	-0.63542	-1.85	-0.82292	-1.1917	-1.8563	-0.80417	-1.3521	-1.1938	-1.0187	-1.6042	-1.2271	-1.0792	-1.7583	-0.94583	335.305	276.345	276.866	348.224	273.982	346.102	45.605	301.896	196.296	199.761	146.572	64.112	242.906	295.862	47.301	78.269	0.00042195	0.00016536	3.5518e-05	1009.4	2.8072e-06	3.5692e-06	1087	207.06	2.6378e-06	2.1344e-06	259.73	72.758	58.329	16.365	2.1554e-06	22.31	5.7909e-05	4.0387e-05	1.1031e-05	986.75	5.0473e-07	4.4462e-07	1070.2	204.04	4.7533e-07	4.2863e-07	210.27	72.505	57.12	16.263	4.557e-07	22.305	72.423	137.915	42.097	31.625	172.628	154.755	31.596	39.467	183.981	212.674	38.202	45.450	46.081	53.153	171.435	52.564	-8191	255	
1152.607	1	1	0	0	0.11866	0.10286	0.27315	0.16375	0.23538	0.18109	0.10028	0.068815	0.069727	0.28912	0.22035	0.091054	0.21559	0.087634	0.25357	0.33299	-1.0792	-1.3833	-0.66042	-1.7687	-0.79792	-0.825	-1.7146	-0.86042	-1.1667	-1.5	-0.64375	-1.5	-1.0521	-0.95417	-1.6625	-0.97292	151.155	147.838	356.143	25.038	26.500	312.415	355.690	61.627	293.344	131.887	93.754	60.153	37.641	123.912	256.693	279.717	0.00040268	0.00010187	4.7762e-05	998.8	2.9942e-06	2.0955e-06	1088.4	207.77	1.8014e-06	3.212e-06	261.56	72.693	57.223	16.208	2.9562e-06	22.288	5.7979e-05	3.7561e-05	1.0415e-05	982.87	4.9668e-07	4.6206e-07	1068.1	203.74	4.704e-07	4.2688e-07	210.46	72.302	56.681	16.275	4.2389e-07	22.271	69.133	109.014	137.833	31.810	143.186	149.653	31.629	39.368	171.886	204.367	38.017	45.819	46.063	53.553	166.128	52.365	-8191	255	
1152.726	1	1	0	0	0.25796	0.21559	0.228	0.084128	0.10499	0.18299	0.025063	0.12974	0.069041	0.16482	0.35432	0.2142	0.19634	0.19282	0.10062	0.092287	-0.975	-1.425	-0.94167	-1.7313	-1.1458	-0.73542	-1.8167	-0.85208	-1.2188	-1.4271	-0.62292	-1.4729	-1.2708	-0.975	-1.525	-1.0875	205.254	133.088	219.913	40.178	226.742	304.892	52.379	38.687	225.924	170.606	126.110	375.705	355.019	324.957	38.918	363.327	0.00036658	0.00030632	8.3354e-05	1004.5	2.9847e-06	2.1157e-06	1076.7	206.6	9.2581e-07	2.3621e-06	264.03	73.317	58.339	16.345	2.1757e-06	22.302	5.8984e-05	3.8872e-05	1.1478e-05	982.99	4.8438e-07	4.3931e-07	1063.8	203.72	4.6232e-07	3.9883e-07	211.06	72.361	57.16	16.25	3.8614e-07	22.224	69.632	114.671	102.521	31.521	155.186	192.709	31.584	39.340	194.121	201.207	39.863	45.861	45.900	53.011	143.952	52.081	-8191	255	
1152.798	1	1	0	0	0.28977	0.22202	0.055013	0.094558	0.24542	0.17291	0.28529	0.13499	0.21424	0.39236	0.2392	0.10352	0.24506	0.18036	0.11697	0.19961	-0.46875	-1.5438	-0.68542	-1.6958	-1.3667	-0.85208	-1.7583	-0.9375	-0.94583	-1.4375	-0.80208	-1.4937	-1.2938	-0.80417	-1.3917	-1.1063	289.606	138.763	87.400	223.175	57.158	34.530	279.277	305.955	91.116	372.844	66.897	324.647	285.157	330.546	311.767	168.707	0.00038431	2.6866e-05	3.6581e-05	996.97	3.889e-06	1.9339e-06	1084.4	206.52	2.9914e-06	1.1232e-06	257.75	73.522	57.864	16.278	2.7064e-06	22.325	5.6813e-05	3.6153e-05	1.1194e-05	979.15	4.7239e-07	4.3137e-07	1063.5	203.25	4.7681e-07	3.9852e-07	209.77	72.385	56.954	16.248	4.1764e-07	22.269	72.890	199.005	129.917	31.855	157.763	194.556	31.774	39.178	150.612	212.078	39.032	46.072	46.185	53.339	148.889	52.894	-8191	255	
1152.896	1	1	0	0	0.36161	0.063751	0.066437	0.25668	0.070099	0.20636	0.075065	0.24711	0.12125	0.1416	0.31066	0.097293	0.15894	0.20275	0.27529	0.38063	-0.36667	-1.7188	-0.69583	-1.2833	-1.3438	-0.5125	-1.4875	-1.2333	-0.76667	-1.6	-0.75833	-1.2625	-1.4688	-0.61875	-1.4208	-1.125	116.704	347.907	89.367	323.375	226.925	122.837	68.493	307.441	244.244	186.026	30.361	136.577	39.892	371.222	291.124	352.563	0.00041245	0.00015693	6.2883e-05	996.45	2.9435e-06	1.6791e-06	1085.8	205.71	1.5068e-06	2.4133e-06	261.05	73.243	57.626	16.305	1.519e-06	22.418	5.7553e-05	3.7345e-05	1.1196e-05	974.29	4.7515e-07	4.2943e-07	1063.4	203.17	4.7638e-07	4.0793e-07	210.4	72.322	56.789	16.249	4.2921e-07	22.246	65.186	99.512	111.180	32.478	158.044	180.611	31.740	39.582	177.708	167.719	39.762	46.200	46.338	53.531	109.237	52.913	-8191	255	
1153.014	1	1	0	0	0.34027	0.26559	0.13362	0.22556	0.12773	0.28306	0.1586	0.08126	0.25812	0.19551	0.16778	0.15967	0.15212	0.2414	0.10227	0.22102	-0.21875	-1.6042	-0.89167	-1.1938	-1.5104	-0.8875	-1.5354	-1.1271	-0.75417	-1.4813	-0.775	-1.0583	-1.6458	-0.9375	-1.6125	-1.6333	219.708	290.017	266.825	357.791	115.729	263.617	193.358	205.957	64.221	103.749	81.113	330.466	56.495	356.662	33.710	351.005	0.00039057	0.00024367	7.2469e-05	994.17	2.646e-06	3.7154e-06	1086.7	205.06	2.5807e-06	3.4115e-06	252.76	73.285	58.092	16.122	2.8512e-06	21.93	5.6191e-05	3.7282e-05	1.1113e-05	975.28	4.7983e-07	4.2974e-07	1063.7	202.94	4.8902e-07	4.002e-07	208.33	72.259	56.925	16.193	4.2265e-07	22.084	69.420	142.498	121.847	32.086	167.801	193.424	32.103	39.477	184.543	193.728	39.489	46.653	47.049	54.695	125.177	53.970	-8191	255	
1153.111	1	1	0	0	0.22536	0.16555	0.12232	0.12849	0.21546	0.058258	0.19758	0.18565	0.09028	0.1273	0.13637	0.16398	0.26539	0.078784	0.1476	0.185	-0.47708	-1.5875	-0.78958	-1.1063	-1.6688	-0.80417	-1.4917	-1.3375	-0.68125	-1.525	-1.0375	-0.95625	-1.8125	-0.76667	-1.3896	-1.5208	314.817	107.662	71.999	62.365	363.721	26.602	330.698	350.654	360.988	367.337	52.792	344.968	340.406	321.763	306.597	248.636	0.00040617	0.00035209	7.4991e-05	997.38	2.9749e-06	2.7702e-06	1078.9	206.43	3.1223e-06	3.3763e-06	254.02	72.817	57.659	16.159	1.9591e-06	22.167	5.6686e-05	3.848e-05	1.0519e-05	974.79	4.5462e-07	4.2286e-07	1061.2	202.97	4.6028e-07	4.0282e-07	207.53	72.115	56.87	16.187	4.4469e-07	22.2	70.104	105.694	122.321	32.351	149.817	188.549	32.227	39.848	134.773	200.604	38.851	46.536	47.291	55.243	152.311	54.719	-8191	255	
1153.207	1	1	0	0	0.32747	0.25039	0.035092	0.10892	0.1255	0.11221	0.24329	0.18874	0.2666	0.034407	0.20874	0.20031	0.26549	0.16196	0.15548	0.22978	-0.27292	-1.5562	-1.0583	-0.90625	-1.5812	-0.94583	-1.2771	-1.5521	-0.59792	-1.5625	-1.1167	-0.64375	-1.775	-0.73958	-1.0625	-1.6021	124.238	43.673	276.817	286.275	321.451	225.670	211.888	135.015	130.484	192.747	363.345	294.006	60.447	363.395	369.299	78.317	0.00042024	0.00027095	9.1921e-05	986.09	2.6257e-06	2.9605e-06	1068.6	204.71	4.1673e-06	3.2611e-06	257.16	72.737	57.252	16.088	3.1062e-06	21.958	5.7542e-05	3.7186e-05	1.0099e-05	972.21	4.7509e-07	4.1411e-07	1056	202.56	4.7422e-07	3.9228e-07	208.54	72.029	56.641	16.109	4.1783e-07	22.111	71.633	110.922	152.282	32.779	150.461	164.105	32.977	40.016	154.293	194.708	39.979	46.088	47.029	53.825	170.218	53.345	-8191	255	
1153.303	1	1	0	0	0.051462	0.1633	0.1804	0.12629	0.28281	0.28438	0.21991	0.14839	0.23674	0.17558	0.05188	0.1606	0.32219	0.069261	0.18656	0.17983	-0.43125	-1.3646	-1.0625	-0.98542	-1.6979	-0.87917	-1.125	-1.7125	-0.79792	-1.5146	-1.3	-0.97708	-1.5729	-1.1271	-0.96458	-1.85	311.830	338.120	314.875	317.182	265.376	217.310	365.477	358.801	220.853	27.670	180.661	99.888	371.217	73.674	326.414	339.158	0.00040861	7.7977e-05	7.852e-05	986.82	2.809e-06	1.7317e-06	1073.7	203.8	1.7195e-06	2.5599e-06	251.29	72.036	57.155	15.968	1.4274e-06	22.113	5.776e-05	3.7038e-05	9.9473e-06	971.61	4.7362e-07	3.9179e-07	1057.7	202.23	4.6676e-07	3.7844e-07	206.45	71.914	56.576	16.121	4.4171e-07	22.168	71.447	99.787	139.126	32.975	154.720	175.739	32.298	39.700	179.660	185.278	38.670	45.944	46.527	53.430	117.470	52.701	-8191	255	
1153.399	1	1	0	0	0.22381	0.31067	0.06642	0.26888	0.14521	0.19125	0.2489	0.27642	0.20421	0.12133	0.23281	0.2999	0.065539	0.10863	0.2021	0.078943	-0.38958	-1.2542	-1.5688	-0.84375	-1.7375	-1.0167	-1.1562	-1.6854	-0.70417	-1.5021	-1.3583	-0.84583	-1.7167	-1.2542	-0.91667	-1.7771	26.562	44.866	237.391	347.476	124.082	189.118	380.524	334.031	120.666	86.180	268.665	307.537	199.328	70.995	199.469	181.048	0.00042557	0.00018404	6.7036e-05	991.3	2.824e-06	2.6843e-06	1071.4	203.97	2.6985e-06	3.7981e-06	256.26	72.471	57.68	16.075	1.9727e-06	21.99	5.9021e-05	3.7436e-05	1.0137e-05	972.32	4.6046e-07	4.1436e-07	1056.7	202.42	4.5961e-07	4.1342e-07	207.5	71.866	56.595	16.109	4.3782e-07	22.07	67.948	130.017	125.220	32.151	114.534	184.532	32.038	39.596	155.519	207.455	38.226	45.717	46.754	53.723	209.693	53.757	-8191	255	
1153.495	1	1	0	0	0.05943	0.20347	0.069259	0.20515	0.17085	0.1286	0.059555	0.24016	0.1691	0.1624	0.26713	0.17128	0.40381	0.20314	0.13314	0.12207	-0.50417	-1.2146	-1.4521	-0.81875	-1.3542	-1.3208	-1.0042	-1.8354	-0.81667	-1.2	-1.5812	-0.77917	-1.3958	-1.3771	-0.67917	-1.7146	102.829	215.190	170.425	331.608	232.859	104.827	374.910	300.678	303.757	215.304	306.346	26.714	53.027	309.824	83.064	326.989	0.00043193	0.00013589	7.9645e-05	988.86	2.0155e-06	1.5208e-06	1073.1	203.82	2.6793e-06	2.9505e-06	252.8	72.211	57.451	16.327	2.2349e-06	22.14	5.8292e-05	3.8633e-05	9.8792e-06	969.36	4.3598e-07	4.0317e-07	1058.9	201.99	4.4376e-07	4.3318e-07	208.72	71.882	56.651	16.215	4.4444e-07	22.163	69.934	100.465	116.828	33.063	155.679	200.801	32.945	40.204	163.157	212.327	40.881	46.898	47.196	54.308	164.548	54.149	-8191	255	
1153.616	1	1	0	0	0.17905	0.039783	0.24302	0.3125	0.12122	0.10979	0.12361	0.17898	0.19209	0.32318	0.29771	0.11647	0.094651	0.18197	0.19743	0.20628	-0.73542	-1.1833	-1.8625	-0.99792	-1.3958	-1.3667	-0.85208	-1.5292	-0.98125	-1.0542	-1.4958	-0.83125	-1.3771	-1.4625	-0.4875	-1.6583	220.864	186.506	368.776	33.567	348.351	29.546	149.551	58.380	23.829	125.273	241.417	74.648	50.729	281.153	59.994	70.531	0.00044048	0.0002598	4.9464e-05	983.28	1.8046e-06	2.1579e-06	1071.6	203.82	1.6043e-06	1.8893e-06	257.62	72.325	56.99	16.04	2.53e-06	22.209	5.7675e-05	4.02e-05	1.0118e-05	968.72	4.6821e-07	3.9323e-07	1055.9	202.13	4.5313e-07	4.0226e-07	208.3	71.706	56.518	16.115	4.5186e-07	22.119	67.139	116.520	111.954	32.549	161.816	182.580	32.430	39.713	241.897	184.347	39.045	46.239	47.002	54.202	121.786	53.899	-8191	255	
1153.710	1	1	0	0	0.12818	0.02439	0.21668	0.24677	0.11186	0.20006	0.28404	0.18929	0.37128	0.24716	0.2745	0.36068	0.33746	0.12002	0.1855	0.13856	-0.75208	-0.95	-1.5479	-1.0833	-1.1896	-1.6146	-0.98958	-1.6833	-1.1521	-0.80625	-1.6021	-1.0854	-1.2104	-1.5104	-0.63333	-1.5833	157.080	189.421	156.575	349.133	83.788	337.645	350.607	162.670	124.734	330.118	34.783	316.085	343.792	162.185	329.848	270.899	0.00040701	0.0001477	9.8976e-05	990.59	2.4585e-06	2.3548e-06	1072.1	205	2.2566e-06	3.3261e-06	259.63	72.539	57.907	16.292	2.9479e-06	22.383	5.784e-05	3.8446e-05	1.0185e-05	970.98	4.5763e-07	3.7479e-07	1059.3	202.5	4.5961e-07	4.1448e-07	209.26	71.814	56.685	16.149	4.2773e-07	22.191	70.558	129.383	121.324	33.020	127.197	190.090	33.207	40.789	159.271	214.296	38.206	45.893	46.414	53.909	140.907	53.718	-8191	255	
1153.806	1	1	0	0	0.088268	0.39581	0.25074	0.090063	0.27493	0.17939	0.098858	0.277	0.054277	0.26718	0.32177	0.1579	0.17258	0.27227	0.317	0.41281	-0.90208	-0.73333	-1.7875	-1.1021	-0.95833	-1.7521	-0.93542	-1.4833	-1.475	-0.88958	-1.5875	-0.97917	-0.97917	-1.7271	-0.65625	-1.3958	206.553	295.190	105.296	291.780	184.484	122.350	255.798	49.808	258.079	176.663	201.076	266.793	310.632	32.896	263.920	376.335	0.00037767	0.0002129	7.0827e-05	992.01	2.0143e-06	2.0017e-06	1081.2	205.84	1.5255e-06	2.3019e-06	249.67	72.24	58.036	16.104	1.3999e-06	22.132	5.5521e-05	3.9604e-05	1.044e-05	971.75	4.6322e-07	3.7404e-07	1059	203.11	4.5584e-07	4.2171e-07	207.34	71.698	56.674	16.112	4.3806e-07	22.118	71.967	128.119	126.575	32.566	190.108	157.438	33.062	40.344	191.879	188.225	39.063	46.769	47.274	54.569	193.209	54.273	-8191	255	
1153.902	1	1	0	0	0.026601	0.12272	0.16179	0.14859	0.15666	0.2607	0.27187	0.33945	0.15357	0.31034	0.084077	0.3091	0.11154	0.17449	0.15625	0.13416	-0.90625	-0.575	-1.5292	-1.2062	-0.97083	-1.4479	-0.98125	-1.3563	-1.6104	-0.73542	-1.4667	-1.1104	-0.91042	-1.8062	-0.8125	-1.175	105.798	63.790	313.235	350.387	289.664	150.950	283.839	236.143	107.101	309.867	47.741	41.812	371.371	48.733	336.527	29.187	0.00044085	0.00026643	4.4151e-05	996.83	3.4764e-06	2.8826e-06	1083.2	205.24	2.3441e-06	2.7706e-06	256.06	72.665	57.574	16.121	1.6096e-06	22.226	5.6218e-05	3.9882e-05	1.0358e-05	971.32	4.8579e-07	4.1142e-07	1059	202.74	4.5572e-07	4.2776e-07	210.51	71.71	56.413	16.105	4.4103e-07	22.105	68.700	94.599	114.356	32.867	160.161	181.407	32.675	40.059	131.424	184.629	39.677	46.831	47.255	54.732	144.263	53.240	-8191	255	
1154.023	1	1	0	0	0.088923	0.21704	0.024214	0.47764	0.11043	0.14916	0.24293	0.25837	0.05417	0.33562	0.17922	0.057756	0.20648	0.24279	0.19296	0.16382	-1.3062	-0.74583	-1.5542	-1.2479	-0.81042	-1.6542	-0.94792	-1.25	-1.5	-0.65833	-1.1688	-1.2042	-0.81458	-1.6896	-0.88958	-1.0792	324.702	23.115	266.754	369.273	183.986	160.802	334.015	327.860	302.656	270.968	246.124	269.245	320.429	124.879	254.116	378.698	0.00041978	0.00021156	5.3038e-05	989.78	3.769e-06	1.9819e-06	1077.3	205.76	1.988e-06	1.8305e-06	253.78	72.417	57.317	16.145	3.4629e-06	22.133	5.5356e-05	3.9195e-05	9.8538e-06	968.2	4.8801e-07	4.1986e-07	1054.6	202.46	4.3691e-07	4.0812e-07	207.81	71.732	56.488	16.11	4.3707e-07	22.147	72.789	98.277	130.491	31.680	144.680	142.808	31.723	39.531	108.679	207.671	38.636	45.598	46.531	53.266	139.119	52.798	-8191	255	
1154.095	1	1	0	0	0.27289	0.011892	0.066869	0.32915	0.10165	0.21942	0.23919	0.32114	0.36797	0.16027	0.036357	0.15496	0.38583	0.14618	0.12807	0.25695	-1.1125	-0.58958	-1.3208	-1.4875	-0.67917	-1.6708	-1.025	-0.98542	-1.4979	-0.75	-1.2979	-1.3375	-0.65833	-1.6979	-0.92083	-0.97292	41.243	47.569	341.916	299.427	249.671	367.858	314.464	331.087	43.298	176.760	156.439	209.168	40.965	67.287	187.343	185.049	0.00036605	0.00021195	8.4606e-05	988.05	2.8993e-06	1.6998e-06	1073.8	205.44	3.5706e-06	2.4919e-06	253.45	72.265	57.944	16.094	2.163e-06	22.109	5.4669e-05	3.978e-05	9.7192e-06	968.64	4.9219e-07	3.9167e-07	1054	202.37	4.4123e-07	4.2271e-07	206.11	71.383	56.587	16.102	4.268e-07	22.104	76.109	112.642	120.833	31.990	157.216	203.159	31.693	39.587	168.645	210.525	39.354	45.138	46.290	53.495	167.667	52.875	-8191	255	
1154.191	1	1	0	0	0.21306	0.20851	0.20716	0.27235	0.3014	0.11082	0.14609	0.2587	0.18006	0.18	0.24126	0.32189	0.23771	0.084136	0.18125	0.31064	-1.1958	-0.60625	-1.2396	-1.5312	-0.65208	-1.5042	-1.2542	-0.69792	-1.5104	-0.85833	-1.125	-1.4792	-0.5875	-1.4208	-1.2437	-0.69583	54.271	173.710	214.727	337.130	173.335	82.651	316.617	309.052	250.372	311.176	377.634	341.570	84.161	98.499	73.077	101.193	0.00043026	6.5584e-05	9.0275e-05	987.83	4.6738e-06	2.0994e-06	1074.6	204.66	2.0619e-06	2.2302e-06	259.72	72.035	57.782	16.136	1.2363e-06	21.954	5.4829e-05	3.8298e-05	1.0644e-05	966.86	4.7485e-07	3.9998e-07	1053.7	201.79	4.4672e-07	4.2757e-07	210.53	71.334	56.563	16.108	4.1318e-07	21.981	70.651	175.559	131.426	31.811	130.133	177.150	31.539	39.428	165.863	196.010	39.199	45.399	46.060	53.133	151.277	52.703	-8191	255	
1154.287	1	1	0	0	0.15426	0.14736	0.16184	0.15174	0.12538	0.10632	0.18967	0.18739	0.48242	0.22717	0.33118	0.21779	0.19128	0.03639	0.25687	0.13639	-1.1458	-0.91458	-1.1354	-1.5208	-0.51667	-1.7521	-1.4354	-0.7	-1.6667	-0.85	-1.0021	-1.6229	-0.92917	-1.4625	-1.3708	-0.79375	224.623	265.148	134.064	269.385	62.428	64.420	369.903	316.234	189.652	36.908	176.411	71.010	30.424	125.148	188.950	341.043	0.00039108	0.00018376	6.2175e-05	984.25	3.3266e-06	2.2064e-06	1077	204.53	3.916e-06	2.6712e-06	254.21	72.108	57.047	16.286	3.2374e-06	21.679	5.3382e-05	3.9093e-05	1.1029e-05	965.95	4.6999e-07	4.2712e-07	1054.7	202.39	4.3044e-07	4.0008e-07	208.5	71.513	56.363	16.123	4.3416e-07	21.966	71.913	116.944	136.805	31.690	157.412	158.864	31.555	39.072	150.364	177.728	38.834	45.062	45.731	53.093	153.805	52.743	-8191	255	
1154.408	1	1	0	0	0.098824	0.25415	0.39309	0.16149	0.057016	0.30114	0.45004	0.14532	0.2197	0.14018	0.085337	0.17735	0.065595	0.17177	0.32846	0.0348	-1.225	-1.2146	-0.92083	-1.8521	-0.65	-1.2354	-1.5292	-0.72292	-1.5646	-1.0688	-0.8	-1.725	-0.51667	-1.2729	-1.4917	-0.62917	291.825	118.192	205.954	34.446	362.473	169.959	348.350	59.696	267.971	93.870	248.627	345.939	115.829	268.167	33.823	244.388	0.00034282	0.0002577	7.2936e-05	977.09	2.6675e-06	1.0064e-06	1067.4	203.88	2.9181e-06	2.2279e-06	255.18	71.427	57.217	16.096	3.0551e-06	22.081	5.243e-05	3.9718e-05	1.0533e-05	962.83	4.7675e-07	4.0086e-07	1052	201.69	4.3679e-07	3.9172e-07	208.13	71.31	56.274	16.053	4e-07	22.067	73.341	136.243	142.926	31.209	112.334	153.603	31.469	39.166	177.417	162.601	39.875	45.480	46.257	53.660	188.385	52.274	-8191	255	
1154.504	1	1	0	0	0.2658	0.15694	0.084742	0.10023	0.10723	0.17172	0.31141	0.17913	0.3047	0.16008	0.2938	0.25999	0.083922	0.35839	0.055099	0.21217	-1.1521	-1.3062	-0.99792	-1.7396	-0.72083	-1.2146	-1.3917	-0.82708	-1.3729	-1.0896	-0.66042	-1.6521	-0.92083	-1.3375	-1.4333	-0.82708	268.544	269.327	45.242	354.794	369.336	193.959	288.243	287.547	203.556	370.333	342.720	299.605	106.639	327.603	174.954	146.240	0.00036351	0.00017432	5.8004e-05	982.49	3.2277e-06	1.9808e-06	1072	206.26	3.2373e-06	2.0118e-06	256.87	72.536	57.856	16.037	2.6094e-06	21.878	5.3217e-05	3.81e-05	1.032e-05	963.74	4.7798e-07	4.0417e-07	1052.2	202.14	4.3926e-07	3.8474e-07	207.36	71.587	56.356	16.074	4.3324e-07	21.998	71.902	88.221	167.087	31.643	164.552	180.206	31.365	39.283	161.216	193.254	40.161	45.223	46.108	53.116	125.028	53.325	-8191	255	
1154.600	1	1	0	0	0.24535	0.18311	0.14548	0.33848	0.31473	0.12886	0.15257	0.12318	0.18198	0.01393	0.08366	0.10886	0.19396	0.098313	0.077292	0.086873	-0.93958	-1.075	-0.87917	-1.7667	-0.99583	-0.65417	-1.8438	-0.75625	-1.3188	-1.3979	-0.68958	-1.7437	-1.1604	-1.1583	-1.4479	-0.775	362.269	178.257	33.282	254.695	123.336	216.439	318.738	243.606	221.965	192.805	293.269	357.613	165.212	349.105	50.060	253.463	0.00037283	0.00028223	4.8318e-05	984.46	3.09e-06	3.0122e-06	1076	204.79	3.2988e-06	3.0234e-06	254.06	72.69	57.729	16.137	3.6855e-06	21.947	5.4723e-05	3.47e-05	1.0209e-05	964.38	4.5277e-07	4.2261e-07	1053.3	201.73	4.3673e-07	3.9397e-07	208.15	71.568	56.356	16.073	4.3088e-07	21.928	68.876	119.017	99.775	31.622	172.864	157.152	31.658	39.330	141.719	178.048	38.347	45.755	46.079	53.248	143.045	52.777	-8191	255	
1154.696	1	1	0	0	0.3399	0.13025	0.15141	0.16195	0.09043	0.087167	0.12943	0.12033	0.38123	0.18743	0.086046	0.15262	0.034727	0.33074	0.193	0.42545	-0.95833	-1.4167	-0.58125	-1.6354	-1.1708	-1.0438	-2.0229	-0.95417	-1.1729	-1.5792	-0.73333	-1.3729	-1.2917	-0.93542	-1.5479	-0.66042	368.163	99.872	214.293	321.317	116.222	97.077	339.965	343.032	249.437	242.937	371.130	369.773	39.950	332.546	54.859	205.104	0.00037836	0.00017726	5.2298e-05	983.96	3.0028e-06	1.5189e-06	1069.6	204.37	2.7969e-06	1.5091e-06	249.09	72.661	57.234	16.059	2.0058e-06	21.845	5.2728e-05	3.592e-05	1.1238e-05	963.33	4.4933e-07	4.1236e-07	1051	201.24	4.5794e-07	3.8368e-07	207.17	71.557	56.321	16.046	4.1937e-07	21.88	76.639	109.256	98.629	31.521	149.938	226.389	31.800	38.987	173.712	205.652	38.135	45.057	46.251	53.038	128.583	52.085	-8191	255	
1154.791	1	1	0	0	0.16439	0.28236	0.24261	0.37042	0.1057	0.035739	0.30891	0.21674	0.07682	0.23852	0.20502	0.25111	0.28956	0.40189	0.19025	0.032623	-0.71458	-1.5187	-0.66875	-1.625	-1.2938	-0.79583	-1.8208	-0.95625	-1.0583	-1.4583	-0.63542	-1.4688	-1.4813	-0.79167	-1.5312	-0.81875	88.146	269.313	325.526	339.524	136.872	82.651	26.899	306.533	259.495	239.537	274.970	373.746	183.739	302.153	33.829	49.410	0.0003831	0.00010221	4.7595e-05	979.47	3.641e-06	2.7595e-06	1070.7	203.95	2.5262e-06	3.4178e-06	261.96	71.881	57.628	16.015	1.1906e-06	21.996	5.3371e-05	3.6204e-05	1.0404e-05	961.88	4.7423e-07	3.9805e-07	1050.8	201.42	4.5036e-07	3.8499e-07	209.4	71.239	56.447	16.031	4.047e-07	21.897	72.892	82.442	119.548	31.812	128.167	165.571	31.712	39.318	148.151	228.981	37.981	45.214	46.122	53.370	168.281	52.328	-8191	255	
1154.887	1	1	0	0	0.16354	0.13468	0.13989	0.11832	0.22997	0.10587	0.10586	0.14484	0.16636	0.22422	0.17886	0.13217	0.31428	0.1255	0.20742	0.081702	-0.46875	-1.5458	-0.67917	-1.3	-1.3188	-0.53542	-1.7646	-0.98125	-0.87292	-1.4875	-0.78542	-1.3146	-1.3687	-0.62083	-1.5479	-1.3	296.167	333.395	52.675	37.621	378.802	157.329	272.821	70.855	232.445	151.719	28.974	331.597	319.139	351.869	204.915	191.404	0.00039492	0.00017182	8.2147e-05	981.5	2.5709e-06	2.0581e-06	1068.5	203.66	3.2775e-06	1.9957e-06	256.91	71.842	57.465	16.073	2.3755e-06	21.96	5.7191e-05	3.5517e-05	1.0423e-05	961.2	4.2614e-07	3.7804e-07	1049.8	201.04	4.9087e-07	3.886e-07	207.51	71.334	56.223	16.038	4.026e-07	21.933	70.799	97.350	113.058	31.769	146.543	175.004	31.822	39.219	158.007	197.845	38.162	45.530	45.833	53.175	141.870	52.632	-8191	255	
1154.983	1	1	0	0	0.18964	0.10342	0.051857	0.11955	0.24088	0.26863	0.16547	0.31568	0.05974	0.16787	0.17945	0.23842	0.36957	0.17843	0.14372	0.15173	-0.59583	-1.6812	-0.80417	-1.0292	-1.55	-0.74167	-1.7021	-1.1938	-0.6625	-1.6896	-0.99167	-0.96875	-1.6	-0.70625	-1.3542	-1.35	370.830	338.250	370.978	134.806	117.206	281.724	246.102	352.344	208.502	380.489	193.157	152.059	348.098	366.284	106.079	221.832	0.00043226	0.00029718	5.9992e-05	981.48	3.9145e-06	1.4164e-06	1069.4	205.06	1.6271e-06	2.4691e-06	256.66	72.342	56.976	16.122	2.7233e-06	22.015	5.7117e-05	3.6425e-05	1.1002e-05	962.07	4.6556e-07	4.1549e-07	1049.6	201.87	4.5745e-07	3.8137e-07	208.79	71.479	56.222	16.051	4.0607e-07	21.99	68.154	106.319	125.369	31.543	147.130	193.031	31.342	39.205	153.478	165.131	38.187	45.299	45.995	53.540	154.292	52.872	-8191	255	
1155.103	1	1	0	0	0.12854	0.29387	0.11464	0.33538	0.13749	0.028117	0.46722	0.16682	0.097664	0.13761	0.07491	0.16687	0.28188	0.083915	0.33575	0.087072	-0.38125	-1.6896	-0.82917	-1.0104	-1.5979	-0.58333	-1.5333	-1.5083	-0.72292	-1.5917	-1.1063	-0.83542	-1.2917	-0.625	-1.2375	-1.5792	127.596	303.001	196.403	341.305	356.739	290.840	305.917	31.028	92.827	71.171	380.168	246.595	21.367	259.452	284.213	145.545	0.00039646	0.0001246	6.9316e-05	982.71	2.4193e-06	2.3046e-06	1073.5	204.15	2.3315e-06	3.2435e-06	258.55	72.414	57.534	16.075	1.4332e-06	22.063	5.6457e-05	3.5943e-05	1.0776e-05	963.94	4.409e-07	4.1117e-07	1050.1	201.37	4.6639e-07	3.8723e-07	207.32	71.467	56.334	16.037	4.0996e-07	22.028	64.650	126.720	132.964	31.619	197.092	191.940	31.614	39.082	173.032	207.894	38.523	45.872	45.972	53.194	129.618	52.352	-8191	255	
1155.200	1	1	0	0	0.2667	0.12485	0.3222	0.23272	0.12329	0.060389	0.31587	0.15754	0.021822	0.099612	0.38591	0.22496	0.069292	0.14502	0.27151	0.31462	-0.22708	-1.6063	-1.1	-1.0208	-1.5875	-0.76667	-1.1313	-1.4562	-0.50208	-1.5583	-1.2313	-0.7125	-1.7125	-0.70625	-1.0771	-1.6104	192.353	363.011	193.079	349.142	236.978	342.733	298.037	98.305	267.954	249.892	36.960	40.348	86.703	269.290	98.193	323.905	0.00038886	0.00016064	2.7672e-05	988.73	2.8022e-06	2.7631e-06	1072.8	204.25	3.5037e-06	2.7757e-06	254.34	71.918	57.106	15.949	2.16e-06	21.9	5.7564e-05	3.4756e-05	1.0076e-05	964.9	4.706e-07	4.4625e-07	1050.9	201.51	4.7613e-07	3.7551e-07	207.53	71.153	56.123	16.017	4.1739e-07	21.937	74.646	143.491	92.645	31.737	174.269	182.659	31.681	39.378	155.923	193.527	39.189	45.332	46.315	53.186	151.382	52.677	-8191	255	
1155.296	1	1	0	0	0.28792	0.30401	0.18769	0.29829	0.14749	0.21235	0.067868	0.18227	0.22293	0.13209	0.036626	0.21688	0.13223	0.32447	0.24262	0.27382	-0.175	-1.4312	-1.1333	-1.0312	-1.6292	-0.73958	-1.1333	-1.6792	-0.79792	-1.2375	-1.3729	-0.83333	-1.7125	-1.0562	-0.98958	-1.8229	232.800	225.778	183.489	373.142	232.408	182.515	237.557	55.552	279.736	196.482	87.635	21.935	336.032	254.555	293.788	54.595	0.00038595	0.00036425	3.187e-05	980.63	1.4919e-06	1.7959e-06	1069.1	205.2	2.5539e-06	1.7979e-06	252.61	71.866	57.006	16.038	1.0006e-06	21.862	5.701e-05	3.638e-05	1.0583e-05	961.05	4.6298e-07	4.0255e-07	1050.1	201.35	4.81e-07	3.9166e-07	208.27	71.179	56.092	16.043	4.2779e-07	21.97	69.826	109.418	126.742	31.790	171.600	167.114	31.633	39.274	148.855	169.493	38.175	45.725	46.406	53.250	84.638	52.562	-8191	255	
1155.392	1	1	0	0	0.17188	0.10586	0.34036	0.20943	0.18319	0.22396	0.40766	0.22886	0.063576	0.27212	0.11061	0.32103	0.10766	0.14387	0.012689	0.16617	-0.275	-1.2146	-1.4521	-0.91042	-1.4229	-0.92708	-0.95625	-1.7771	-0.56875	-1.2646	-1.2854	-0.71042	-1.4708	-0.99167	-0.87292	-1.6854	225.557	375.611	275.107	291.574	309.237	282.217	352.657	316.984	141.368	349.532	105.478	125.661	343.573	38.367	123.835	330.044	0.0003526	0.000155	6.7038e-05	984.45	3.2728e-06	1.6582e-06	1066	203.25	2.2578e-06	2.565e-06	258.06	71.827	57.477	16.111	2.0185e-06	21.968	5.7782e-05	3.7106e-05	1.0022e-05	961.85	4.473e-07	4.0905e-07	1047.5	200.59	4.3167e-07	4.0494e-07	207.52	71.202	56.17	16.062	4.3806e-07	21.973	72.304	163.808	141.556	31.751	153.672	200.168	31.839	39.156	141.755	189.870	38.672	45.428	45.944	53.408	173.007	52.974	-8191	255	
1155.488	1	1	0	0	0.088525	0.20465	0.28303	0.19664	0.29626	0.096592	0.35539	0.074768	0.062184	0.2119	0.071428	0.3344	0.058339	0.070913	0.37326	0.015207	-0.19375	-1.2417	-1.3563	-0.75417	-1.3458	-1.1521	-0.94167	-1.6833	-0.675	-1.1292	-1.4688	-0.62083	-1.3937	-1.1167	-0.83542	-1.7229	154.453	297.736	287.215	105.173	111.270	118.802	335.190	367.493	189.479	300.881	278.280	88.244	246.266	245.007	26.782	93.583	0.00030243	0.00019355	7.1174e-05	981.89	3.7859e-06	1.1836e-06	1074.9	204.76	1.8752e-06	1.0942e-06	255.15	71.892	57.187	16.089	2.4385e-06	22.056	5.3643e-05	3.9303e-05	9.7033e-06	961.64	4.7392e-07	3.7923e-07	1051.6	201.42	4.548e-07	4.0444e-07	207.13	71.345	56.309	16.006	4.3045e-07	21.976	66.915	86.834	134.559	31.846	147.721	185.232	31.508	39.092	199.487	184.540	38.233	45.039	45.889	52.964	196.293	52.476	-8191	255	
1155.584	1	1	0	0	0.18909	0.060876	0.074072	0.063376	0.13993	0.0099538	0.18481	0.11093	0.17513	0.1673	0.096656	0.11764	0.2378	0.29699	0.10141	0.090397	-0.59375	-0.925	-1.55	-0.85833	-1.2917	-1.2417	-0.85	-1.5771	-0.97083	-0.95833	-1.6104	-0.875	-1.4125	-1.4229	-0.70833	-1.5063	264.622	280.633	137.116	372.584	119.209	311.372	311.975	353.823	53.281	301.743	256.957	376.026	323.279	144.848	322.173	143.733	0.00033218	0.00020185	4.6943e-05	976.72	4.419e-06	1.7298e-06	1072.5	203.75	3.1518e-06	3.1564e-06	255.01	71.977	57.683	15.957	2.6454e-06	21.815	5.6015e-05	3.7078e-05	9.8839e-06	959.35	4.5492e-07	3.8736e-07	1050.7	201.28	4.7989e-07	4.3212e-07	207.95	71.083	56.347	15.961	4.234e-07	21.861	70.466	124.771	133.028	31.540	162.001	155.425	31.724	39.372	173.075	148.417	38.678	45.143	45.981	53.330	141.273	52.584	-8191	255	
1155.703	1	1	0	0	0.26084	0.10936	0.2651	0.067673	0.095247	0.1649	0.27259	0.20645	0.16646	0.13926	0.20089	0.25427	0.03112	0.21949	0.24998	0.32478	-0.90208	-1.0271	-1.75	-0.84375	-1.0187	-1.4438	-0.84167	-1.5625	-1.0417	-0.91667	-1.6771	-0.6875	-1.3021	-1.7042	-0.55833	-1.5875	69.747	232.557	112.254	51.565	67.783	126.432	248.378	61.175	38.783	54.815	146.785	35.600	313.140	287.641	48.402	366.317	0.00036101	0.00023792	5.0563e-05	980.2	3.9504e-06	1.976e-06	1065.1	203	2.5162e-06	1.0272e-06	254.04	71.569	57.09	15.758	1.8942e-06	21.842	5.6813e-05	3.8225e-05	1.0342e-05	962.2	4.6458e-07	3.9067e-07	1048.2	200.85	4.6201e-07	4.1847e-07	206.62	71.206	56.272	15.929	4.2723e-07	21.902	63.855	133.055	100.214	31.692	151.129	176.059	31.830	39.192	170.967	172.773	38.714	45.242	45.818	53.124	115.354	52.919	-8191	255	
1155.799	1	1	0	0	0.25632	0.10471	0.14008	0.53214	0.30257	0.2071	0.2067	0.3587	0.3106	0.10239	0.19632	0.073485	0.16822	0.11366	0.22036	0.29502	-0.7125	-0.70417	-1.6313	-1.0167	-0.96458	-1.4771	-0.64583	-1.3	-1.175	-0.72083	-1.7042	-0.80417	-0.92917	-1.65	-0.87917	-1.4708	269.533	148.586	302.190	26.209	378.682	336.889	369.822	280.022	59.084	224.415	41.097	368.017	215.610	197.428	359.809	370.220	0.00037465	0.00031735	4.757e-05	976.46	4.1424e-06	2.559e-06	1064	202.53	4.3697e-06	2.7259e-06	251.22	71.776	57.023	16.053	1.3141e-06	22.018	5.4521e-05	3.8934e-05	1.0079e-05	958.18	4.6821e-07	3.8685e-07	1047.6	200.64	4.5874e-07	4.0768e-07	207.41	71.19	55.967	15.974	4.4004e-07	21.923	70.555	136.205	105.563	31.637	141.616	179.133	31.772	39.260	135.048	202.198	37.724	45.511	46.864	53.390	199.224	52.946	-8191	255	
1155.895	1	1	0	0	0.24252	0.18055	0.083982	0.3319	0.26205	0.32847	0.39071	0.30023	0.023472	0.1357	0.18447	0.1462	0.24151	0.26248	0.071851	0.096262	-0.9125	-0.53333	-1.5917	-0.98125	-0.77083	-1.5292	-1.0083	-1.1354	-1.2458	-0.6	-1.5979	-1.2771	-0.92917	-1.7021	-0.80208	-1.1667	115.796	313.352	218.733	358.861	223.333	35.752	360.227	370.614	331.859	316.483	307.238	224.103	109.713	49.814	39.429	57.057	0.00039193	0.00023967	6.8471e-05	981.38	2.1382e-06	2.62e-06	1069.9	203.58	2.4967e-06	3.3313e-06	258.61	71.777	57.315	15.994	1.5443e-06	21.689	5.4542e-05	4.0098e-05	1.0486e-05	959.13	4.6728e-07	4.003e-07	1048.4	201.37	4.4986e-07	4.2021e-07	208.43	71.118	56.19	15.944	4.4549e-07	21.928	71.733	72.996	132.872	31.708	141.625	178.295	31.727	39.395	161.608	218.929	39.342	45.813	46.079	53.189	168.174	52.607	-8191	255	
1155.967	1	1	0	0	0.22488	0.31431	0.22038	0.16558	0.2409	0.094679	0.13378	0.26805	0.13622	0.14643	0.12919	0.044557	0.20506	0.16247	0.088202	0.51784	-1.1958	-0.675	-1.5875	-1.3208	-0.775	-1.5979	-0.92708	-1.2833	-1.5479	-0.7625	-1.5208	-1	-0.65417	-1.7563	-0.63542	-0.98333	249.943	328.764	245.891	164.982	319.872	216.765	247.901	315.491	144.040	117.044	327.995	35.133	336.724	292.610	69.335	324.069	0.00037649	0.00024081	4.7493e-05	979.81	3.9864e-06	6.3783e-07	1072.6	204.08	3.9938e-06	3.2015e-06	254.49	71.36	57.347	15.953	1.1793e-06	22.049	5.4132e-05	3.8094e-05	9.6495e-06	959.94	4.8708e-07	3.8117e-07	1049.8	201.14	4.5954e-07	4.1784e-07	208.92	71.037	56.178	15.954	4.1424e-07	21.884	70.840	121.903	92.544	31.821	165.047	202.735	31.688	39.351	173.505	167.796	39.003	45.623	46.233	54.086	156.560	52.697	-8191	255	
1156.088	1	1	0	0	0.07465	0.20062	0.18714	0.13699	0.34744	0.34784	0.17472	0.22718	0.099214	0.1094	0.22196	0.11758	0.24244	0.21066	0.22332	0.28933	-1.2292	-0.71458	-1.4646	-1.5271	-0.74792	-1.5438	-1.1333	-1.1625	-1.6688	-0.68958	-1.4792	-1.4438	-0.88333	-1.5854	-1.0729	-0.95625	247.649	133.631	59.095	88.102	231.959	208.846	26.150	319.352	177.647	236.407	291.898	104.853	107.552	321.754	280.945	221.108	0.00044739	0.00033354	5.2654e-05	977.43	2.5862e-06	2.0418e-06	1070.6	205.43	2.992e-06	3.626e-06	251.74	72.309	57.775	16.12	2.4959e-06	21.918	5.5084e-05	3.7901e-05	9.7049e-06	959.88	4.6857e-07	3.9661e-07	1047.8	201.44	4.1681e-07	4.0301e-07	207.78	71.175	56.185	15.983	4.1213e-07	21.949	75.323	102.514	128.529	31.700	152.396	192.243	31.821	39.500	161.511	201.663	39.100	45.853	46.266	53.105	158.315	53.005	-8191	255	
1156.184	1	1	0	0	0.087647	0.12359	0.29275	0.34175	0.078041	0.26324	0.2783	0.22265	0.34171	0.06061	0.10223	0.269	0.12481	0.13362	0.2165	0.49542	-1.1875	-0.66875	-1.3146	-1.6	-0.63333	-1.4813	-1.3708	-1.0167	-1.3083	-0.84583	-1.2479	-1.525	-0.92917	-1.4708	-1.0021	-0.89792	271.935	80.295	171.308	334.985	109.440	171.824	47.048	371.593	116.157	331.210	328.107	356.896	34.863	112.384	94.718	362.593	0.00045884	0.00017828	5.303e-05	980.9	4.6137e-06	1.4477e-06	1070	204.55	3.396e-06	6.8346e-07	258.11	71.112	57.2	16.113	1.0504e-06	22.133	5.5212e-05	3.7407e-05	9.7001e-06	959.37	4.8266e-07	4.0292e-07	1047.6	201.53	4.202e-07	3.868e-07	209.07	70.988	56.079	16.046	4.2779e-07	21.95	66.197	124.976	120.991	32.093	134.443	190.789	31.842	39.724	173.613	202.774	39.854	45.462	46.517	53.684	145.652	52.759	-8191	255	
1156.280	1	1	0	0	0.1731	0.36007	0.15322	0.31711	0.089148	0.3403	0.18156	0.11705	0.16418	0.25767	0.091717	0.15709	0.2442	0.34826	0.25221	0.15557	-1.2313	-0.95625	-1.1417	-1.4958	-0.61458	-1.4625	-1.35	-0.8125	-1.6667	-0.82083	-1.1437	-1.4917	-0.69167	-1.5646	-1.2125	-0.61042	309.360	340.281	153.335	301.552	192.098	346.125	291.418	107.441	73.775	324.200	62.762	202.625	366.493	61.930	240.638	275.059	0.00035604	0.0001961	7.8964e-05	979.44	4.3645e-06	3.2585e-06	1067.1	204.51	3.3629e-06	1.9684e-06	251.43	71.964	57.07	16.052	1.1449e-06	21.822	5.5068e-05	3.6999e-05	9.9742e-06	957.34	4.7485e-07	3.8423e-07	1044.1	201.03	4.3771e-07	4.0014e-07	207.77	70.976	55.895	16.006	4.0526e-07	21.837	71.419	123.985	123.914	31.892	135.191	178.646	32.027	39.369	145.714	222.838	38.799	45.653	46.667	53.731	164.714	52.984	-8191	255	
1156.376	1	1	0	0	0.015173	0.33332	0.15702	0.13391	0.36567	0.20919	0.33435	0.062967	0.080969	0.20185	0.3847	0.26299	0.22418	0.2409	0.081	0.20898	-1.3708	-0.775	-1.1521	-1.6896	-0.60208	-1.2437	-1.4438	-0.75417	-1.5125	-0.925	-0.78542	-1.6333	-0.80625	-1.2833	-1.3396	-0.76875	176.875	101.121	228.017	314.797	198.514	303.133	32.496	253.951	332.636	31.295	309.323	336.877	359.932	380.063	133.905	330.762	0.00038923	0.00018721	9.2851e-05	977.36	3.5009e-06	1.5715e-06	1066.6	203.31	1.9389e-06	1.8736e-06	249.73	71.889	57.15	16.034	2.1944e-06	21.907	5.5372e-05	3.6686e-05	1.1143e-05	958.01	4.7245e-07	3.9711e-07	1046.6	200.92	4.3617e-07	3.7807e-07	207	71.272	56.059	15.98	4.005e-07	21.905	70.257	111.783	114.886	31.867	162.409	140.181	32.088	39.935	150.728	202.519	39.150	45.982	46.610	53.924	152.631	53.262	-8191	255	
1156.497	1	1	0	0	0.073879	0.27773	0.055089	0.33148	0.195	0.30881	0.24921	0.048036	0.22867	0.12068	0.052268	0.31189	0.22022	0.25333	0.14126	0.078119	-1.0771	-1.0562	-0.65625	-1.8062	-0.75833	-1.1688	-1.3604	-0.67292	-1.4396	-1.2542	-1.0104	-1.5792	-0.83125	-1.2875	-1.6437	-0.73125	52.208	243.659	122.945	321.383	242.291	115.944	342.352	48.513	290.699	35.251	33.696	328.390	127.328	45.448	100.943	157.855	0.00036906	0.00027822	8.8735e-05	978.3	3.5347e-06	1.2314e-06	1067.8	204.37	1.9578e-06	2.7622e-06	250.89	72.128	56.791	15.925	1.3492e-06	22.008	5.6728e-05	3.5006e-05	1.0926e-05	959.01	4.548e-07	3.9329e-07	1048	201.35	4.5961e-07	4.1878e-07	206.43	71.324	55.96	15.981	4.0217e-07	21.91	66.892	116.196	110.270	32.151	167.153	132.199	32.203	39.816	178.473	217.752	39.105	45.957	46.346	54.394	171.164	52.920	-8191	255	
1156.568	1	1	0	0	0.15895	0.037093	0.1718	0.028376	0.11814	0.27688	0.15302	0.14186	0.18086	0.097059	0.082521	0.27567	0.096104	0.12459	0.18427	0.090905	-1.0562	-1.3521	-0.8125	-1.6167	-0.84792	-0.97708	-1.6562	-0.95417	-1.3833	-1.5083	-0.73333	-1.675	-1.0854	-0.9625	-1.7083	-0.83958	342.222	237.308	350.876	332.120	96.470	33.210	98.585	321.229	53.234	273.290	258.382	26.409	314.075	60.499	296.792	50.515	0.0003788	0.00024136	5.114e-05	983.86	3.3409e-06	2.5458e-06	1065.4	202.93	2.6175e-06	2.4792e-06	255.77	72.006	57.344	16.118	1.9829e-06	21.996	5.31e-05	3.6022e-05	1.0103e-05	960.87	4.7835e-07	3.8117e-07	1045.4	200.95	4.3383e-07	3.6622e-07	208.07	71.078	56.179	16.006	4.1083e-07	21.851	72.161	103.596	118.753	31.882	149.843	178.895	31.839	39.875	164.064	167.134	39.448	46.325	46.921	53.569	161.103	52.559	-8191	255	
1156.665	1	1	0	0	0.23618	0.1099	0.36364	0.1261	0.2347	0.25852	0.16325	0.21247	0.39404	0.2613	0.18062	0.14259	0.17631	0.12137	0.0909	0.10394	-0.90417	-1.3104	-0.58958	-1.625	-1.0229	-1.0042	-1.8292	-0.86875	-1.1604	-1.3083	-0.69375	-1.6958	-1.0875	-0.80208	-1.6812	-1.1458	102.381	254.491	273.891	198.503	228.090	305.510	310.113	372.577	269.563	266.522	102.365	45.930	53.252	57.519	350.109	210.147	0.0003753	0.00024066	4.5189e-05	980.99	2.41e-06	3.0927e-06	1073.9	203.03	3.8646e-06	1.9149e-06	251.66	72.128	57.034	16.155	2.4448e-06	21.852	5.335e-05	3.6533e-05	1.0351e-05	959.45	4.5289e-07	4.1067e-07	1049.9	200.51	4.3062e-07	3.7938e-07	205.63	71.138	56	16.039	3.9635e-07	21.898	68.757	85.806	113.711	32.308	147.594	192.455	32.764	40.513	174.575	205.431	39.726	46.084	46.522	54.361	171.819	53.188	-8191	255	
1156.785	1	1	0	0	0.21665	0.10654	0.1026	0.11642	0.29097	0.080869	0.2125	0.15024	0.12758	0.15423	0.12731	0.049419	0.092737	0.18851	0.030361	0.14873	-0.88333	-1.5104	-0.62292	-1.6625	-1.1542	-0.82708	-1.7938	-1.075	-0.90833	-1.5854	-0.57708	-1.55	-1.3563	-0.88542	-1.6187	-1.0396	161.237	316.042	103.132	311.287	282.639	203.929	245.346	358.392	177.841	331.191	264.084	220.435	367.733	275.031	268.171	331.405	0.0004021	0.00011129	7.3883e-05	982.09	2.5323e-06	1.7283e-06	1073.3	203.86	2.7876e-06	2.909e-06	249.02	70.911	56.966	16.056	2.7352e-06	22.029	5.409e-05	3.4955e-05	1.044e-05	960.64	4.5302e-07	4.183e-07	1048.5	200.93	4.1983e-07	3.9278e-07	203.97	70.937	56.067	16.017	4.039e-07	21.986	64.642	125.222	100.179	32.468	167.441	167.455	32.232	39.726	184.807	168.567	39.092	46.262	46.398	53.853	159.707	52.911	-8191	255	
1156.880	1	1	0	0	0.028209	0.22348	0.19485	0.37859	0.35617	0.21502	0.12376	0.10446	0.14611	0.10388	0.23841	0.14364	0.1569	0.22294	0.066809	0.21793	-0.63958	-1.4646	-0.75833	-1.525	-1.3646	-0.52917	-1.7437	-1.0667	-0.88333	-1.5729	-0.92292	-1.3521	-1.5375	-0.4375	-1.6	-1.1104	255.183	30.005	132.381	316.470	232.417	107.390	25.407	305.569	175.420	146.261	326.119	346.005	334.230	48.879	309.216	371.880	0.00037841	0.00018969	2.5759e-05	969.17	3.6256e-06	2.3023e-06	1062.9	201.68	1.1246e-06	2.535e-06	253.2	70.608	57.007	15.943	9.5466e-07	21.826	5.5308e-05	3.655e-05	1.038e-05	956.97	4.5548e-07	4.008e-07	1047.2	200.49	4.461e-07	3.7208e-07	205.9	70.822	55.982	15.973	4.034e-07	21.866	70.802	106.746	71.154	31.962	155.236	164.271	31.900	39.478	127.927	189.482	38.361	45.930	46.196	53.873	174.603	53.090	-8191	255	
1156.976	1	1	0	0	0.13381	0.17073	0.26181	0.44176	0.16162	0.15918	0.12112	0.25855	0.10379	0.12004	0.24464	0.056246	0.137	0.025292	0.10952	0.27256	-0.41875	-1.6375	-0.725	-1.3042	-1.5229	-0.75208	-1.6521	-1.1667	-0.75417	-1.4917	-0.72917	-1.3062	-1.5729	-0.70208	-1.3792	-1.2354	176.703	318.489	165.701	328.093	327.410	162.403	249.286	325.869	73.219	185.682	47.155	225.312	315.805	57.909	177.743	121.375	0.00040736	0.00025839	0.00010293	967.57	3.8181e-06	1.8624e-06	1058.5	200.39	2.4679e-06	2.3804e-06	254.2	71.071	56.11	15.749	2.6053e-06	21.682	5.5441e-05	3.5256e-05	9.9045e-06	956.57	4.4342e-07	3.9967e-07	1044.2	199.99	4.3833e-07	3.8542e-07	207.7	70.803	55.882	15.916	4.0316e-07	21.883	71.685	119.170	102.480	32.250	171.533	191.150	32.096	39.869	185.535	194.587	38.314	45.787	46.086	53.284	144.520	52.911	-8191	255	
1157.096	1	1	0	0	0.17336	0.26909	0.054042	0.15114	0.18857	0.090201	0.18039	0.26069	0.07793	0.1059	0.31123	0.32456	0.3076	0.20352	0.10072	0.23218	-0.33125	-1.4271	-0.69167	-1.2625	-1.5271	-0.42292	-1.6625	-1.1562	-0.58333	-1.4458	-0.80625	-1.0063	-1.4625	-0.52917	-1.2708	-1.3958	239.124	372.536	105.968	61.578	101.912	151.738	330.396	26.286	145.038	40.216	290.328	257.347	34.683	344.754	217.305	371.262	0.00036003	0.00021165	5.2361e-05	974.12	3.4322e-06	1.7724e-06	1059.8	202.65	3.8428e-06	3.2861e-06	252.55	71.383	56.965	15.766	2.4496e-06	21.711	5.4787e-05	3.4229e-05	1.0103e-05	959	4.4742e-07	3.9242e-07	1045.1	200.62	4.337e-07	3.7526e-07	206.23	71.093	55.976	15.902	3.9913e-07	21.811	68.481	146.733	93.926	31.830	167.719	152.951	31.718	39.389	164.312	213.841	38.485	45.712	46.022	53.065	141.501	52.097	-8191	255	
1157.193	1	1	0	0	0.15978	0.26142	0.046538	0.17505	0.27235	0.10375	0.33331	0.095294	0.02853	0.17294	0.10527	0.10803	0.12988	0.13777	0.22459	0.10142	-0.175	-1.7208	-0.93125	-1.0333	-1.4521	-0.63958	-1.4708	-1.4958	-0.63125	-1.5479	-1.0521	-0.775	-1.6625	-0.76875	-1.0021	-1.5187	337.138	253.029	59.697	22.163	328.295	46.987	332.591	101.384	115.027	198.743	67.139	270.366	207.303	111.153	364.923	219.593	0.00032828	0.00013014	7.7459e-05	980.13	3.1897e-06	1.5014e-06	1069.5	202.82	3.9245e-06	2.0081e-06	253.6	71.598	57.178	16.039	3.9428e-06	21.907	5.5819e-05	3.5988e-05	1.0735e-05	959.92	4.6021e-07	4.0423e-07	1047.3	200.49	4.5973e-07	4.0762e-07	205.88	71.12	56.133	16.007	3.94e-07	21.884	65.852	91.828	132.755	31.603	163.927	150.423	31.626	38.968	162.741	184.346	38.418	45.594	46.302	53.671	173.792	52.939	-8191	255	
1157.264	1	1	0	0	0.11021	0.15085	0.14323	0.11823	0.1604	0.18693	0.4246	0.22203	0.038471	0.11249	0.21328	0.093252	0.19731	0.11743	0.31514	0.20588	-0.41667	-1.5063	-1.0917	-0.89375	-1.625	-1.0125	-1.3167	-1.5542	-0.60208	-1.4354	-1.125	-0.72083	-1.725	-1.0521	-0.93958	-1.6458	54.791	199.982	249.888	217.400	158.598	92.270	342.244	323.008	217.521	40.396	171.063	279.514	288.051	266.821	269.992	338.066	0.0003701	0.00021086	6.2797e-05	975.77	2.6413e-06	1.9246e-06	1068.4	203.08	3.0642e-06	9.8017e-07	258.54	71.99	56.762	16.021	1.8798e-06	21.926	5.509e-05	3.6874e-05	1.0297e-05	958.17	4.4834e-07	4.0011e-07	1048.4	200.71	4.7835e-07	3.9253e-07	206.92	71.102	55.977	15.961	4.0959e-07	21.9	77.284	112.147	114.608	32.019	147.814	192.643	31.833	39.178	164.147	204.459	38.240	45.666	46.300	53.212	129.477	52.938	-8191	255	
1157.385	1	1	0	0	0.16269	0.17053	0.13672	0.4147	0.32428	0.021032	0.25978	0.16486	0.18757	0.092297	0.16653	0.075904	0.2211	0.16752	0.1925	0.20244	-0.18542	-1.3396	-1.2146	-0.73958	-1.6292	-0.92917	-1.1708	-1.35	-0.80625	-1.375	-1.3875	-0.75833	-1.3417	-1.1208	-0.92083	-1.6771	91.291	186.062	155.968	327.838	83.067	337.183	262.333	351.012	112.924	23.564	118.155	226.002	311.038	30.982	298.275	51.294	0.00040025	0.00014923	7.6591e-05	981.11	3.4417e-06	1.5921e-06	1066.2	202.59	2.3811e-06	2.8249e-06	256.64	71.798	57.185	16.054	1.8845e-06	21.841	5.4989e-05	3.6102e-05	1.0098e-05	959.15	4.4551e-07	3.9323e-07	1047.7	200.65	4.6775e-07	4.2314e-07	206.78	71.001	56.02	15.988	4.5019e-07	21.908	71.170	118.666	120.966	31.990	171.267	155.596	31.881	39.327	159.581	161.220	38.615	45.829	46.463	52.815	166.884	52.258	-8191	255	
1157.481	1	1	0	0	0.23961	0.060314	0.099566	0.17027	0.16162	0.30846	0.19029	0.21898	0.11813	0.48369	0.17761	0.19857	0.11577	0.087912	0.13011	0.11617	-0.37917	-1.3687	-1.6396	-0.84167	-1.4438	-1.0604	-1.2417	-1.4667	-0.74792	-1.1208	-1.4396	-0.95833	-1.7833	-1.2313	-0.83333	-1.5958	270.343	156.551	104.709	37.313	47.225	42.792	320.000	364.148	50.023	204.540	216.563	307.654	48.107	216.477	201.600	139.698	0.00035815	0.00018579	2.4934e-05	976.35	4.2724e-06	2.1318e-06	1067.6	204.56	2.4082e-06	1.9007e-06	259.42	71.634	56.965	16.079	2.4902e-06	21.793	5.6595e-05	3.7089e-05	9.5576e-06	956.8	4.6655e-07	4.1949e-07	1047	201.25	4.6892e-07	4.1622e-07	207.83	71.007	56.013	15.973	4.2445e-07	21.839	62.723	131.806	111.834	31.623	164.936	156.105	31.499	39.466	145.135	171.156	38.771	45.421	46.577	53.470	172.128	52.882	-8191	255	
1157.577	1	1	0	0	0.13756	0.063521	0.050975	0.28462	0.062184	0.20864	0.32164	0.24364	0.080125	0.19253	0.18797	0.15925	0.39343	0.13982	0.22422	0.11095	-0.63333	-1.025	-1.6667	-0.7875	-1.3521	-1.3896	-0.78958	-1.7271	-0.85208	-0.84792	-1.5146	-0.6375	-1.3563	-1.2396	-0.64167	-1.5688	89.700	188.274	337.952	246.811	58.608	312.170	305.724	322.733	192.135	256.609	366.922	371.864	44.898	61.730	68.013	88.197	0.00032831	0.00025669	4.9889e-05	969.36	2.5719e-06	2.5183e-06	1064.7	204.74	3.8101e-06	2.8397e-06	249.2	71.648	57.237	16.069	2.7959e-06	21.931	5.319e-05	3.5591e-05	1.0098e-05	956.43	4.6396e-07	4.1674e-07	1047.4	201.36	4.4814e-07	3.9783e-07	205.78	70.944	56.043	16.045	4.5286e-07	21.884	61.489	139.994	145.521	31.797	165.897	166.503	31.710	39.412	203.160	179.523	38.285	45.500	46.269	52.953	175.711	53.158	-8191	255	
1157.673	1	1	0	0	0.15227	0.053429	0.15252	0.44512	0.14648	0.069807	0.14574	0.27627	0.17442	0.085048	0.13837	0.037435	0.099609	0.23077	0.17708	0.27233	-0.81458	-1.2021	-1.7792	-0.98333	-1.3271	-1.5125	-0.87292	-1.6917	-0.99583	-0.83125	-1.5771	-0.76042	-1.3813	-1.5875	-0.66042	-1.3813	255.720	340.272	251.819	354.535	133.116	120.876	22.348	313.259	105.579	133.613	166.283	246.985	370.281	315.719	239.816	198.226	0.0003851	0.00025774	5.8873e-05	976.94	2.7667e-06	1.7955e-06	1067.5	203.68	2.5007e-06	2.3066e-06	250.46	71.832	56.841	16.026	1.1426e-06	21.79	5.4648e-05	4.0007e-05	9.7889e-06	957.93	4.6673e-07	3.546e-07	1046.8	201.2	4.593e-07	3.9889e-07	207.15	71.017	55.941	15.936	4.3101e-07	21.895	74.263	113.979	98.065	31.836	123.838	152.370	31.933	39.447	150.497	178.772	38.412	45.321	46.092	53.040	159.187	52.697	-8191	255	
1157.792	1	1	0	0	0.15275	0.0099968	0.15611	0.083884	0.41573	0.31814	0.21554	0.1816	0.14706	0.054793	0.17291	0.15321	0.15043	0.2036	0.078196	0.17083	-0.74583	-0.76875	-1.6896	-0.9	-0.975	-1.4375	-0.82708	-1.5187	-1.0854	-0.61875	-1.5521	-0.90417	-1.1271	-1.7083	-0.50208	-1.4667	362.600	67.961	272.166	378.239	202.080	113.561	111.636	351.411	363.230	329.537	191.946	138.476	295.447	325.435	312.181	305.463	0.00036288	0.00014437	6.4828e-05	979.36	3.032e-06	7.6065e-07	1066	203.84	3.2626e-06	2.3079e-06	253.22	71.528	56.859	16.061	3.1098e-06	21.844	5.5606e-05	3.7362e-05	9.3184e-06	958.14	4.5714e-07	3.8117e-07	1044.3	200.67	4.4974e-07	4.1984e-07	208.07	70.968	55.961	15.969	4.3497e-07	21.863	69.918	116.196	107.881	31.793	159.398	209.341	31.873	39.091	162.114	174.341	39.684	45.448	46.303	53.056	163.820	52.737	-8191	255	
1157.864	1	1	0	0	0.083253	0.3354	0.081176	0.12914	0.11262	0.10238	0.27983	0.37516	0.26955	0.26658	0.094618	0.23012	0.015786	0.20492	0.27178	0.22943	-0.87708	-0.72708	-1.7125	-1.0042	-1.0208	-1.4708	-0.88333	-1.4667	-1.3542	-0.8	-1.6313	-1.0854	-1.0479	-1.4688	-0.775	-1.3104	147.609	203.485	290.704	44.725	276.595	372.047	330.683	340.028	343.847	31.900	45.480	86.087	57.313	286.842	367.541	241.963	0.00032357	0.00031732	3.4957e-05	974.32	4.164e-06	2.4894e-06	1065.7	203.14	2.777e-06	3.1556e-06	259.64	71.645	56.824	15.827	1.9639e-06	21.927	5.5877e-05	3.8639e-05	1.0272e-05	956.8	4.5468e-07	3.6085e-07	1046.7	200.75	4.4561e-07	4.3312e-07	207.75	70.918	56.053	15.91	4.3064e-07	21.877	59.568	100.365	123.145	31.558	156.604	170.229	31.753	39.385	162.042	180.501	38.178	45.716	46.131	53.914	164.718	52.680	-8191	255	
1157.960	1	1	0	0	0.24479	0.21956	0.34539	0.13356	0.15827	0.038402	0.24658	0.36714	0.20789	0.18089	0.098111	0.29046	0.076465	0.19169	0.08458	0.050258	-1.0562	-0.72083	-1.4458	-1.2125	-0.93125	-1.5812	-0.82917	-1.3792	-1.4708	-0.74375	-1.4688	-1.0063	-0.79583	-1.4062	-0.91042	-1.2021	118.772	28.130	314.991	52.378	71.355	346.026	32.186	379.356	158.868	236.196	165.719	230.693	204.030	82.890	114.483	253.384	0.00035964	0.00012898	5.8642e-05	981.61	1.9792e-06	5.9934e-07	1070.8	203.19	3.0466e-06	3.8314e-06	256.07	71.23	56.968	16.025	2.1621e-06	21.755	5.3488e-05	3.9485e-05	1.0161e-05	959.3	4.6538e-07	3.8804e-07	1047.8	200.41	4.3685e-07	4.343e-07	207.89	70.822	56.038	16.01	4.2729e-07	21.852	75.858	57.055	143.843	31.933	165.357	190.222	31.910	39.386	173.942	189.497	39.676	45.424	46.260	53.397	105.963	53.245	-8191	255	
1158.056	1	1	0	0	0.038233	0.21886	0.28847	0.20051	0.20368	0.074795	0.28272	0.054025	0.025804	0.1256	0.06295	0.4519	0.19082	0.14214	0.17484	0.15009	-1.1125	-0.6375	-1.4208	-1.5063	-0.72708	-1.7188	-1.0479	-1.0063	-1.6875	-0.76875	-1.3271	-1.4271	-0.81042	-1.6958	-1.025	-1.0854	111.801	134.155	163.494	35.848	182.651	360.064	330.344	303.263	360.078	179.267	275.413	313.120	27.303	47.924	82.019	346.181	0.00038558	8.6944e-05	7.5185e-05	978.99	4.363e-06	2.8281e-06	1067.5	204.51	4.4659e-06	1.4689e-06	256.79	72.119	56.851	15.959	2.607e-06	21.864	5.3132e-05	4.0421e-05	1.0091e-05	958.48	4.9342e-07	4.1461e-07	1046.4	200.91	4.4869e-07	4.103e-07	208.15	71.087	55.947	15.987	4.4747e-07	21.866	72.447	164.081	92.297	31.740	199.494	152.335	31.839	39.448	171.552	160.358	39.065	45.582	46.338	53.553	165.607	53.082	-8191	255	
1158.177	1	1	0	0	0.19738	0.17008	0.25525	0.30113	0.16846	0.22653	0.30882	0.086299	0.18203	0.10091	0.19283	0.18611	0.07459	0.11953	0.16218	0.046537	-1.3792	-0.8625	-1.3292	-1.5646	-0.87708	-1.5583	-1.1604	-0.97292	-1.6562	-0.83125	-1.2354	-1.5688	-0.72917	-1.6208	-0.98542	-0.99792	222.393	198.209	34.484	358.787	272.930	354.438	353.874	244.185	102.588	341.636	93.020	152.855	225.789	196.847	315.358	332.734	0.00034976	0.00022971	9.1602e-05	974.8	2.7362e-06	1.2388e-06	1067.3	203.72	2.7429e-06	1.6424e-06	258.15	71.755	56.721	15.949	2.6902e-06	21.749	5.5521e-05	4.0132e-05	1.0166e-05	956.86	4.754e-07	3.8998e-07	1046.7	201.12	4.181e-07	4.3013e-07	208.53	71.04	56.016	15.973	4.2228e-07	21.811	69.265	119.447	100.429	31.758	167.563	198.914	31.834	39.439	153.655	199.625	38.822	45.568	46.039	53.604	182.697	53.155	-8191	255	
1158.273	1	1	0	0	0.11033	0.052918	0.25945	0.17838	0.18713	0.21886	0.091679	0.24393	0.15584	0.34453	0.13652	0.12724	0.45634	0.26344	0.081952	0.16406	-1.0375	-0.74792	-1.1667	-1.475	-0.52292	-1.4458	-1.2542	-1.0063	-1.4875	-0.88542	-1.1562	-1.5438	-0.80833	-1.4417	-1.1979	-0.88958	51.915	153.344	90.375	359.268	263.243	264.961	221.314	269.585	362.754	224.212	208.392	89.265	353.466	134.935	308.506	81.466	0.00039475	0.00024181	1.6311e-05	978.58	2.9696e-06	1.578e-06	1066.9	204.27	1.5066e-06	2.4579e-06	252.47	71.895	56.633	15.956	1.5176e-06	21.745	5.4441e-05	3.7509e-05	1.0213e-05	957.71	5.003e-07	3.8573e-07	1046.5	201.23	4.2106e-07	4.1541e-07	207.45	71.08	55.893	15.971	4.0953e-07	21.823	74.330	100.242	126.891	31.974	171.444	188.511	31.741	39.374	169.736	180.859	38.399	45.094	46.555	53.339	134.710	52.463	-8191	255	
1158.369	1	1	0	0	0.098823	0.24955	0.034437	0.31235	0.29375	0.069755	0.33435	0.063793	0.032238	0.25569	0.24572	0.31509	0.15468	0.13082	0.15862	0.15207	-1.1	-0.83333	-1.2646	-1.7167	-0.71667	-1.3125	-1.5292	-0.74792	-1.5729	-0.93958	-0.79167	-1.8188	-0.74583	-1.3062	-1.2375	-0.65417	356.945	146.621	193.386	357.126	219.631	293.557	305.239	226.993	243.202	249.933	114.596	123.268	345.956	57.867	179.624	95.036	0.00039665	0.00011988	6.9374e-05	976.37	2.4402e-06	1.2168e-06	1063.3	202.65	3.8985e-06	2.2378e-06	254.88	71.357	57.194	16.19	1.6533e-06	21.846	5.5835e-05	3.6584e-05	1.0852e-05	956.99	5.0295e-07	4.0636e-07	1045.3	200.8	4.6096e-07	4.1111e-07	207.44	70.835	56.076	16.08	4.2086e-07	21.838	71.180	99.274	111.035	31.844	176.919	183.494	31.815	39.469	161.683	190.686	40.836	45.887	46.432	53.719	119.453	53.183	-8191	255	
1158.465	1	1	0	0	0.10648	0.14525	0.38804	0.23082	0.25988	0.16361	0.058463	0.11462	0.17736	0.27606	0.13235	0.22551	0.041872	0.082681	0.1741	0.21123	-1.1979	-1.0979	-0.87917	-1.6625	-0.74375	-1.0896	-1.4646	-0.94167	-1.3417	-1.0812	-0.81458	-1.8	-0.86875	-1.1125	-1.6417	-0.77917	114.231	176.896	282.822	283.129	278.158	142.891	235.975	23.200	89.250	281.666	191.420	194.711	284.207	200.788	33.106	52.602	0.00036991	0.00016915	4.6558e-05	981.48	2.6588e-06	1.4314e-06	1070.7	203.09	2.9876e-06	1.6697e-06	258.05	71.675	57.122	15.896	9.9074e-07	21.822	5.427e-05	3.7748e-05	1.0602e-05	958.24	4.7189e-07	4.128e-07	1047.3	200.52	4.4302e-07	4.0725e-07	208.53	70.916	56.082	15.929	4.151e-07	21.862	69.529	132.612	142.939	32.079	154.299	83.547	32.368	40.151	169.862	218.646	39.234	46.562	47.176	54.196	99.782	54.067	-8191	255	
1158.561	1	1	0	0	0.018959	0.11502	0.13627	0.14289	0.1091	0.093717	0.17683	0.19487	0.30865	0.083051	0.24977	0.17088	0.068968	0.18504	0.26956	0.04463	-1.0438	-1.1875	-0.83958	-1.7146	-0.7375	-1.0979	-1.7292	-0.86042	-1.2271	-1.4937	-0.55833	-1.6396	-0.86875	-0.96458	-1.7271	-0.80208	267.018	21.802	148.658	47.644	61.718	75.823	308.715	283.709	332.817	181.684	255.665	358.527	285.531	254.960	119.445	265.308	0.00037704	0.00016629	8.0856e-05	981.27	3.5975e-06	2.0114e-06	1064.9	203.83	2.9861e-06	2.0437e-06	253.58	71.172	56.649	16.062	2.2887e-06	21.848	5.4978e-05	3.6891e-05	1.1276e-05	959.26	4.7669e-07	4.2311e-07	1046.5	200.64	4.4117e-07	4.0438e-07	208.1	70.859	55.891	15.963	4.1801e-07	21.888	71.973	124.394	133.994	31.943	151.178	218.865	31.900	39.769	150.006	229.698	37.286	45.747	46.246	52.996	140.213	52.691	-8191	255	
1158.658	1	1	0	0	0.12312	0.15263	0.13806	0.39984	0.0045629	0.32506	0.42704	0.16665	0.097912	0.38951	0.12516	0.11911	0.1514	0.098252	0.18399	0.10257	-0.9125	-1.2792	-0.7625	-1.7271	-0.78333	-1.0521	-1.7271	-0.875	-1.3708	-1.3229	-0.64792	-1.5312	-1.0688	-1.0771	-1.5625	-0.8875	167.011	52.148	97.520	291.679	276.272	30.500	288.793	294.555	261.024	62.590	310.981	378.259	35.893	263.061	208.604	190.154	0.00033902	0.00019031	5.5528e-05	981.17	1.8032e-06	2.0715e-06	1071	203.01	4.1593e-06	2.2824e-06	254.18	71.83	56.988	15.936	2.5724e-06	22.1	5.4223e-05	3.6703e-05	1.048e-05	959.07	4.9514e-07	4.3606e-07	1046.7	199.81	4.7342e-07	3.7663e-07	208.49	70.981	55.883	15.929	4.2228e-07	21.916	73.810	99.810	125.421	32.654	166.083	158.103	32.765	39.980	175.179	196.209	40.421	45.680	47.032	54.257	163.141	53.529	-8191	255	
1158.776	1	1	0	0	0.16573	0.27024	0.058075	0.15627	0.14368	0.23927	0.27292	0.20036	0.23712	0.30902	0.15789	0.21702	0.072002	0.10356	0.34909	0.1836	-0.9375	-1.6875	-0.67917	-1.5958	-1.2	-0.9125	-1.8687	-0.84583	-1.1479	-1.6083	-0.66458	-1.4979	-1.1562	-0.69167	-1.5083	-0.96875	64.344	90.912	176.986	357.346	374.317	320.021	300.826	69.918	239.328	335.495	126.633	69.394	107.029	285.853	35.899	303.597	0.000386	0.00014321	3.997e-05	975.81	4.4524e-06	3.23e-06	1063	203.06	2.6308e-06	2.7148e-06	260.35	71.99	56.717	16.01	2.1765e-06	21.81	5.5909e-05	3.5773e-05	1.0952e-05	957.91	4.6488e-07	4.033e-07	1046.8	200.61	4.4234e-07	3.896e-07	207.64	71.074	55.932	15.944	4.06e-07	21.848	69.106	125.471	121.861	32.056	132.729	177.321	31.870	39.389	161.535	168.496	39.045	45.538	46.149	53.869	135.239	52.840	-8191	255	
1158.873	1	1	0	0	0.10669	0.10149	0.09592	0.32639	0.19981	0.13238	0.41545	0.19174	0.20656	0.091217	0.134	0.11596	0.26276	0.19243	0.16	0.14262	-0.62917	-1.5479	-0.65625	-1.5042	-1.3625	-0.7875	-1.7771	-1.0229	-0.72708	-1.6	-0.77083	-1.3396	-1.5417	-0.71458	-1.6354	-1.0312	105.183	297.148	251.140	336.386	213.552	356.160	263.100	354.535	111.324	312.212	25.016	326.950	296.714	74.387	346.885	316.270	0.00036647	0.00025486	8.2107e-05	979.07	3.3388e-06	1.806e-06	1061	203.86	1.4654e-06	2.7458e-06	253.57	71.228	56.192	15.952	2.4991e-06	21.977	5.6101e-05	3.6556e-05	1.0066e-05	957.77	4.6249e-07	4.1661e-07	1044.3	200.35	4.5689e-07	3.8917e-07	207.07	71.002	55.788	15.953	4.2476e-07	21.821	73.165	114.439	122.695	31.982	170.794	147.757	31.924	39.190	180.274	184.658	38.816	45.789	46.348	53.528	118.752	52.919	-8191	255	
1158.969	1	1	0	0	0.1071	0.072994	0.051815	0.19383	0.11362	0.042576	0.22597	0.062879	0.15698	0.23174	0.35465	0.20657	0.033633	0.2869	0.38899	0.13669	-0.37708	-1.7542	-0.76042	-1.5917	-1.4729	-0.71667	-1.9208	-1.0979	-0.85	-1.8271	-0.825	-1.2125	-1.4896	-0.78333	-1.4708	-1.1562	210.800	70.548	251.842	335.788	198.097	358.089	283.916	236.481	185.542	229.468	266.895	106.511	179.108	37.941	160.010	36.224	0.00042369	0.00019346	6.3491e-05	980.68	2.733e-06	2.3333e-06	1063.8	203.67	3.4222e-06	2.6852e-06	253.84	72.049	57.062	16.005	2.3858e-06	21.862	5.3903e-05	3.319e-05	1.0022e-05	957.87	4.4988e-07	3.8229e-07	1045.3	200.83	4.7589e-07	3.5955e-07	207.36	71.082	55.914	15.938	4.1417e-07	21.827	69.945	126.001	106.974	31.860	128.291	186.757	31.866	39.315	154.636	189.233	39.670	45.607	45.667	53.372	166.203	52.594	-8191	255	
1159.088	1	1	0	0	0.26841	0.25488	0.12374	0.38462	0.2208	0.11541	0.12374	0.11628	0.33678	0.18442	0.13421	0.12363	0.052748	0.18496	0.28205	0.073432	-0.29583	-1.6792	-0.91042	-1.1271	-1.3854	-0.68542	-1.6812	-1.2604	-0.69167	-1.5375	-0.93125	-1.1063	-1.5021	-0.58125	-1.2563	-1.4875	114.137	255.429	115.137	322.360	150.903	60.866	351.497	316.187	136.416	49.968	186.622	23.676	93.313	364.605	245.449	376.438	0.00033595	0.00025633	2.8213e-05	974.29	2.1403e-06	2.8998e-06	1073.2	202.64	3.3423e-06	2.3216e-06	261.59	71.942	56.57	15.922	1.5737e-06	21.903	5.4967e-05	3.5097e-05	1.003e-05	955.35	4.3057e-07	4.218e-07	1050	200.28	4.7151e-07	3.9359e-07	206.35	71.081	55.834	15.911	4.2965e-07	21.883	68.637	117.923	107.030	31.406	162.433	181.924	31.558	39.042	199.785	162.205	38.970	45.589	45.956	53.068	157.476	52.348	-8191	255	
1159.159	1	1	0	0	0.14862	0.31159	0.13157	0.24496	0.030786	0.22894	0.18248	0.16204	0.26475	0.14314	0.18476	0.092153	0.2481	0.37719	0.18273	0.23676	-0.1875	-1.6646	-1.0792	-1.05	-1.6854	-0.86667	-1.3188	-1.5042	-0.925	-1.6354	-1.0438	-1.1021	-1.5854	-0.90833	-1.1271	-1.6063	134.421	370.103	48.363	302.457	379.684	357.586	33.820	318.978	80.000	111.919	164.727	228.728	246.390	311.466	277.994	308.394	0.00039289	0.00017531	7.1177e-05	977.96	3.943e-06	2.7381e-06	1058.1	204.12	2.2546e-06	6.7543e-07	249.92	71.438	56.822	15.875	2.465e-06	21.855	5.5079e-05	3.2662e-05	1.0286e-05	958.32	4.6482e-07	3.9436e-07	1045.6	200.87	4.551e-07	3.7776e-07	207.09	70.941	56.02	15.929	4.1331e-07	21.826	67.877	91.211	102.042	31.897	153.878	164.838	31.555	39.313	159.953	212.715	37.065	45.528	46.372	53.168	157.564	52.080	-8191	255	
1159.255	1	1	0	0	0.1556	0.14219	0.094995	0.21269	0.10054	0.16314	0.052188	0.17001	0.16418	0.097526	0.18171	0.11111	0.12597	0.19229	0.13346	0.22285	-0.3125	-1.5896	-0.875	-0.95	-1.6875	-0.725	-1.3229	-1.5083	-0.77708	-1.5312	-1.2812	-0.78333	-1.6729	-0.97083	-1.1833	-1.4813	219.041	193.700	77.058	350.404	183.024	173.497	235.156	35.378	206.100	332.453	356.013	302.148	224.819	130.345	54.857	109.775	0.00040137	0.00017112	6.6869e-05	975.03	3.4693e-06	1.0915e-06	1056.3	200.64	7.9665e-07	2.4506e-06	248.78	71.744	57.053	16.042	2.8358e-06	21.859	5.9032e-05	3.5841e-05	1.0901e-05	957.47	4.5898e-07	3.7848e-07	1042.9	199.65	4.5338e-07	3.8013e-07	204.74	71.087	55.937	15.923	4.4271e-07	21.818	67.304	101.362	90.553	31.865	159.307	203.705	31.483	39.154	201.663	195.269	38.512	45.803	46.166	53.291	142.691	52.554	-8191	255	
1159.352	1	1	0	0	0.27403	0.13685	0.092307	0.15561	0.12611	0.03544	0.35577	0.24541	0.26943	0.18169	0.20811	0.18125	0.24245	0.06041	0.27008	0.064461	-0.56042	-1.4542	-1.3083	-0.7625	-1.5167	-0.83542	-1.1187	-1.7479	-0.7625	-1.3083	-1.3563	-0.75625	-1.3625	-0.91875	-0.8875	-1.8271	242.656	378.762	231.259	345.026	346.151	148.914	317.682	233.311	371.033	256.096	232.140	43.242	107.347	195.650	287.762	247.331	0.00042018	0.00020008	6.3621e-05	977.03	3.6059e-06	2.0355e-06	1065.8	202.5	3.6201e-06	2.1023e-06	256.14	71.546	57.025	15.998	1.5349e-06	21.854	5.4643e-05	3.7407e-05	9.6954e-06	957.53	4.406e-07	3.5066e-07	1046	200.44	4.5393e-07	3.6934e-07	205.22	70.84	55.933	15.972	4.1603e-07	21.877	75.355	110.076	133.265	31.720	129.113	223.712	31.814	39.265	160.691	192.384	37.401	45.213	46.185	53.355	105.392	52.839	-8191	255	
1159.472	1	1	0	0	0.05868	0.29893	0.2499	0.29704	0.15611	0.10543	0.396	0.17288	0.18303	0.36791	0.15723	0.16473	0.19841	0.20259	0.11716	0.25763	-0.26667	-1.2625	-1.3125	-0.9375	-1.5292	-1.2792	-1.0708	-1.7188	-0.76458	-1.3583	-1.5854	-0.59583	-1.3771	-1.2521	-0.88125	-1.7875	104.515	372.690	37.989	52.026	31.647	130.805	321.981	353.314	111.592	76.457	203.760	63.440	374.880	332.610	325.388	177.262	0.00041456	0.0002425	3.3711e-05	976.64	3.4391e-06	2.1673e-06	1063.6	202	3.3255e-06	2.0366e-06	254.76	70.75	57.091	15.802	1.1579e-06	21.955	5.3659e-05	3.5455e-05	9.8728e-06	957.47	4.5388e-07	3.8273e-07	1046.9	200.31	4.4037e-07	3.7776e-07	206.81	70.841	56.083	15.952	4.3187e-07	21.893	79.125	108.247	148.565	31.838	137.704	173.863	31.479	39.051	199.420	198.651	39.313	45.263	46.261	52.932	130.857	52.579	-8191	255	
1159.568	1	1	0	0	0.1191	0.14758	0.17686	0.11338	0.083384	0.21736	0.30435	0.036074	0.30004	0.23262	0.10586	0.28211	0.12509	0.22165	0.11982	0.068873	-0.55417	-1.2167	-1.5417	-0.87917	-1.375	-1.3146	-1.1604	-1.6792	-0.83333	-1.15	-1.6604	-0.75833	-1.4854	-1.3792	-0.80833	-1.6562	181.072	98.708	182.096	31.615	342.483	78.805	257.665	313.903	166.461	152.562	115.587	295.046	138.591	55.467	187.374	154.156	0.00040708	9.1574e-05	6.1755e-05	976.91	3.0567e-06	4.1035e-06	1068.3	201.51	3.3296e-06	3.1515e-06	252.82	70.977	55.937	15.703	1.6907e-06	21.625	5.3781e-05	3.9065e-05	9.7176e-06	957.82	4.4103e-07	3.8279e-07	1048.6	200.49	4.3253e-07	3.9147e-07	206.31	70.763	55.684	15.894	4.2835e-07	21.8	70.717	89.378	121.496	31.896	139.643	166.654	31.577	38.947	164.073	214.085	38.709	45.370	45.800	53.296	194.189	52.479	-8191	255	
1159.664	1	1	0	0	0.15045	0.12198	0.026209	0.35608	0.085237	0.2125	0.15416	0.23657	0.34607	0.097017	0.36505	0.23155	0.19486	0.23729	0.11272	0.09793	-0.68333	-1.175	-1.6979	-0.83958	-1.4937	-1.4958	-0.925	-1.5167	-0.85833	-0.83333	-1.6833	-0.78958	-1.1562	-1.225	-0.68333	-1.7167	68.510	53.159	168.191	38.010	81.015	274.522	346.740	284.538	257.828	267.036	83.652	333.465	262.959	175.287	293.790	163.889	0.00032737	0.00017315	5.7824e-05	968.58	2.8287e-06	1.9705e-06	1059.2	200.6	2.7763e-06	2.199e-06	249.5	70.913	56.812	15.642	2.1436e-06	21.588	5.5696e-05	3.6431e-05	9.2075e-06	956.07	4.3383e-07	3.7235e-07	1046.4	200.06	4.3784e-07	4.0594e-07	207.48	70.757	56.012	15.924	4.1838e-07	21.78	65.874	95.124	108.442	31.478	185.233	137.911	31.465	39.085	141.650	178.633	39.393	45.502	45.845	53.192	138.189	52.113	-8191	255	
1159.736	1	1	0	0	0.048971	0.20947	0.1902	0.24878	0.097321	0.18787	0.31462	0.30018	0.3757	0.10529	0.38013	0.2493	0.17904	0.095897	0.20234	0.12256	-0.58333	-0.72083	-1.5208	-0.92708	-1.125	-1.5625	-0.97083	-1.4958	-1.1	-0.95208	-1.575	-1.0146	-1.1333	-1.6771	-0.58542	-1.6479	283.867	303.134	231.116	76.222	342.201	274.785	318.130	365.500	120.027	113.068	293.962	366.515	313.834	128.165	207.031	346.931	0.00030191	0.00016175	6.5031e-05	964.94	3.1172e-06	1.4341e-06	1049.2	200.96	2.0563e-06	3.6237e-06	253.26	70.515	56.262	15.682	3.0239e-06	21.433	5.3414e-05	3.4859e-05	9.4213e-06	954.49	4.2166e-07	3.6366e-07	1041.9	200.17	4.3037e-07	4.0943e-07	207.72	70.533	55.896	15.894	4.1015e-07	21.678	73.557	104.594	101.122	31.392	145.393	172.564	31.260	39.286	204.924	187.941	38.985	44.905	46.087	52.803	167.031	52.188	-8191	255	
1159.857	1	1	0	0	0.17448	0.19504	0.15903	0.24951	0.1245	0.32575	0.274	0.19651	0.081086	0.12811	0.37716	0.14808	0.29852	0.2337	0.08091	0.26215	-0.90417	-0.58958	-1.5938	-0.95	-0.82708	-1.4854	-1	-1.3104	-1.3188	-0.71458	-1.425	-0.91667	-0.7625	-1.6771	-0.62708	-1.3188	191.580	249.594	39.899	362.708	335.734	201.013	346.163	365.322	172.099	32.783	117.369	379.149	299.340	124.302	362.460	307.856	0.00036851	0.00014513	4.5663e-05	967.08	3.6249e-06	2.1469e-06	1051.3	199.72	2.6592e-06	1.7151e-06	248.29	71.068	56.42	15.833	1.7845e-06	21.509	5.1956e-05	3.4019e-05	9.4277e-06	955.12	4.4127e-07	3.5553e-07	1041.9	199.8	4.3605e-07	3.9496e-07	203.49	70.744	56.057	15.911	4.1195e-07	21.756	72.017	118.074	119.663	31.282	158.074	178.590	31.259	38.977	148.827	154.320	38.637	45.477	46.230	53.252	160.018	52.557	-8191	255	
1159.953	1	1	0	0	0.32083	0.053864	0.28317	0.2391	0.10891	0.14758	0.31243	0.057074	0.086683	0.091549	0.071033	0.20193	0.06984	0.26373	0.13198	0.11597	-0.97708	-0.68125	-1.5	-1.2583	-0.925	-1.6583	-0.84792	-1.2479	-1.4646	-0.475	-1.6063	-1.1104	-0.91042	-1.5771	-0.86458	-1.1896	106.495	28.242	337.123	301.570	117.945	375.062	314.511	246.451	287.092	76.448	181.781	356.932	199.371	209.847	380.617	340.203	0.00043675	0.00021857	5.5475e-05	968.47	3.1106e-06	2.4165e-06	1054.6	201.53	3.3428e-06	2.5975e-06	254.01	70.928	55.956	15.916	2.3769e-06	21.459	5.393e-05	3.5676e-05	9.5449e-06	956	4.5123e-07	3.4822e-07	1044.2	200.61	4.1015e-07	3.9827e-07	206.76	70.742	55.776	15.961	4.0204e-07	21.745	68.918	105.593	130.778	31.397	112.690	150.395	31.315	39.241	168.162	178.070	38.756	45.036	46.071	52.784	164.017	52.235	-8191	255	
1160.049	1	1	0	0	0.40338	0.37876	0.10467	0.16253	0.22374	0.22	0.080695	0.15571	0.26425	0.11016	0.11057	0.19441	0.087882	0.037142	0.3873	0.032482	-1.0354	-0.76667	-1.5833	-1.3479	-0.6	-1.6229	-0.99792	-1.1979	-1.55	-0.64583	-1.2708	-1.2687	-0.81458	-1.6	-0.99167	-0.94792	206.765	36.350	349.287	294.731	172.437	303.036	174.764	349.462	327.243	303.003	340.561	29.695	314.314	135.319	217.546	371.192	0.00040346	0.00014524	5.6293e-05	975.01	3.2587e-06	2.1085e-06	1057	201.33	3.6802e-06	1.6087e-06	258.1	70.793	56.321	15.817	3.6235e-06	21.863	5.3265e-05	3.4439e-05	9.4863e-06	958.26	4.6261e-07	3.5266e-07	1043	200.1	4.1101e-07	3.8935e-07	207.79	70.681	55.936	15.951	3.8539e-07	21.842	69.401	124.020	103.017	31.430	172.005	184.604	31.322	38.816	160.371	191.418	38.590	45.551	46.482	53.133	159.774	52.838	-8191	255	
1160.168	1	1	0	0	0.30957	0.30556	0.074085	0.41442	0.25992	0.23119	0.1943	0.22014	0.097034	0.19775	0.19541	0.24568	0.34693	0.22467	0.053561	0.24385	-1.0979	-0.82292	-1.4875	-1.6021	-0.71458	-1.4917	-1.3312	-0.87917	-1.4896	-0.77708	-1.2812	-1.3479	-0.85625	-1.5	-0.91042	-0.86875	192.457	168.702	312.635	24.518	141.549	159.506	323.066	330.880	22.386	91.715	359.588	313.167	329.734	220.896	229.462	185.091	0.00036194	0.00018175	7.514e-05	974.41	4.1703e-06	2.012e-06	1058.6	202.69	3.6848e-06	2.3245e-06	249.1	71.73	57.125	15.98	2.5064e-06	21.863	5.2414e-05	3.4932e-05	9.1995e-06	956.86	4.5314e-07	3.711e-07	1043.3	200.35	4.1903e-07	3.863e-07	205.81	70.915	55.996	15.908	3.9548e-07	21.835	70.381	127.112	143.126	31.860	148.357	170.321	31.907	39.183	172.435	213.949	39.519	45.262	45.967	52.926	125.135	53.135	-8191	255	
1160.264	1	1	0	0	0.1841	0.11056	0.15608	0.13789	0.094928	0.081472	0.11182	0.020107	0.065904	0.151	0.23171	0.16505	0.1407	0.21487	0.26535	0.10628	-1.0354	-0.6375	-1.2021	-1.5958	-0.63125	-1.6042	-1.2375	-0.80417	-1.7188	-0.7875	-1.0667	-1.3792	-0.6875	-1.6021	-1.3625	-0.84792	204.745	33.020	137.563	38.291	72.601	346.551	331.322	268.513	335.854	332.720	76.294	308.089	267.090	281.628	346.202	282.791	0.00035228	0.00035391	4.2822e-05	975.78	2.9812e-06	8.8142e-07	1064.8	202.11	2.8441e-06	1.7922e-06	258.99	71.099	57.086	15.945	1.4875e-06	21.925	5.0195e-05	3.7254e-05	9.7683e-06	958.96	4.2848e-07	3.9223e-07	1046.3	200.28	4.2587e-07	4.0469e-07	207.5	70.717	55.895	15.973	4.0099e-07	21.854	70.000	115.517	134.483	31.936	155.968	143.364	31.775	39.455	172.263	191.409	38.479	45.506	46.124	52.967	135.711	52.733	-8191	255	
#DATA ENDS
