BOXY.EXE: ISS Imagent and Oximeter Data Acquisition Program Version 0.80
Ascii Record File

#ACQ INFORMATION
2  Detector Channels 
16  External MUX Channels 
1  Auxiliary Channels 
5000  Waveform (CCF) Frequency (Hz)
1  Waveforms Skipped 
30  Waveforms Averaged 
1  Cycles Averaged 
16  Acquisitions per Waveform 
10.0806  Updata Rate (Hz) 

#FILE INFORMATION
TRUE -- External MUX Channel results are PARSED.
FALSE -- AC DC and Phase are NOT grouped.
TRUE -- Companion Program Settings File CREATED.
FALSE -- AC data not excluded
FALSE -- DC data not excluded
FALSE -- Phase data not excluded
FALSE -- Auxillary Chn. data not excluded
Tab delimiters

#CALIBRATION STATE
TRUE -- Waveform Calibration Values APPLIED.


#AUX CALIBRATION VALUES
Val Type	aux-1	

Term	1.0000e+00	
Factor	0.0000e+00	


#WF CALIBRATION VALUES
A = Detector Channel
Val Type	A-AC1	A-AC2	A-AC3	A-AC4	A-AC5	A-AC6	A-AC7	A-AC8	A-AC9	A-AC10	A-AC11	A-AC12	A-AC13	A-AC14	A-AC15	A-AC16	A-DC1	A-DC2	A-DC3	A-DC4	A-DC5	A-DC6	A-DC7	A-DC8	A-DC9	A-DC10	A-DC11	A-DC12	A-DC13	A-DC14	A-DC15	A-DC16	A-Ph1	A-Ph2	A-Ph3	A-Ph4	A-Ph5	A-Ph6	A-Ph7	A-Ph8	A-Ph9	A-Ph10	A-Ph11	A-Ph12	A-Ph13	A-Ph14	A-Ph15	A-Ph16	

Term	0.00000e+00	0.00000e+00	0.00000e+00	0.00000e+00	0.00000e+00	0.00000e+00	0.00000e+00	0.00000e+00	0.00000e+00	0.00000e+00	0.00000e+00	0.00000e+00	0.00000e+00	0.00000e+00	0.00000e+00	0.00000e+00	0.00000e+00	0.00000e+00	0.00000e+00	0.00000e+00	0.00000e+00	0.00000e+00	0.00000e+00	0.00000e+00	0.00000e+00	0.00000e+00	0.00000e+00	0.00000e+00	0.00000e+00	0.00000e+00	0.00000e+00	0.00000e+00	0.00000e+00	0.00000e+00	0.00000e+00	0.00000e+00	0.00000e+00	0.00000e+00	0.00000e+00	0.00000e+00	0.00000e+00	0.00000e+00	0.00000e+00	0.00000e+00	0.00000e+00	0.00000e+00	0.00000e+00	0.00000e+00	
Factor	1.00000e+00	1.00000e+00	1.00000e+00	1.00000e+00	1.00000e+00	1.00000e+00	1.00000e+00	1.00000e+00	1.00000e+00	1.00000e+00	1.00000e+00	1.00000e+00	1.00000e+00	1.00000e+00	1.00000e+00	1.00000e+00	1.00000e+00	1.00000e+00	1.00000e+00	1.00000e+00	1.00000e+00	1.00000e+00	1.00000e+00	1.00000e+00	1.00000e+00	1.00000e+00	1.00000e+00	1.00000e+00	1.00000e+00	1.00000e+00	1.00000e+00	1.00000e+00	X	X	X	X	X	X	X	X	X	X	X	X	X	X	X	X	

B = Detector Channel
Val Type	B-AC1	B-AC2	B-AC3	B-AC4	B-AC5	B-AC6	B-AC7	B-AC8	B-AC9	B-AC10	B-AC11	B-AC12	B-AC13	B-AC14	B-AC15	B-AC16	B-DC1	B-DC2	B-DC3	B-DC4	B-DC5	B-DC6	B-DC7	B-DC8	B-DC9	B-DC10	B-DC11	B-DC12	B-DC13	B-DC14	B-DC15	B-DC16	B-Ph1	B-Ph2	B-Ph3	B-Ph4	B-Ph5	B-Ph6	B-Ph7	B-Ph8	B-Ph9	B-Ph10	B-Ph11	B-Ph12	B-Ph13	B-Ph14	B-Ph15	B-Ph16	

Term	0.00000e+00	0.00000e+00	0.00000e+00	0.00000e+00	0.00000e+00	0.00000e+00	0.00000e+00	0.00000e+00	0.00000e+00	0.00000e+00	0.00000e+00	0.00000e+00	0.00000e+00	0.00000e+00	0.00000e+00	0.00000e+00	0.00000e+00	0.00000e+00	0.00000e+00	0.00000e+00	0.00000e+00	0.00000e+00	0.00000e+00	0.00000e+00	0.00000e+00	0.00000e+00	0.00000e+00	0.00000e+00	0.00000e+00	0.00000e+00	0.00000e+00	0.00000e+00	-8.19620e+01	-1.31387e+02	-1.23947e+02	-1.82180e+02	-6.73124e+01	-7.06461e+01	-1.57453e+02	-1.62015e+02	-5.26248e+01	-5.03545e+01	-1.74207e+02	-1.70246e+02	-1.81558e+02	-1.76604e+02	-6.38946e+01	-1.49731e+02	
Factor	1.74277e-05	1.42447e-04	4.46277e-05	1.46431e-01	1.15311e-06	1.52853e-06	1.67333e-01	5.49476e-02	1.18619e-06	1.77604e-06	9.88515e-02	2.93754e-02	2.77491e-02	9.55186e-03	1.29905e-06	1.36949e-02	3.85813e-06	4.49126e-06	1.24776e-06	7.72237e-02	4.81768e-08	4.92794e-08	8.25847e-02	2.90232e-02	4.80511e-08	4.91379e-08	5.01668e-02	1.50227e-02	1.47801e-02	5.06767e-03	4.82509e-08	7.00746e-03	X	X	X	X	X	X	X	X	X	X	X	X	X	X	X	X	



#DISTANCE SETTINGS
A = Detector Channel
A-1	A-2	A-3	A-4	A-5	A-6	A-7	A-8	A-9	A-10	A-11	A-12	A-13	A-14	A-15	A-16	

2.5000e+00	3.0000e+00	2.5000e+00	3.0000e+00	2.0000e+00	3.0000e+00	1.5000e+00	3.0000e+00	3.0000e+00	3.0000e+00	3.0000e+00	3.0000e+00	3.0000e+00	3.0000e+00	1.5000e+00	3.0000e+00	

B = Detector Channel
B-1	B-2	B-3	B-4	B-5	B-6	B-7	B-8	B-9	B-10	B-11	B-12	B-13	B-14	B-15	B-16	

1.0000e+01	1.0000e+01	1.0000e+01	1.4400e+00	1.0000e+01	1.0000e+01	1.5100e+00	1.9400e+00	1.0000e+01	1.0000e+01	1.9900e+00	2.4900e+00	2.4100e+00	2.9000e+00	1.0000e+01	2.9800e+00	




#DATA BEGINS
time	group	step	mark	flag	A-AC1	A-AC2	A-AC3	A-AC4	A-AC5	A-AC6	A-AC7	A-AC8	A-AC9	A-AC10	A-AC11	A-AC12	A-AC13	A-AC14	A-AC15	A-AC16	A-DC1	A-DC2	A-DC3	A-DC4	A-DC5	A-DC6	A-DC7	A-DC8	A-DC9	A-DC10	A-DC11	A-DC12	A-DC13	A-DC14	A-DC15	A-DC16	A-Ph1	A-Ph2	A-Ph3	A-Ph4	A-Ph5	A-Ph6	A-Ph7	A-Ph8	A-Ph9	A-Ph10	A-Ph11	A-Ph12	A-Ph13	A-Ph14	A-Ph15	A-Ph16	B-AC1	B-AC2	B-AC3	B-AC4	B-AC5	B-AC6	B-AC7	B-AC8	B-AC9	B-AC10	B-AC11	B-AC12	B-AC13	B-AC14	B-AC15	B-AC16	B-DC1	B-DC2	B-DC3	B-DC4	B-DC5	B-DC6	B-DC7	B-DC8	B-DC9	B-DC10	B-DC11	B-DC12	B-DC13	B-DC14	B-DC15	B-DC16	B-Ph1	B-Ph2	B-Ph3	B-Ph4	B-Ph5	B-Ph6	B-Ph7	B-Ph8	B-Ph9	B-Ph10	B-Ph11	B-Ph12	B-Ph13	B-Ph14	B-Ph15	B-Ph16	aux-1	digaux	

2156.251	1	1	0	512	0.18438	0.1589	0.14669	0.089554	0.076973	0.28746	0.3357	0.19891	0.09035	0.11538	0.13335	0.41324	0.031321	0.27638	0.19917	0.070064	-0.96667	-2.0187	-1.8854	-1.6	-2.1937	-1.6875	-1.6667	-2.275	-1.2229	-1.9062	-2.2021	-1.2875	-2.2062	-1.5875	-1.4271	-2.3792	370.816	240.861	353.898	402.517	347.660	130.987	446.535	413.061	471.548	126.188	153.619	386.020	400.697	390.863	281.276	197.675	0.00086583	0.001659	0.00059754	1218.8	2.6964e-06	5.8113e-06	1355	321.74	1.0507e-05	5.407e-06	395.52	120.48	90.036	29.673	1.4114e-05	35.356	0.014035	0.016178	0.0045675	1440.1	0.00017374	0.00017871	1592.4	411.61	0.00017328	0.00017777	559.38	168.41	139.3	46.828	0.0001754	59.383	229.119	257.595	135.546	137.865	221.413	480.924	137.432	141.962	289.876	308.818	140.799	145.363	146.478	150.411	327.348	148.833	-8191	255	
2156.347	1	1	0	0	0.37975	0.32532	0.28756	0.37096	0.22475	0.054407	0.19881	0.019358	0.17429	0.094748	0.12706	0.16151	0.033749	0.28465	0.252	0.25244	-1.1688	-1.7396	-1.9438	-1.5479	-2.1625	-1.6812	-1.7333	-2.4146	-1.4708	-1.8208	-2.2542	-1.2417	-2.0729	-1.7083	-1.225	-2.2917	348.248	330.022	456.366	429.077	231.793	163.531	373.404	405.974	190.772	419.808	273.775	388.870	401.253	430.789	483.200	246.751	0.0002553	0.00099104	0.00026344	1219.4	1.8905e-05	1.4852e-05	1359.7	320.84	1.1911e-05	3.0434e-05	396.3	119.25	89.877	29.328	2.0586e-05	35.198	0.01409	0.0163	0.0046009	1446.9	0.00017483	0.00018149	1598.8	413.5	0.00017701	0.00018175	564.09	169.8	140.44	47.053	0.00018204	59.846	258.810	454.790	309.239	137.586	452.984	319.415	137.396	142.033	163.216	219.690	140.588	145.241	146.013	150.400	401.404	148.680	-8191	255	
2156.466	1	1	0	0	0.28275	0.052	0.11019	0.24473	0.26664	0.12004	0.30689	0.29666	0.090402	0.17213	0.13233	0.092997	0.042605	0.073399	0.10591	0.14468	-1.1229	-1.7188	-2.0875	-1.5	-1.8604	-1.8042	-1.4896	-2.2458	-1.6854	-1.6	-2.2375	-1.4688	-1.8979	-1.9458	-1.3542	-2.2292	419.995	228.933	409.453	136.859	197.963	373.034	365.322	430.178	159.359	411.114	128.278	280.485	406.221	348.330	475.579	483.746	0.00050243	0.0021976	0.00076844	1215.3	1.1748e-05	6.8043e-06	1355.3	319.11	3.3174e-06	8.5998e-06	394.33	118.53	89.847	29.115	2.0473e-05	34.656	0.014551	0.016823	0.0047204	1446.7	0.0001797	0.00018751	1598.5	413.83	0.00018291	0.00018798	564.96	170.44	141.59	47.483	0.00018685	60.029	191.901	246.006	426.253	137.762	270.261	262.374	137.284	142.175	466.352	254.779	140.577	145.188	146.061	149.852	313.066	148.999	-8191	255	
2156.562	1	1	0	0	0.19236	0.15835	0.24197	0.2353	0.15822	0.19334	0.2046	0.13961	0.24742	0.15566	0.25748	0.15822	0.15743	0.11908	0.078816	0.13673	-1.1313	-1.3062	-2.1688	-1.4521	-1.6333	-2	-1.3687	-2.2333	-1.5292	-1.5	-2.375	-1.3563	-1.8854	-2.1	-1.4375	-2.2583	214.916	241.835	441.421	468.768	219.332	404.113	412.230	358.136	368.478	255.996	445.253	434.654	170.231	423.134	132.457	213.636	0.00033575	0.0021162	0.00016242	1200	1.689e-05	6.6537e-06	1337.7	318.79	1.0595e-05	4.4631e-05	389.47	117.58	89.126	28.892	2.4286e-05	34.315	0.0149	0.017318	0.0048257	1443.6	0.00018252	0.00018883	1591.7	411.41	0.00018023	0.00018343	555.93	167.6	138.94	46.464	0.00017764	58.832	234.242	240.445	387.686	137.692	200.026	243.241	137.505	142.040	267.001	235.375	140.643	145.149	145.604	150.341	362.715	148.788	-8191	255	
2156.659	1	1	0	0	0.18863	0.044282	0.22737	0.20074	0.16853	0.093849	0.12241	0.23384	0.16234	0.069379	0.11785	0.17764	0.18953	0.19434	0.16265	0.12335	-1.3771	-1.4542	-2.2396	-1.6375	-1.7979	-2.0583	-1.5792	-2.1188	-1.8687	-1.5354	-2.4479	-1.5875	-1.7	-2.3292	-1.1	-1.8917	172.860	269.233	190.320	138.682	356.603	425.722	347.534	437.899	227.113	199.744	394.399	443.553	446.675	200.360	459.083	411.617	0.00056726	0.00036933	0.00040802	1199.9	6.2794e-06	1.6329e-05	1345.6	317.07	2.1871e-05	5.51e-06	393.97	119.01	90.195	29.195	1.8059e-05	35.212	0.014469	0.016782	0.0046701	1434.6	0.00018029	0.0001861	1591.1	411.37	0.00018111	0.0001849	560.59	169.54	140.73	47.084	0.00018159	59.784	238.923	336.703	270.425	137.772	282.921	478.290	137.292	142.218	281.457	143.631	140.872	145.465	146.470	150.060	339.084	149.130	-8191	255	
2156.732	1	1	0	0	0.17178	0.29689	0.27275	0.13054	0.22548	0.1594	0.13072	0.09991	0.12815	0.074538	0.19642	0.39089	0.16608	0.11037	0.26801	0.10729	-1.4333	-1.3125	-2.2708	-1.7271	-1.5708	-2.0479	-1.6187	-2.0229	-1.9208	-1.2021	-2.2417	-1.7687	-1.6	-2.2771	-1.3854	-2.0083	273.659	366.240	427.765	456.598	325.205	393.536	371.561	170.732	211.630	376.107	448.721	461.029	440.857	150.851	335.098	326.337	0.00063941	0.0014585	0.00031247	1215.3	5.4105e-06	1.163e-05	1356	321.94	3.5158e-05	1.8647e-05	395.74	119.38	90.935	29.526	3.3083e-05	34.883	0.014744	0.017169	0.0047806	1453.4	0.00018599	0.00019233	1614.9	419.57	0.00019086	0.0001964	575.86	174.01	145.55	48.531	0.00019354	61.541	250.825	463.132	227.908	137.563	348.861	235.447	137.183	142.126	305.423	321.032	140.495	145.230	146.047	150.638	229.543	148.685	-8191	255	
2156.851	1	1	0	0	0.038847	0.091579	0.16661	0.27727	0.23198	0.27594	0.13206	0.25115	0.18171	0.37704	0.081815	0.14863	0.015514	0.031006	0.1703	0.14652	-1.7833	-1.3021	-2.2917	-1.9896	-1.4125	-2.1667	-1.5479	-1.8583	-2.1437	-1.2979	-2.0917	-1.8125	-1.4729	-2.2687	-1.3583	-1.7313	201.779	450.274	454.342	454.654	188.339	428.390	377.162	191.352	284.455	386.099	429.005	136.708	233.002	139.157	464.846	455.751	0.00066853	0.0017994	0.0009242	1206.8	3.3348e-05	3.2629e-05	1346.2	318.46	1.0871e-05	1.3289e-05	389.04	117.7	89.165	28.901	1.0996e-05	35.001	0.015658	0.018003	0.0049557	1458	0.00019003	0.00019412	1602	415.15	0.0001864	0.00018915	560.94	169.6	141.05	46.99	0.00018393	59.731	222.363	145.352	249.916	137.529	301.204	404.553	137.279	141.978	325.991	470.775	141.291	145.188	145.728	150.556	225.070	148.588	-8191	255	
2156.947	1	1	0	0	0.091859	0.069958	0.18995	0.30066	0.20654	0.082545	0.29375	0.27397	0.037499	0.19104	0.14336	0.20928	0.32025	0.028337	0.16848	0.34505	-1.9312	-1.4208	-1.9875	-2.0229	-1.2854	-2.1646	-1.7687	-1.7833	-2.0417	-1.2646	-2.1521	-2.2354	-1.0771	-2.2875	-1.6187	-1.5375	464.505	170.754	409.763	439.736	132.996	310.821	412.426	441.505	297.824	440.361	403.782	416.984	472.568	451.265	331.972	440.119	0.00045767	0.0013689	0.00079896	1193.4	1.2934e-05	3.2296e-06	1337.4	315.02	2.9208e-05	3.9891e-05	389.31	116.64	88.282	29.021	7.2879e-06	34.361	0.014754	0.01707	0.004699	1431.8	0.00018043	0.00018309	1577.2	406.48	0.00017625	0.0001792	548.66	165.75	136.74	45.597	0.00017193	57.861	260.619	455.570	213.575	137.670	226.580	315.686	137.091	141.967	178.488	283.277	140.781	145.148	146.604	150.152	320.158	148.544	-8191	255	
2157.043	1	1	0	0	0.21841	0.3213	0.18592	0.22636	0.14525	0.098447	0.29542	0.33025	0.32118	0.049066	0.098776	0.2872	0.013143	0.2082	0.11087	0.041116	-1.8563	-1.3646	-1.9	-2.3583	-1.25	-2.2625	-1.7896	-1.6354	-2.2458	-1.4188	-1.95	-2.1	-1.325	-2.0104	-1.8146	-1.3667	471.410	351.320	401.379	415.701	306.134	197.829	411.605	411.387	307.967	358.272	368.393	406.531	218.473	440.690	232.934	434.410	0.00027769	0.0011944	0.0011402	1192.5	1.5541e-05	1.3768e-05	1336.8	318.94	1.9536e-05	1.2407e-05	392.19	117.96	88.99	29.078	2.5637e-05	34.904	0.013796	0.015914	0.0044074	1413.9	0.0001706	0.00017379	1567.4	404.93	0.00016955	0.00017202	547.94	165.24	135.88	45.087	0.00016624	57.192	184.532	170.203	141.109	137.413	289.081	125.978	137.520	141.952	385.133	373.112	140.454	145.288	146.278	149.782	228.919	148.586	-8191	255	
2157.164	1	1	0	0	0.094164	0.31371	0.20195	0.26489	0.21452	0.15348	0.12718	0.35711	0.24255	0.048763	0.15799	0.31052	0.11266	0.15962	0.1538	0.13627	-1.6917	-1.4229	-1.7479	-2.3729	-1.2833	-1.9979	-2.0417	-1.3083	-2.175	-1.4042	-1.6521	-2.1417	-1.1604	-1.9271	-1.8396	-1.3104	172.215	133.957	425.614	442.844	290.346	291.293	397.209	431.660	405.669	470.013	455.943	164.933	189.788	174.752	374.550	133.535	0.000139	0.00075415	0.00086398	1208.9	1.6087e-05	1.4433e-05	1346	317.05	2.0745e-05	2.9708e-05	394.52	117.93	89.751	29.333	5.5233e-06	35.158	0.01309	0.015149	0.0041756	1407.7	0.00015995	0.00016287	1555.5	398.47	0.000158	0.00016132	537.79	161.79	132.86	44.254	0.00015673	56.238	370.809	183.160	301.500	137.874	158.320	192.377	137.324	142.115	284.856	392.072	140.836	145.419	146.366	150.437	361.715	148.533	-8191	255	
2157.260	1	1	0	0	0.16669	0.13295	0.12167	0.15826	0.13139	0.078183	0.16186	0.1461	0.22053	0.14419	0.10903	0.25411	0.1714	0.2269	0.25314	0.089888	-1.7417	-1.5438	-1.5292	-2.5229	-1.2833	-1.9375	-2.2562	-1.3333	-2.1896	-1.5521	-1.6729	-2.2146	-1.3958	-1.8896	-2.0271	-1.2479	362.395	149.649	404.269	474.277	426.916	280.579	450.389	440.614	287.414	294.339	293.996	449.111	150.417	146.549	141.326	166.443	0.00026366	0.0013275	0.00076091	1204.9	1.7621e-05	1.3697e-05	1345.6	316.08	1.7274e-05	1.2114e-05	389.28	116.61	89.198	29.172	1.4958e-05	34.676	0.012437	0.0145	0.0040275	1397.2	0.00015577	0.00015945	1550.4	395.79	0.00015514	0.00016105	534.04	161	132.21	44.172	0.00015742	55.777	251.616	463.624	200.814	137.753	252.454	365.094	137.407	142.072	250.910	177.267	141.043	145.547	146.273	150.259	242.162	148.963	-8191	255	
2157.356	1	1	0	0	0.18499	0.13797	0.25941	0.21043	0.18243	0.13048	0.22972	0.21385	0.08958	0.22352	0.17907	0.10926	0.083721	0.069322	0.10341	0.047139	-1.6	-1.7313	-1.3333	-2.3688	-1.3771	-1.5438	-2.2833	-1.5396	-2.1042	-1.65	-1.4375	-2.5146	-1.5208	-1.7437	-2.0708	-1.3875	197.983	403.780	284.479	465.398	250.902	225.796	382.753	205.698	165.312	447.389	154.659	134.449	460.909	264.979	407.475	147.572	0.00030248	0.0029367	0.0001841	1187.1	6.5464e-06	2.7087e-05	1330.2	313.06	2.2444e-05	1.7765e-05	385.49	117.57	87.642	28.984	4.7155e-06	34.916	0.012435	0.014508	0.0040189	1380.7	0.00015403	0.00015699	1533	391.77	0.00015277	0.00015882	527.84	159.48	130.75	43.889	0.00015612	55.551	193.238	420.975	292.839	137.856	299.854	256.981	137.343	142.111	336.815	302.156	140.963	145.190	146.141	150.124	311.902	149.514	-8191	255	
2157.452	1	1	0	0	0.24702	0.095701	0.083742	0.35141	0.032001	0.26418	0.21855	0.030645	0.12395	0.24267	0.11864	0.11169	0.058149	0.116	0.12063	0.16818	-1.7292	-1.7833	-1.4208	-2.2292	-1.4875	-1.5875	-2.3875	-1.3542	-1.8125	-1.7875	-1.3146	-2.0563	-1.475	-1.4125	-2.3	-1.1729	359.246	187.164	132.947	138.913	240.365	283.677	403.656	239.400	328.587	472.708	255.723	201.145	455.620	208.064	454.525	374.092	0.00077097	0.0041754	0.00035563	1186	1.0602e-05	4.2321e-06	1328.8	314.65	8.2033e-06	2.6175e-05	385.63	118.09	88.658	29.161	2.0051e-05	35.023	0.012353	0.014547	0.0040136	1375.7	0.00015416	0.00015834	1531.7	391.54	0.00015274	0.00015807	528.01	159.11	131.01	43.898	0.00015435	55.744	217.140	461.234	254.800	137.865	207.240	180.613	137.358	141.883	402.767	307.625	140.859	145.244	146.272	150.712	267.730	148.541	-8191	255	
2157.547	1	1	0	0	0.15808	0.15602	0.2805	0.1226	0.20638	0.18149	0.24111	0.12967	0.11753	0.23911	0.24029	0.18487	0.11323	0.25594	0.13217	0.10886	-1.4375	-2.1042	-1.3875	-2.2646	-1.7208	-1.4	-2.2812	-1.4542	-1.8813	-2.125	-1.1896	-2.2146	-1.8833	-1.4792	-2.15	-1.5208	410.328	436.789	395.602	460.152	133.889	459.875	452.556	452.709	483.675	421.778	405.742	427.370	400.110	318.198	373.424	210.425	0.00037695	0.00037455	0.00043301	1191.2	6.7137e-06	1.0885e-05	1340.6	316.24	2.0182e-05	3.6263e-05	389.87	118.49	89.257	29.372	9.5232e-06	35.61	0.012303	0.014456	0.0039782	1381.6	0.0001552	0.00015804	1538.3	393.3	0.00015255	0.00015803	530.63	159.86	131.46	44.061	0.00015195	55.747	225.226	184.660	286.436	137.931	227.363	211.968	137.574	142.059	145.882	392.850	141.141	145.675	145.702	150.539	298.900	148.735	-8191	255	
2157.643	1	1	0	0	0.18113	0.062217	0.15731	0.18848	0.11897	0.079784	0.44144	0.091329	0.20131	0.086167	0.14868	0.12389	0.24919	0.041229	0.30434	0.037058	-1.2917	-2.1229	-1.2083	-2.1937	-1.9521	-1.275	-2.4104	-1.6479	-1.5354	-2.2396	-1.4312	-1.975	-1.9146	-1.4292	-2.1792	-1.65	412.206	169.803	397.044	441.058	258.528	171.031	479.620	176.564	142.097	323.596	354.535	431.240	435.631	167.941	174.241	379.794	0.00044084	0.0016582	0.00037946	1198.9	1.4329e-05	2.4626e-05	1353.6	317.13	3.4784e-06	1.4718e-05	392.67	118.15	89.33	29.588	1.6251e-05	35.765	0.012184	0.01419	0.0038992	1382.1	0.00015049	0.0001538	1535.7	391.89	0.00014662	0.00015023	525.9	158.55	130.02	43.691	0.00014553	54.999	201.033	321.728	234.277	137.840	254.499	146.995	137.452	141.896	208.640	306.029	141.443	145.155	146.108	150.407	145.806	148.612	-8191	255	
2157.763	1	1	0	0	0.086206	0.13585	0.16	0.086975	0.030921	0.057692	0.24842	0.19809	0.086213	0.12566	0.0051849	0.29282	0.25326	0.031012	0.10181	0.12847	-1.1292	-2.1792	-1.2812	-1.9813	-1.8979	-1.3396	-2.2292	-1.7687	-1.3417	-2.0583	-1.3813	-1.8521	-2.0604	-1.2563	-1.9708	-1.7917	272.878	470.175	370.310	463.221	194.864	156.079	384.045	483.345	435.539	293.424	176.195	401.249	461.636	215.566	468.488	268.179	0.00042886	0.0012143	0.00041753	1203	1.0805e-05	3.0114e-05	1339.5	314.88	9.503e-06	2.9173e-05	387.47	117.49	87.988	29.366	3.6713e-05	35.351	0.011716	0.013539	0.0037567	1371.8	0.00014371	0.00014578	1516.7	385.65	0.00014064	0.00014509	516.61	155.66	127.82	42.985	0.00014125	54.35	251.198	243.388	245.431	137.963	405.421	358.855	137.571	142.031	158.640	316.704	140.993	145.094	146.324	150.196	393.632	148.670	-8191	255	
2157.860	1	1	0	0	0.19239	0.20172	0.13468	0.31832	0.051042	0.21047	0.10887	0.079302	0.18475	0.019786	0.13056	0.39051	0.24831	0.014955	0.078208	0.22365	-0.95833	-2.3812	-1.4667	-1.9042	-2.0646	-1.1896	-2.1354	-1.8062	-1.25	-2.3292	-1.5354	-1.5583	-2.2208	-1.2458	-2.0458	-1.7292	190.674	255.796	131.384	414.744	237.806	416.039	163.987	266.087	334.656	196.608	354.555	375.863	368.789	423.605	270.108	406.259	0.00025423	0.0028031	0.00049863	1193.9	1.9057e-05	2.6426e-05	1334.2	315.53	9.4181e-06	8.0123e-06	388.1	117.71	88.442	29.531	6.5028e-06	35.543	0.011516	0.013372	0.003714	1364.5	0.00014314	0.00014583	1512.3	385.8	0.00014209	0.00014493	516.36	156.39	128.22	43.111	0.00014173	54.55	256.367	380.308	178.099	137.847	194.105	483.194	137.357	142.003	362.050	244.741	140.831	145.086	146.101	150.292	475.319	148.932	-8191	255	
2157.956	1	1	0	0	0.12329	0.13718	0.075639	0.095138	0.32722	0.12557	0.032853	0.079603	0.17067	0.089052	0.34894	0.25582	0.10895	0.05534	0.099491	0.02776	-0.72917	-2.0958	-1.5625	-1.6812	-2.1562	-1.5125	-2.2708	-2.1792	-1.1708	-1.9708	-1.6604	-1.3458	-2.1833	-1.4021	-1.7938	-2.3167	357.215	213.603	361.425	410.386	276.399	324.185	316.036	213.406	263.253	267.155	143.262	406.862	146.372	425.888	205.245	460.312	0.00046061	0.0015027	0.00050562	1193.1	4.2912e-05	1.7721e-05	1338.3	315.69	4.302e-06	7.8702e-06	388.66	118.22	89.872	29.697	9.3412e-06	35.661	0.011511	0.013202	0.0037038	1363.8	0.0001426	0.00014509	1515.9	386.48	0.00014132	0.00014282	517.8	156.33	127.97	43.173	0.00014065	54.682	200.523	315.130	271.740	137.865	292.385	254.165	137.509	142.020	161.047	411.581	141.153	145.278	146.422	150.517	427.769	148.838	-8191	255	
2158.027	1	1	0	0	0.23594	0.046051	0.23379	0.35671	0.13458	0.083258	0.23036	0.21091	0.25712	0.30716	0.43094	0.15179	0.18814	0.27783	0.10891	0.18876	-0.84583	-1.9417	-1.5479	-1.3396	-2.125	-1.3438	-1.825	-2.125	-1.125	-1.9271	-1.9083	-1.2708	-2.0938	-1.5125	-1.5417	-2.0729	129.047	204.005	187.784	394.934	199.522	417.643	262.310	409.478	345.797	368.626	395.559	313.028	186.590	424.769	374.352	155.040	0.00048535	0.0018166	0.00045142	1199.4	1.404e-05	8.7069e-06	1348.8	318.31	1.2125e-05	7.3065e-06	394.4	118.88	89.65	29.879	1.6115e-06	35.981	0.011345	0.013073	0.0036721	1370.3	0.00014058	0.00014442	1518.7	387.97	0.00014021	0.00014258	520.15	157.01	127.81	43.251	0.00013951	54.726	234.582	264.651	214.131	137.594	268.365	255.467	137.297	141.952	359.890	287.763	140.951	145.507	146.372	150.513	170.186	148.787	-8191	255	
2158.148	1	1	0	0	0.16725	0.086989	0.087521	0.29558	0.1372	0.10787	0.19517	0.25935	0.22673	0.15627	0.15966	0.41609	0.15854	0.15576	0.17709	0.22476	-0.84792	-2.1167	-1.7396	-1.5292	-2.0708	-1.5521	-1.825	-2.3229	-1.4625	-1.9729	-2.1729	-1.2771	-2.4333	-1.8042	-1.4937	-2.3146	315.458	169.530	369.968	430.231	375.480	392.391	462.226	306.637	131.757	301.317	464.417	423.111	436.564	384.002	357.741	374.254	0.00049423	0.0021784	0.00067053	1196.9	2.2095e-06	1.4193e-05	1351	320.55	7.7017e-06	1.4803e-05	388.45	118.05	88.973	29.954	2.2003e-05	35.995	0.011265	0.012967	0.0036343	1365.5	0.00013796	0.00014294	1519.4	387.61	0.000138	0.00014138	516.48	156.11	126.81	43.022	0.00013893	54.141	251.902	409.346	198.697	137.677	389.755	300.007	137.670	142.004	270.675	307.009	140.750	145.320	146.383	150.457	266.404	148.532	-8191	255	
2158.244	1	1	0	0	0.27532	0.18433	0.15375	0.33532	0.047751	0.22013	0.1513	0.29277	0.089173	0.2148	0.076823	0.32136	0.11595	0.16569	0.1898	0.30893	-0.83333	-1.6292	-2.0854	-1.4271	-2.3146	-1.6625	-1.525	-2.4917	-1.2313	-1.6271	-2.0208	-1.2854	-2.1896	-1.7917	-1.4083	-2.2333	354.632	172.960	374.554	133.221	384.531	267.679	436.792	430.949	341.908	372.016	203.727	445.420	405.067	299.990	445.645	425.240	0.00024122	0.0017449	7.2233e-05	1184.4	1.6572e-05	2.5046e-05	1330.2	313.29	1.4754e-05	1.4545e-05	387.77	116.81	88.582	29.359	1.1391e-06	35.424	0.011126	0.012839	0.0036278	1351.4	0.00013761	0.00014249	1504.6	382.05	0.00013786	0.00014058	512.76	154.61	125.67	42.743	0.00013866	53.844	219.079	446.616	222.474	137.990	370.671	289.032	137.816	142.051	318.700	163.121	140.957	145.428	146.156	150.194	282.875	149.255	-8191	255	
2158.340	1	1	0	0	0.18865	0.052828	0.35631	0.2035	0.28702	0.11106	0.19217	0.14231	0.14376	0.23198	0.15684	0.35882	0.19651	0.17014	0.044349	0.074412	-0.8875	-1.5604	-2.0271	-1.4958	-1.9083	-2.0083	-1.4833	-2.2292	-1.3937	-1.5229	-2.4104	-1.3021	-1.9146	-1.975	-1.0646	-2.2271	130.273	370.912	357.705	393.851	295.851	210.081	445.829	427.668	299.504	219.020	413.186	438.446	194.954	434.874	302.552	463.844	0.00054232	0.0016187	0.00056819	1183.4	1.8935e-05	1.5409e-05	1327.6	311.72	8.6592e-06	1.9485e-05	386.83	117.6	88.037	29.415	2.5436e-06	35.549	0.011106	0.012829	0.0036066	1347.7	0.0001374	0.0001422	1499.3	381.15	0.00013784	0.00014112	510.66	154.52	125.52	42.705	0.00013853	53.89	249.495	328.930	161.231	137.893	197.725	441.035	137.456	142.249	243.670	269.505	141.372	145.644	146.240	149.891	462.159	148.924	-8191	255	
2158.436	1	1	0	0	0.18538	0.11597	0.14622	0.22002	0.034287	0.083719	0.45876	0.21789	0.18578	0.13596	0.25914	0.019868	0.2967	0.16413	0.14813	0.097085	-1.1146	-1.2938	-2.1375	-1.4542	-1.9833	-1.9062	-1.3729	-2.1625	-1.5792	-1.4125	-2.1937	-1.4271	-1.975	-1.9729	-1.2125	-2.1125	461.554	471.037	222.262	332.984	135.746	231.843	437.152	429.277	330.936	235.969	409.544	338.935	152.434	463.662	366.118	476.348	0.00026411	0.0018998	0.00060679	1178.4	7.601e-06	8.1797e-06	1327.2	313	1.3075e-05	1.7967e-05	392.18	118.32	88.378	29.697	2.9216e-05	35.763	0.0111	0.012844	0.0035808	1342.1	0.00013696	0.00014198	1499.5	380.36	0.00013742	0.00014031	511.63	154.93	125.52	42.701	0.00013674	53.973	210.343	289.245	244.142	137.805	465.392	156.477	137.420	142.027	192.192	381.899	141.219	145.421	146.266	150.519	177.485	149.018	-8191	255	
2158.533	1	1	0	0	0.10284	0.16574	0.26433	0.30135	0.15997	0.066495	0.29272	0.080443	0.11536	0.15667	0.16949	0.067163	0.1188	0.25086	0.17802	0.14456	-1.2375	-1.3708	-2.0563	-1.3896	-1.4646	-2.1667	-1.3	-2.1375	-1.8	-1.1313	-2.2396	-1.5042	-1.7917	-2.2208	-1.1875	-1.8813	402.394	481.427	132.300	443.417	323.509	412.666	476.163	431.783	371.797	328.579	360.335	186.436	216.472	137.241	460.757	267.697	0.0004788	0.0019758	0.00037221	1178.6	7.7926e-06	1.769e-05	1327.2	315.55	3.1709e-06	1.459e-05	391.33	117.88	89.396	29.902	6.5952e-06	35.953	0.01104	0.012842	0.0035475	1344.3	0.00013608	0.00014103	1499.6	381.88	0.00013777	0.00014075	512.47	155.29	126.7	43.106	0.00013859	54.426	249.053	175.365	187.760	137.802	203.818	197.937	137.478	142.321	212.518	322.308	140.990	145.564	146.242	149.978	231.459	148.681	-8191	255	
2158.627	1	1	0	0	0.15053	0.30504	0.11717	0.16377	0.29784	0.11993	0.0334	0.18459	0.1883	0.11087	0.22127	0.033137	0.26277	0.050531	0.18219	0.043586	-1.6854	-1.225	-2.1458	-1.7812	-1.5063	-2.1917	-1.3729	-1.8188	-2.0667	-1.2917	-2.1958	-1.7271	-1.7083	-2.2062	-1.3396	-1.8563	160.405	378.310	435.826	419.303	308.248	463.724	482.177	359.485	136.920	185.956	336.716	170.214	412.868	340.703	220.963	284.272	0.00018422	0.001696	0.0004482	1172.3	2.4876e-05	7.0754e-06	1318.9	313.88	1.5345e-05	1.1324e-05	386.55	117.6	88.357	29.553	1.7688e-05	36.072	0.011245	0.012991	0.0036026	1342.1	0.00013895	0.00014268	1493.2	380.94	0.00013935	0.00014223	509.54	155.11	126.47	42.779	0.00013893	54.042	222.826	258.251	166.764	137.674	249.568	218.175	137.410	142.164	328.442	194.192	141.555	145.500	146.703	150.255	304.458	149.405	-8191	255	
2158.725	1	1	0	0	0.13975	0.17862	0.10986	0.11592	0.09119	0.084014	0.21109	0.32168	0.23082	0.025659	0.10187	0.35975	0.0827	0.13686	0.0098979	0.10964	-1.6542	-1.3	-2.1479	-1.9958	-1.4688	-2.3042	-1.5333	-1.8	-2.1771	-1.3792	-2.1979	-1.775	-1.4375	-2.2208	-1.4583	-1.675	461.727	318.272	305.651	449.459	306.438	391.798	428.192	448.744	239.588	201.415	305.779	417.445	193.754	313.259	286.071	468.096	0.00031566	0.00075226	0.00048193	1165.7	1.1767e-05	8.3676e-06	1312.3	310.3	1.3057e-05	4.4194e-05	382.94	116.74	87.536	29.25	1.3494e-05	35.742	0.011322	0.012982	0.0035781	1331.1	0.00013877	0.00014203	1485.7	379.27	0.00013935	0.00014115	506.68	154.37	125.66	42.601	0.00013917	54.055	265.514	231.048	271.934	137.993	172.846	367.648	137.312	142.168	298.975	314.995	141.799	145.511	146.594	150.616	363.162	148.784	-8191	255	
2158.844	1	1	0	0	0.15119	0.15619	0.27545	0.48094	0.025996	0.11724	0.32561	0.073405	0.14636	0.21408	0.10684	0.39083	0.27712	0.15843	0.12371	0.0624	-1.7417	-1.1667	-1.9646	-1.9104	-1.2146	-2.1708	-1.6271	-1.6125	-2.1979	-1.2229	-1.9958	-2.0771	-1.4396	-2.1667	-1.3271	-1.4521	182.152	243.907	143.115	461.778	394.098	298.867	457.413	184.774	162.998	149.061	342.214	468.986	469.133	178.854	182.178	474.143	0.00044537	0.0007354	0.00060955	1164	2.2336e-05	8.4491e-06	1316.5	311.44	1.3608e-05	2.9101e-05	387.93	117.11	87.677	29.477	6.938e-06	35.811	0.011265	0.012958	0.0035756	1327.9	0.00013942	0.00014131	1486.3	379.45	0.0001403	0.0001435	510.08	155.55	126.84	42.888	0.00014149	54.667	220.633	269.699	336.008	137.898	258.069	450.254	137.363	142.279	233.352	210.507	141.192	145.448	146.482	150.603	428.397	148.808	-8191	255	
2158.940	1	1	0	0	0.20002	0.16297	0.20536	0.25003	0.1332	0.15364	0.26118	0.15125	0.16907	0.084433	0.028263	0.27516	0.046114	0.073331	0.13415	0.077121	-1.8271	-1.2375	-1.9188	-2.1688	-1.3667	-2.1667	-1.9292	-1.6063	-2.2875	-1.3896	-1.7188	-2.2375	-1.2917	-2.0875	-1.7583	-1.4229	277.344	368.182	131.260	436.386	357.982	440.975	358.005	325.970	250.821	216.911	302.684	482.368	463.480	443.800	293.319	303.032	0.00060564	0.00070141	0.00087457	1163	1.0298e-05	1.5037e-05	1320.5	314.06	2.5088e-05	3.6712e-05	387.59	118.44	88.818	29.774	8.9701e-06	36.252	0.011366	0.013225	0.0036206	1336.4	0.00014041	0.00014179	1492.3	381.76	0.00013809	0.00014054	510.12	155.62	126.24	42.851	0.00013835	54.522	248.235	138.082	308.551	137.839	246.699	239.225	137.412	142.328	222.158	134.783	141.154	145.409	146.716	150.479	281.122	148.826	-8191	255	
2159.036	1	1	0	0	0.31986	0.124	0.050047	0.31754	0.20402	0.15931	0.25756	0.18912	0.051069	0.1616	0.14875	0.14444	0.20933	0.086563	0.083932	0.3197	-1.7417	-1.3813	-1.5604	-2.1292	-1.0979	-1.9104	-2.0208	-1.6208	-2.325	-1.4229	-1.7583	-2.075	-1.4042	-2.1792	-1.9125	-1.4979	377.153	129.081	344.681	472.204	343.285	247.126	383.112	433.453	231.938	351.666	433.646	398.834	128.987	454.642	366.859	124.512	0.00069185	0.002271	0.00075227	1166.8	1.6574e-05	2.3367e-05	1318.5	312.83	1.7983e-05	3.0683e-05	387.15	117.97	88.357	29.65	6.6257e-06	35.541	0.01097	0.012732	0.0035274	1330.2	0.0001359	0.00013831	1488	379.25	0.00013456	0.00013791	507.27	154.29	125.05	42.501	0.00013646	53.697	265.368	334.020	330.986	137.964	176.908	139.738	137.373	142.311	242.020	353.863	141.241	145.582	146.598	150.181	161.161	148.499	-8191	255	
2159.132	1	1	0	0	0.10161	0.04519	0.028864	0.23994	0.24604	0.29783	0.34802	0.2137	0.29986	0.12257	0.055865	0.28496	0.061362	0.11826	0.020746	0.19458	-1.65	-1.3958	-1.5354	-2.1792	-1.3833	-1.8854	-2.2167	-1.2188	-2.1354	-1.7604	-1.525	-2.2375	-1.3771	-1.9375	-1.9917	-1.3604	240.677	448.715	325.933	441.000	456.761	462.987	344.194	389.716	213.715	402.513	363.040	146.018	439.044	284.393	222.541	412.502	0.0002668	0.0011728	0.00035347	1150.1	5.9189e-06	1.2051e-05	1304.5	309.85	4.6123e-06	2.0922e-05	386.02	116.56	87.386	29.253	7.1791e-06	35.198	0.010805	0.01258	0.0034948	1315.4	0.00013434	0.00013724	1473.5	376.42	0.00013344	0.0001382	504.47	153.2	124.18	42.048	0.00013566	53.418	258.817	384.338	468.188	138.235	235.577	286.589	137.285	142.262	263.000	398.424	141.022	145.355	146.140	150.402	198.650	148.554	-8191	255	
2159.253	1	1	0	0	0.187	0.26075	0.13078	0.32237	0.17875	0.18222	0.1214	0.16473	0.055575	0.5801	0.096729	0.088877	0.28256	0.13564	0.2084	0.28516	-1.5938	-1.7188	-1.5	-2.2958	-1.3292	-1.8354	-2.0479	-1.1771	-2.0375	-1.6292	-1.5833	-2.1354	-1.4021	-1.5208	-2.1354	-1.2437	462.966	412.967	426.231	147.793	371.379	392.112	430.736	377.486	360.136	252.767	398.948	181.647	229.748	239.394	249.227	132.281	0.00034013	0.0013923	0.00057828	1155.3	1.1473e-05	2.6367e-05	1304.1	310.08	1.3232e-06	1.1392e-05	381.5	116.82	87.921	29.484	1.3109e-05	35.672	0.010708	0.012592	0.0034815	1311.4	0.00013361	0.00013603	1471.2	375.16	0.00013152	0.00013693	501.91	152.03	123.56	42.006	0.00013411	53.057	187.894	149.657	202.469	137.581	379.687	338.625	137.355	142.045	392.045	238.164	140.891	145.482	145.745	150.303	194.429	148.717	-8191	255	
2159.324	1	1	0	0	0.06294	0.26194	0.43195	0.42074	0.11347	0.1019	0.1195	0.37083	0.070755	0.23805	0.3508	0.15121	0.38172	0.1064	0.27724	0.28136	-1.725	-1.7417	-1.3333	-2.3854	-1.4333	-1.4646	-2.4104	-1.425	-2.0021	-1.9625	-1.3813	-2.1104	-1.5167	-1.5042	-2.1375	-1.4333	331.491	223.486	244.724	393.603	382.729	351.362	162.485	357.276	283.730	277.129	453.333	345.857	151.340	389.512	195.725	447.022	0.00044856	0.0014295	0.00055908	1156.6	5.4381e-06	1.7473e-05	1307.8	309.34	3.8371e-06	2.1842e-05	382.52	116.98	88.772	29.645	1.2399e-06	36.212	0.010578	0.012396	0.0034239	1310.7	0.00013224	0.00013544	1470.8	373.95	0.00013072	0.00013603	503.68	152.85	124.57	42.223	0.00013308	53.524	218.518	450.487	446.218	137.844	273.291	149.401	137.379	141.680	380.096	362.904	140.832	145.061	145.909	150.840	341.040	148.744	-8191	255	
2159.445	1	1	0	0	0.20735	0.16692	0.2523	0.24655	0.15741	0.33848	0.31956	0.46028	0.19117	0.016107	0.2163	0.14575	0.21735	0.12875	0.1375	0.16929	-1.4771	-1.8125	-1.1021	-2.2167	-1.65	-1.2437	-2.6063	-1.5542	-1.65	-2.0271	-1.2708	-2.1417	-1.925	-1.4417	-2.2958	-1.6812	394.241	133.380	252.566	138.958	376.360	300.447	431.683	454.594	379.574	197.175	393.268	199.813	398.693	252.012	382.428	373.712	0.00061105	0.0018581	0.00031466	1158.1	2.5855e-06	3.397e-07	1312.3	313.81	1.0347e-05	2.0507e-05	386.34	117.5	87.553	29.724	1.3944e-06	35.896	0.010599	0.012492	0.0034582	1313.5	0.00013347	0.00013708	1479.3	377.23	0.00013237	0.00013695	504.05	153.21	124.52	42.287	0.00013399	53.655	226.721	153.164	243.870	138.099	469.557	398.414	137.366	141.952	436.008	200.281	140.844	145.179	146.576	150.239	476.897	148.347	-8191	255	
2159.540	1	1	0	0	0.03708	0.35284	0.16581	0.11807	0.1204	0.20823	0.42883	0.23156	0.14461	0.21402	0.30844	0.16531	0.074296	0.15099	0.37726	0.12361	-1.2021	-2.0938	-1.2208	-2.1458	-1.7146	-1.3292	-2.1937	-1.5042	-1.4083	-2.1875	-1.3229	-2.0958	-1.8792	-1.2437	-2.2354	-1.7625	378.546	392.932	151.980	448.230	184.293	180.964	412.287	350.677	151.112	342.874	436.342	409.730	475.508	390.407	267.087	133.744	0.00049968	0.00048157	0.00066256	1156.3	8.5591e-06	2.7403e-05	1298.6	309.73	2.8902e-06	2.7218e-05	380.94	115.92	87.131	28.955	1.7834e-05	34.888	0.010796	0.012646	0.0034771	1313.9	0.00013473	0.00013818	1468.5	375.36	0.00013339	0.00013722	500.92	151.88	124.01	41.843	0.00013346	53.074	210.316	470.299	190.636	137.570	298.463	187.248	137.322	141.788	131.287	217.996	141.329	145.602	145.696	150.779	248.021	148.241	-8191	255	
2159.636	1	1	0	0	0.20153	0.28591	0.076873	0.26707	0.20572	0.28063	0.22223	0.11293	0.14823	0.19684	0.14749	0.14714	0.15813	0.16032	0.18012	0.35526	-1.1083	-2.0146	-1.3417	-2.1167	-2.0667	-1.4062	-2.2021	-1.8062	-1.5146	-2.4104	-1.4875	-1.85	-2.1229	-1.2208	-2.0646	-1.7146	318.718	471.917	286.182	406.068	345.731	435.203	451.191	215.482	455.275	137.011	382.378	351.507	125.993	477.528	214.715	453.297	0.000383	0.0010622	0.00033833	1149.6	8.6209e-06	2.273e-05	1297.3	307.55	2.1898e-05	2.2926e-05	380.93	114.7	86.008	28.955	1.5712e-05	34.686	0.010847	0.012601	0.0035024	1307.5	0.0001358	0.00013803	1464.4	374.36	0.00013454	0.00013744	501.13	151.7	123.91	41.578	0.00013403	53.003	229.260	432.106	224.230	137.807	228.706	323.432	137.386	141.900	300.694	271.233	141.124	145.730	146.049	150.337	242.030	148.332	-8191	255	
2159.732	1	1	0	0	0.031952	0.35646	0.0613	0.13903	0.21257	0.11959	0.14595	0.10985	0.037726	0.051488	0.2382	0.059082	0.10998	0.31867	0.1706	0.1656	-0.825	-2	-1.375	-1.7313	-1.9688	-1.1479	-2.1875	-1.8854	-1.2854	-2.1021	-1.5	-1.6646	-2.2792	-1.2167	-2.0875	-2.05	242.198	398.091	434.961	425.528	331.258	209.942	407.654	399.180	317.252	402.450	425.896	415.083	356.689	461.464	385.577	168.278	0.00033875	0.00038936	0.00048062	1143.9	1.1659e-05	1.6466e-05	1303	306.65	1.2851e-06	1.0282e-05	383.65	117.19	87.063	28.793	1.0201e-05	35.233	0.010865	0.012532	0.0034904	1306.2	0.00013557	0.00013842	1468.4	374.83	0.00013591	0.00013832	504.21	153.21	124.79	41.948	0.00013677	53.676	218.943	341.659	335.076	137.752	228.285	308.440	137.013	142.007	285.648	146.286	140.939	145.990	145.512	150.217	446.198	148.587	-8191	255	
2159.828	1	1	0	0	0.35088	0.1685	0.13973	0.073361	0.052557	0.12605	0.34925	0.22602	0.11559	0.2403	0.27758	0.1758	0.24675	0.090582	0.19398	0.13657	-0.88958	-2.3354	-1.2917	-1.8479	-2.0958	-1.3583	-2.1396	-1.7917	-1.3167	-2.1896	-1.6208	-1.4833	-2.0312	-1.2792	-1.9521	-2.1437	239.229	158.543	207.753	377.442	153.822	261.435	395.624	450.752	377.761	161.870	389.495	482.791	407.558	131.708	196.741	158.028	0.00046169	0.0029789	0.00063733	1148.9	2.5588e-06	9.3048e-06	1303.4	309.81	2.9627e-06	2.0444e-05	385.98	115.76	87.204	29.054	5.5923e-06	35.337	0.011161	0.012851	0.0036087	1316.4	0.00013972	0.00014298	1477.9	379.46	0.00013948	0.00014277	510.07	154.76	126.38	42.529	0.0001416	54.483	235.039	130.244	140.748	137.946	147.283	198.182	137.302	141.579	411.622	384.855	141.005	145.177	146.153	149.867	256.832	148.441	-8191	255	
2159.924	1	1	0	0	0.1794	0.15801	0.13261	0.25108	0.12349	0.10482	0.062665	0.19904	0.059666	0.20808	0.20095	0.19415	0.10385	0.25731	0.11456	0.066518	-1.0542	-2.2604	-1.7333	-1.6333	-2.0833	-1.4375	-2.0938	-2.0187	-1.2958	-2.1396	-1.8667	-1.5292	-2.2125	-1.4312	-1.7604	-2.1208	422.865	276.324	442.039	462.316	337.246	213.257	251.420	380.049	240.479	429.863	143.874	440.137	439.566	423.933	339.482	301.422	0.00029887	0.00093896	0.00017201	1156.2	1.7866e-05	1.854e-05	1307.1	307.86	6.3934e-06	3.3496e-05	381.78	115.84	86.078	28.573	4.1142e-06	34.607	0.011522	0.013261	0.0037224	1329.7	0.00014311	0.00014685	1487.9	380.02	0.00014368	0.00014629	511.41	154.59	126.29	42.395	0.00014435	53.986	234.916	367.343	312.922	137.538	251.811	249.960	137.219	141.803	376.649	226.970	140.741	144.934	145.932	150.004	222.332	149.025	-8191	255	
2160.020	1	1	0	0	0.055861	0.097532	0.097082	0.40781	0.19648	0.22269	0.060411	0.3684	0.090852	0.086864	0.19842	0.062662	0.23463	0.21978	0.11246	0.060259	-0.74583	-2.0854	-1.7042	-1.5604	-2.0062	-1.4937	-1.7708	-2.3542	-1.3104	-1.9875	-1.9896	-1.3271	-2.2708	-1.4771	-1.5187	-2.2417	265.605	342.534	176.429	467.826	411.134	226.029	162.131	433.251	331.507	243.551	484.056	335.242	416.239	480.440	162.856	381.943	0.0001216	0.0034144	0.00043593	1143	1.639e-05	2.1583e-05	1302	306.67	8.1033e-06	2.08e-05	374.99	114.65	86.658	28.447	9.3982e-06	34.26	0.011632	0.013425	0.0037916	1322.8	0.00014427	0.00015017	1484	380.19	0.0001463	0.00014858	510.78	154.5	126.29	42.373	0.00014556	53.753	175.394	399.166	259.154	137.773	335.619	417.668	137.335	142.124	138.444	410.621	140.809	144.929	146.096	149.901	412.995	148.813	-8191	255	
2160.116	1	1	0	0	0.036374	0.12728	0.33129	0.063359	0.31156	0.057714	0.48907	0.3046	0.10893	0.20355	0.20201	0.1198	0.25382	0.26367	0.16432	0.16765	-0.78542	-1.9542	-2.0229	-1.425	-2.1042	-1.6896	-1.8479	-2.3104	-1.2188	-1.7146	-2.2917	-1.2667	-2.1917	-1.7458	-1.3667	-2.1354	443.038	369.734	136.468	445.817	171.798	146.140	430.285	155.916	400.198	242.925	461.308	124.261	460.873	144.688	352.130	325.597	0.00054106	0.00094161	0.00027075	1140.1	3.8479e-06	7.5377e-06	1289.3	304.93	3.0539e-05	2.3362e-05	378.04	114.27	85.683	28.398	8.5388e-06	34.191	0.011545	0.013407	0.0037789	1317.8	0.00014342	0.00014855	1477.8	376.69	0.00014425	0.00014757	509.51	154.07	125.76	42.38	0.00014668	54.042	233.538	147.018	225.999	137.471	336.478	256.604	137.300	141.912	259.620	432.610	140.647	145.707	145.628	150.127	133.848	147.949	-8191	255	
2160.213	1	1	0	0	0.10137	0.17782	0.17681	0.10991	0.22681	0.13309	0.57934	0.25276	0.06137	0.37065	0.13628	0.32694	0.094873	0.059248	0.19671	0.066035	-0.95	-1.6646	-1.9396	-1.4104	-2.0187	-1.9271	-1.6583	-2.2313	-1.3604	-1.6729	-2.1792	-1.4417	-1.8729	-1.8312	-1.3396	-2.2646	332.688	304.069	150.069	174.830	135.529	479.938	436.421	361.988	427.913	126.241	393.549	465.495	457.045	234.752	279.620	195.694	0.00042389	0.0027834	0.00058765	1140	1.622e-05	1.8725e-05	1297.1	307.85	1.5642e-05	1.7555e-05	378.85	115.06	86.63	28.443	1.1209e-05	34.981	0.011786	0.013687	0.0038503	1324.3	0.00014704	0.00015249	1489.9	380.21	0.00014861	0.0001522	514.5	156.02	127.47	42.986	0.00014943	54.697	251.031	274.798	398.547	137.716	240.059	253.007	137.439	142.030	402.325	140.614	140.687	145.710	146.079	150.242	327.417	148.871	-8191	255	
2160.333	1	1	0	0	0.16744	0.16947	0.075542	0.18152	0.064176	0.076746	0.11871	0.2244	0.20804	0.038651	0.026802	0.07161	0.13526	0.060354	0.086319	0.044338	-1.1854	-1.5208	-2.0979	-1.3958	-1.95	-2.05	-1.3833	-2.3833	-1.775	-1.3854	-2.3958	-1.6042	-1.8354	-2.05	-1.1208	-2.1312	370.093	188.224	372.960	414.135	178.540	390.914	332.897	458.136	192.306	315.957	361.709	192.507	429.845	405.988	445.720	151.128	0.00044548	0.0022841	0.00043359	1148.1	2.0337e-05	1.8076e-05	1310.6	306.79	5.2032e-06	1.1479e-05	382.63	115.27	86.678	28.642	1.1818e-05	34.539	0.012114	0.013995	0.0039011	1334.1	0.00014865	0.00015566	1502.2	383.61	0.00015017	0.00015403	518.93	156.51	128.28	43.234	0.00015018	54.449	218.356	129.292	204.676	137.798	233.270	268.922	137.204	141.727	182.504	306.464	141.064	145.477	145.779	150.231	370.762	148.387	-8191	255	
2160.429	1	1	0	0	0.17875	0.19127	0.295	0.28389	0.24163	0.23772	0.33492	0.33084	0.3523	0.10776	0.047936	0.088706	0.21031	0.1394	0.21894	0.086012	-1.4354	-1.3729	-2.1146	-1.4708	-1.8875	-2.0708	-1.3563	-2.0958	-1.8771	-1.2479	-2.2583	-1.6167	-1.5583	-2.0979	-1.2375	-2.1188	388.198	477.595	273.254	447.732	187.402	367.513	421.794	393.434	333.022	401.627	375.150	390.410	448.339	384.099	348.789	423.331	0.00032166	0.0016588	5.2482e-05	1141.6	1.1997e-05	1.3717e-05	1302.9	305.72	4.8967e-06	2.3548e-05	372.51	113.32	86.172	28.271	1.2226e-05	34.387	0.012048	0.013987	0.0038697	1330.9	0.00014888	0.00015409	1490	379.96	0.00014946	0.00015179	510.11	154.32	126.37	42.482	0.00014685	53.909	235.308	130.980	172.999	137.709	256.742	193.059	137.367	141.823	400.749	305.411	141.047	145.563	146.067	149.962	289.208	148.832	-8191	255	
2160.525	1	1	0	0	0.066075	0.18017	0.22017	0.35038	0.29005	0.099142	0.1992	0.15329	0.099856	0.11325	0.12043	0.11265	0.30935	0.082741	0.19944	0.23884	-1.5063	-1.175	-1.95	-1.7208	-1.5583	-2.0083	-1.3958	-1.8875	-1.9438	-1.1688	-2.0521	-1.6417	-1.5896	-2.2667	-1.325	-1.8	384.334	216.625	130.156	381.766	132.865	225.963	440.078	137.979	482.877	349.963	429.902	188.242	447.441	432.348	419.426	306.516	0.00039684	0.0011264	7.3377e-05	1132.8	4.5552e-06	2.0233e-05	1283.6	304.32	1.4008e-05	3.4379e-05	374.75	113.84	85.602	28.115	2.3848e-05	34.188	0.011897	0.013768	0.0038044	1317.8	0.00014727	0.00015184	1476.6	378.18	0.00014877	0.00015205	509.63	154.5	126.47	42.53	0.00014757	53.814	282.030	189.885	474.434	137.840	133.695	375.956	137.145	141.755	326.228	467.910	141.058	145.252	145.862	150.587	361.807	149.116	-8191	255	
2160.622	1	1	0	0	0.23657	0.077881	0.14362	0.23172	0.33458	0.15771	0.019273	0.31153	0.17568	0.14806	0.31545	0.24691	0.20067	0.1535	0.20893	0.20619	-1.6479	-1.1625	-2.0312	-1.7938	-1.5104	-2.1854	-1.4396	-1.9521	-2	-1.2542	-2.2667	-1.8354	-1.1792	-2.2542	-1.2417	-1.6938	229.947	314.000	198.217	406.858	219.381	137.553	210.726	376.372	294.755	319.286	376.764	470.458	405.794	364.491	479.034	454.314	0.00024991	0.0009551	0.00062633	1132.8	1.4789e-05	2.1813e-05	1292.1	304.2	2.8797e-05	5.6812e-05	377.75	113.72	86.328	28.317	6.4459e-06	34.578	0.011906	0.013745	0.0037712	1316	0.00014667	0.0001496	1477.9	378.75	0.00014805	0.00015076	511.73	155.36	127.55	42.645	0.00014932	54.517	259.726	449.474	291.654	137.566	403.199	347.072	137.186	141.945	127.338	332.236	140.816	145.109	146.265	150.265	435.880	148.002	-8191	255	
2160.716	1	1	0	0	0.12216	0.048781	0.19504	0.42727	0.33695	0.35404	0.13344	0.13641	0.046034	0.18345	0.23627	0.093325	0.25956	0.041636	0.15177	0.32945	-1.7687	-1.1542	-1.8854	-2.1542	-1.2	-2.1729	-1.6	-1.7083	-2.1583	-1.2667	-1.9875	-2	-1.2521	-2.1354	-1.4521	-1.5375	350.303	276.819	228.549	449.022	183.101	209.825	448.839	339.294	387.452	138.778	145.164	454.828	143.315	464.767	432.049	360.526	0.0004265	0.0012489	0.00060778	1140.6	1.5626e-05	1.7025e-05	1300.4	307.65	6.7379e-06	5.2653e-06	379.24	116.35	87.232	28.723	1.7777e-05	34.995	0.011989	0.013809	0.0037904	1324.7	0.00014682	0.00014955	1489.5	381.9	0.00014628	0.00014979	514.51	156.39	127.75	42.864	0.00014872	54.798	236.874	314.732	173.440	137.849	371.045	236.930	137.084	141.856	372.834	392.901	140.856	145.656	146.169	150.467	241.122	148.391	-8191	255	
2160.814	1	1	0	0	0.12992	0.083985	0.10423	0.24365	0.057778	0.51721	0.23599	0.17967	0.13206	0.27068	0.07423	0.26751	0.1204	0.25517	0.07575	0.085797	-1.6938	-1.2188	-1.8292	-2.1146	-1.0688	-2.0021	-1.7875	-1.6354	-2.0354	-1.3521	-1.8542	-2.1333	-1.4021	-2.0938	-1.4958	-1.6229	434.667	443.714	242.896	416.546	313.470	277.238	139.860	351.581	415.376	178.343	418.850	426.903	467.410	146.950	311.005	175.350	0.00029749	0.0033606	0.0008581	1141.2	2.5499e-05	2.6147e-05	1304.5	308.38	1.23e-05	1.6379e-05	378.08	114.37	86.565	28.77	1.2747e-05	34.257	0.01197	0.01375	0.0038004	1327.7	0.00014829	0.00015006	1491.5	382.47	0.0001478	0.00015109	513.44	155.67	127.39	42.79	0.00014975	54.381	318.433	130.548	211.662	137.733	191.483	219.093	137.388	142.246	446.421	479.535	141.134	144.978	145.957	150.115	223.945	148.693	-8191	255	
2160.933	1	1	0	0	0.22657	0.1022	0.13668	0.30332	0.30742	0.15315	0.23608	0.15346	0.22536	0.019781	0.092299	0.1306	0.1122	0.21954	0.25582	0.1963	-1.5521	-1.3958	-1.8521	-2.0896	-1.2812	-1.9604	-1.9042	-1.3021	-2.1833	-1.5312	-1.7521	-2.3167	-1.3771	-2.0979	-1.8125	-1.4292	342.608	178.145	269.568	147.105	254.121	173.601	450.892	418.430	460.634	449.650	460.139	397.340	356.598	447.793	442.540	193.746	0.00037362	0.0035187	0.00041163	1135.7	1.7995e-05	1.9384e-05	1292.1	304.45	1.955e-05	3.7494e-05	374.61	114.62	86.338	28.196	1.4627e-05	34.28	0.011918	0.01384	0.0038397	1320.4	0.00014801	0.00015072	1483.9	379.2	0.00014749	0.00015184	512.08	154.94	127.21	42.497	0.00014991	54.324	247.987	345.458	270.975	137.552	272.404	219.975	137.207	142.105	269.635	354.626	141.155	145.251	146.579	150.269	287.979	148.329	-8191	255	
2161.029	1	1	0	0	0.24875	0.14809	0.12641	0.244	0.13907	0.19617	0.14241	0.47205	0.20074	0.1296	0.3519	0.24434	0.11744	0.41005	0.091066	0.12742	-1.675	-1.4667	-1.4062	-2.4313	-1.1229	-1.9208	-2.1292	-1.3104	-1.9354	-1.7229	-1.5542	-2.2062	-1.4708	-1.9271	-1.9792	-1.3188	177.162	128.895	213.377	446.348	157.007	217.222	391.211	481.854	273.449	322.534	170.935	473.559	357.945	459.809	299.430	412.025	0.0001382	0.0029588	0.00074801	1131.9	9.0007e-06	4.3114e-05	1289.1	302.42	8.0853e-06	1.4871e-05	373.49	113.81	85.276	28.562	8.8519e-06	34.401	0.011921	0.013943	0.0038776	1321.1	0.0001488	0.00015232	1482.1	378.37	0.00014661	0.00015255	511.28	154.76	126.77	42.668	0.00015057	54.453	220.416	129.955	239.054	137.907	249.058	391.646	137.246	141.968	482.104	326.942	141.001	145.710	146.116	150.332	364.734	148.853	-8191	255	
2161.125	1	1	0	0	0.13801	0.24799	0.17169	0.24318	0.22302	0.26298	0.32137	0.055284	0.15497	0.30198	0.25191	0.033412	0.11622	0.094282	0.14785	0.29397	-1.8625	-1.5896	-1.3937	-2.375	-1.3479	-1.7646	-2.175	-1.2667	-1.9312	-1.7042	-1.2583	-2.3812	-1.3458	-1.6875	-2.1479	-1.3292	241.107	183.858	270.902	371.959	182.439	407.206	457.777	226.815	204.903	292.541	203.242	256.642	338.968	199.678	135.354	384.552	0.00020767	0.0019957	0.0006416	1140.7	2.3696e-05	1.8021e-05	1294.7	304.89	2.5249e-05	1.5012e-05	378.27	115.71	85.48	28.477	1.3287e-05	34.581	0.011949	0.014048	0.0038979	1326.3	0.00015008	0.00015342	1490.3	380.81	0.00014704	0.00015304	513.35	155.27	126.79	42.64	0.00014805	54.284	185.891	249.361	180.128	137.722	335.968	412.236	137.539	142.046	275.549	294.964	140.892	145.694	146.148	150.220	322.179	148.650	-8191	255	
2161.221	1	1	0	0	0.086562	0.11483	0.21737	0.17632	0.093027	0.087761	0.31856	0.33508	0.059121	0.23133	0.059344	0.17147	0.24093	0.11283	0.14517	0.079667	-1.5729	-1.6542	-1.3646	-2.2167	-1.4188	-1.5458	-2.2958	-1.4688	-1.8521	-1.7917	-1.4396	-2.1333	-1.2042	-1.5771	-1.9396	-1.2729	453.390	425.438	352.819	320.488	439.813	458.158	418.748	465.323	181.692	271.069	228.662	270.517	438.642	408.521	130.095	225.174	0.00036669	0.001979	0.0010189	1145.4	8.663e-06	8.6034e-06	1301.8	306.86	6.4456e-06	2.2397e-05	379.15	114.4	86.957	28.467	8.0367e-06	34.541	0.011759	0.013824	0.0038098	1326.1	0.00014645	0.0001502	1490.7	379.86	0.00014516	0.00015103	512.63	154.8	126.92	42.514	0.00014658	54.091	234.502	482.714	252.057	137.904	327.770	319.552	137.454	142.118	443.448	286.443	141.125	145.551	145.982	150.101	472.028	148.276	-8191	255	
2161.317	1	1	0	0	0.23059	0.20893	0.15708	0.2285	0.26305	0.11634	0.092356	0.40445	0.040642	0.12245	0.18575	0.35559	0.072377	0.23703	0.1314	0.085482	-1.3438	-1.8917	-1.1667	-2.1458	-1.3292	-1.6604	-2.3396	-1.425	-1.7208	-2.0854	-1.4729	-2.0563	-1.7354	-1.3875	-2.2438	-1.2417	163.348	422.806	367.398	414.926	298.357	167.861	268.059	141.517	303.218	161.599	142.604	441.422	343.595	361.953	210.901	163.061	0.00031005	0.00093637	0.00035826	1139.8	5.1033e-06	3.8989e-06	1290.2	305.48	6.3922e-06	2.5711e-05	373.93	113.98	84.821	28.3	1.814e-05	33.856	0.011713	0.013711	0.003771	1317.2	0.00014635	0.00014991	1477.8	377.23	0.00014497	0.00014931	507.31	153.28	126.05	42.366	0.00014629	53.813	214.456	170.545	218.076	137.906	422.808	213.168	137.198	141.799	246.090	130.252	140.924	144.851	145.934	149.992	253.116	148.879	-8191	255	
2161.414	1	1	0	0	0.090257	0.11343	0.056334	0.41335	0.15847	0.2748	0.15367	0.1192	0.25971	0.070874	0.10944	0.15532	0.050115	0.088635	0.19461	0.31225	-1.1625	-1.8937	-1.1	-2.1896	-1.7271	-1.4708	-2.4188	-1.6604	-1.5604	-2.1771	-1.2979	-2.0792	-1.9937	-1.3729	-2.2292	-1.4771	217.598	153.115	206.529	429.819	435.884	289.014	143.892	367.713	245.702	251.163	162.248	448.234	377.537	477.257	469.412	173.563	0.00054296	0.00012762	0.00047825	1136.9	1.6022e-05	1.197e-05	1287.5	303.79	9.5505e-06	2.3178e-05	371.86	114.5	85.921	28.42	1.1502e-05	34.02	0.011718	0.013857	0.0038068	1313	0.00014677	0.00015017	1474.2	376.55	0.00014515	0.00014992	506.32	153.65	126.08	42.309	0.00014561	53.685	244.027	380.186	164.244	137.738	251.812	284.967	137.219	142.013	361.657	333.923	140.700	145.354	145.738	150.392	414.008	148.915	-8191	255	
2161.510	1	1	0	0	0.27505	0.1343	0.093475	0.16392	0.12914	0.28041	0.12892	0.13668	0.20451	0.12441	0.087313	0.29187	0.18758	0.14506	0.16262	0.2357	-1.2687	-2.1042	-1.0646	-2.1104	-2.0854	-1.1938	-2.3396	-1.7	-1.225	-2.4083	-1.2771	-1.7271	-2.1521	-1.4271	-2.1708	-1.5583	225.342	468.975	294.726	403.033	135.672	258.432	402.730	478.491	471.791	191.886	144.964	385.296	333.156	460.128	287.146	393.067	0.00044607	0.0011972	0.00054213	1140.3	1.0864e-05	2.9068e-05	1289.3	302.9	3.6745e-06	3.7364e-05	377.63	114.54	85.679	28.382	1.5763e-05	34.443	0.011769	0.013601	0.0037743	1314.2	0.00014623	0.00014964	1476.2	377.33	0.000145	0.00014959	511.02	154.29	127.11	42.491	0.0001464	54.166	235.320	292.951	214.417	137.936	445.475	160.443	137.420	141.780	324.118	282.666	141.118	145.650	146.111	150.265	330.666	148.352	-8191	255	
2161.629	1	1	0	0	0.34217	0.093547	0.28555	0.051134	0.1256	0.13232	0.33448	0.1311	0.23465	0.11794	0.26872	0.15514	0.22355	0.31626	0.14814	0.099467	-1.0312	-2.2687	-1.3875	-2.0708	-1.9688	-1.3396	-2.1458	-1.7563	-1.4208	-2.2938	-1.3292	-1.9542	-2.0583	-1.2521	-1.6979	-1.8146	343.627	174.282	350.286	474.824	209.388	338.197	411.129	381.802	214.739	404.225	465.757	350.261	212.071	160.224	386.133	338.990	0.00019478	0.00039311	0.00033466	1144.9	1.3509e-05	1.0563e-05	1301.1	307.74	2.343e-05	1.3371e-05	379.29	115.41	86.731	28.557	8.0382e-06	34.643	0.01179	0.013624	0.0037836	1322.6	0.00014707	0.00014951	1485.6	379.9	0.00014624	0.00014921	512.93	155.19	127.09	42.766	0.00014573	54.513	226.250	145.056	244.594	137.772	321.978	175.763	137.534	141.956	230.707	181.578	140.983	145.708	145.892	150.718	285.175	148.677	-8191	255	
2161.725	1	1	0	0	0.1052	0.19745	0.05878	0.093668	0.13831	0.01862	0.27138	0.24979	0.17967	0.28557	0.14526	0.25113	0.14983	0.22934	0.28997	0.25346	-0.88125	-2.2396	-1.4562	-1.6333	-2.0917	-1.2271	-2.2354	-2.1458	-1.1875	-2.125	-1.4833	-1.6917	-2.2604	-1.2396	-1.9604	-2.1021	422.637	446.659	328.422	225.190	165.183	125.450	444.343	429.679	338.315	194.371	149.722	124.245	216.113	232.324	209.046	473.127	0.00042494	0.0011305	0.00019999	1138.7	1.9235e-05	1.5714e-05	1295.6	304.94	1.0863e-05	5.9636e-06	376.39	114.13	86.034	28.225	9.7688e-06	34.302	0.011768	0.013554	0.0037903	1319.9	0.00014616	0.0001493	1483	379.35	0.00014563	0.00014882	510.05	154.22	126.07	42.388	0.00014537	53.96	203.862	473.291	188.213	137.932	322.157	129.766	137.427	142.079	284.871	244.275	141.008	145.442	146.264	150.287	293.104	149.151	-8191	255	
2161.796	1	1	0	0	0.20292	0.224	0.13401	0.16221	0.083	0.14706	0.040781	0.24072	0.077124	0.20757	0.12361	0.20628	0.19391	0.25525	0.049489	0.083335	-0.87083	-2.1833	-1.6833	-1.5167	-2.1917	-1.5083	-1.9521	-2.3833	-1.2646	-2.1792	-1.9667	-1.4896	-2.275	-1.3229	-1.6688	-2.1437	262.149	434.147	264.693	421.228	168.753	346.151	147.575	194.885	435.767	358.804	159.672	478.616	208.635	480.590	284.484	317.994	0.0005676	0.00075365	0.00061828	1131.4	1.321e-05	1.1507e-05	1279	300.41	1.0182e-06	1.656e-05	373.67	113.49	84.519	28.16	2.0279e-05	34.169	0.011708	0.013474	0.0037817	1306.7	0.00014483	0.00014816	1465.8	374.92	0.00014489	0.00014782	505.88	153.38	125.35	42.195	0.00014554	53.77	220.286	217.100	286.597	137.949	393.071	358.295	137.401	141.904	135.916	194.610	140.914	145.991	146.166	150.340	450.509	149.108	-8191	255	
2161.894	1	1	0	0	0.13586	0.22743	0.058309	0.13604	0.12757	0.10323	0.17669	0.073878	0.19727	0.2456	0.26977	0.11919	0.34647	0.24947	0.08091	0.085073	-0.81458	-2.0687	-1.7896	-1.5146	-2.2833	-1.45	-1.8625	-2.3937	-1.3271	-2.0042	-2.0146	-1.6417	-2.2104	-1.4604	-1.5979	-2.3875	354.316	321.154	210.429	466.632	249.490	339.543	393.868	395.924	307.548	420.462	450.568	476.126	400.718	303.770	406.826	125.141	0.00031575	0.0017666	0.00026798	1126.5	1.2213e-05	1.5685e-05	1277.6	300.4	7.4449e-07	2.4306e-05	371.66	113.35	85.647	28.305	1.2843e-05	34.083	0.01168	0.013494	0.0037963	1303.3	0.00014488	0.00014892	1463.8	373.77	0.0001437	0.00014713	505.35	153.07	125.13	42.137	0.00014428	53.66	197.736	238.834	225.143	137.749	209.238	142.460	137.555	142.158	156.006	237.197	141.173	145.761	146.265	150.067	209.898	148.996	-8191	255	
2162.013	1	1	0	0	0.13813	0.20065	0.20873	0.093963	0.061117	0.35602	0.38377	0.1038	0.1696	0.083441	0.0075452	0.14192	0.10159	0.33625	0.079978	0.42096	-0.72708	-1.8417	-1.8104	-1.4729	-2.3042	-1.6854	-1.7812	-2.3292	-1.175	-1.6625	-2.1813	-1.3333	-2.2354	-1.5958	-1.5354	-2.4167	351.890	458.910	269.937	315.055	481.483	476.786	482.814	464.511	140.547	274.078	394.347	362.290	334.369	153.948	182.641	413.784	0.00044496	0.00079179	0.00054626	1135.9	1.0724e-05	2.9759e-05	1296.9	304.99	6.6881e-06	2.7007e-05	377.19	113.99	85.432	28.534	2.2457e-05	34.481	0.011609	0.013465	0.003773	1309.2	0.00014318	0.00014827	1477.1	376.07	0.00014297	0.00014602	508.87	153.69	125.19	42.243	0.00014435	53.733	202.845	262.863	429.439	137.905	197.999	241.424	137.281	141.959	469.383	256.690	140.561	145.317	146.107	150.456	288.807	148.941	-8191	255	
2162.109	1	1	0	0	0.26619	0.20964	0.030946	0.23355	0.19325	0.13566	0.39718	0.36114	0.16189	0.18107	0.30298	0.15572	0.31707	0.095464	0.26508	0.14256	-0.93333	-1.6021	-1.9042	-1.4833	-2.0979	-1.7375	-1.4646	-2.4083	-1.3979	-1.8896	-2.2083	-1.3333	-2.0625	-1.9729	-1.3667	-2.2292	269.614	179.025	273.767	416.128	401.437	209.971	397.125	448.293	468.365	398.813	400.429	412.792	414.655	392.097	263.766	430.048	0.00041215	0.0014098	0.00019727	1134.4	1.4516e-05	1.7101e-05	1295.3	303.87	9.6505e-06	1.1236e-05	375.89	114.02	86.146	28.534	1.271e-05	34.693	0.011541	0.013389	0.0037267	1308.7	0.00014283	0.00014761	1477.7	375.17	0.00014256	0.00014502	506.37	153.15	125	42.399	0.00014351	53.557	211.735	199.866	200.184	137.695	183.518	251.538	137.642	142.177	258.041	341.469	140.884	145.563	146.489	150.534	328.785	149.344	-8191	255	
2162.205	1	1	0	0	0.10672	0.12614	0.41348	0.30978	0.22464	0.18091	0.3675	0.35613	0.25508	0.17506	0.24578	0.041616	0.075584	0.19336	0.39252	0.2716	-1.0104	-1.6146	-2.0583	-1.6208	-2.0021	-1.8729	-1.4604	-2.2188	-1.5562	-1.5833	-2.2792	-1.3833	-1.7396	-2.1125	-1.2396	-2.1937	373.289	381.976	173.428	421.631	162.848	440.099	385.725	410.336	270.341	309.266	464.249	446.682	263.310	211.543	239.643	467.658	0.00045916	0.00085476	0.0012137	1118.2	1.9754e-05	2.4393e-05	1282	300.8	2.0997e-05	1.5261e-05	373.24	113.12	85.757	28.125	1.5807e-05	34.113	0.011562	0.013414	0.0037243	1302.9	0.00014282	0.00014874	1466	373.07	0.00014298	0.00014688	502.65	151.92	124.42	42.012	0.00014278	53.127	227.945	242.536	245.479	137.602	475.505	284.594	137.588	142.457	335.104	403.326	141.120	145.687	146.543	150.158	388.810	149.234	-8191	255	
2162.326	1	1	0	0	0.20163	0.2982	0.10033	0.19918	0.2654	0.089773	0.29033	0.15395	0.067563	0.03077	0.43335	0.28072	0.20114	0.37504	0.027907	0.32311	-1.2292	-1.4854	-2.2729	-1.4562	-1.7104	-1.8396	-1.5271	-2.1625	-1.7875	-1.0812	-2.3521	-1.3042	-1.775	-2.1479	-1.15	-2.0812	326.105	210.423	358.631	134.310	267.088	334.803	351.824	445.843	324.826	240.912	411.366	479.793	412.874	479.248	279.444	472.757	0.00051431	0.0020441	0.00037365	1122.7	2.5732e-05	1.3303e-05	1278.8	300.97	2.4497e-05	2.0498e-05	371.13	112.9	84.841	28.099	2.8268e-05	34.265	0.011478	0.013331	0.0037045	1296.5	0.00014138	0.00014617	1454.6	370.09	0.00014153	0.0001438	498.37	151.07	123.17	41.653	0.00013951	52.713	192.281	392.983	391.593	137.905	259.594	446.819	137.245	142.285	304.523	402.772	141.292	145.665	146.253	150.611	317.185	148.769	-8191	255	
2162.422	1	1	0	0	0.29261	0.20857	0.24468	0.24021	0.3079	0.10736	0.2096	0.19298	0.35001	0.13891	0.088433	0.14817	0.11387	0.16657	0.10517	0.43328	-1.4562	-1.3292	-2.1542	-1.6229	-1.7167	-2.1625	-1.4438	-1.975	-1.7812	-1.3229	-2.3167	-1.7167	-1.7229	-2.1708	-1.1437	-1.7938	143.776	223.341	271.501	476.220	357.192	269.435	469.377	407.005	315.369	262.479	462.124	141.317	483.102	391.865	208.102	383.516	0.00015687	0.0029742	0.00089356	1118.7	1.26e-05	2.3077e-05	1272.2	302.69	1.094e-05	8.4455e-06	373.18	113.37	85.084	28.309	2.1039e-05	34.285	0.011325	0.013002	0.0036005	1289.9	0.00013885	0.000143	1454.1	369.57	0.00014009	0.00014264	497.11	151.52	123.57	41.642	0.00014058	52.913	168.059	415.008	197.527	137.733	288.484	218.770	137.282	142.127	202.082	302.373	140.793	145.613	146.213	150.294	240.239	148.901	-8191	255	
2162.494	1	1	0	0	0.13227	0.30291	0.22687	0.01119	0.2422	0.13402	0.14348	0.29935	0.16728	0.044516	0.23159	0.088763	0.12583	0.24861	0.22715	0.3855	-1.4208	-1.2646	-2.1104	-1.7125	-1.3125	-2.1771	-1.6708	-2.0104	-2.0792	-1.2021	-1.9083	-1.6354	-1.6104	-2.35	-1.1938	-1.6562	386.146	153.066	147.272	140.096	460.557	469.130	361.556	394.764	373.208	257.442	347.360	246.485	416.158	432.071	129.140	412.531	0.00045412	0.0017271	0.00063043	1121.3	4.048e-06	3.3874e-05	1283.1	302.25	9.0015e-06	2.5048e-05	375.51	114.25	85.895	28.508	1.0891e-05	34.802	0.011306	0.013035	0.0035971	1292.9	0.00013946	0.0001421	1457.4	370.69	0.00013794	0.00014051	498.66	151.37	123.24	41.378	0.00013679	52.654	231.821	218.060	294.800	137.864	233.853	438.803	137.410	142.609	218.162	258.145	141.398	145.462	145.841	150.924	227.928	149.232	-8191	255	
2162.615	1	1	0	0	0.25792	0.19124	0.091748	0.20421	0.25264	0.098206	0.18729	0.4158	0.21479	0.17423	0.26048	0.10151	0.21321	0.13288	0.21461	0.1688	-1.675	-1.1771	-2.0396	-1.8333	-1.3417	-2.3042	-1.6229	-1.525	-2.1271	-1.3833	-2.0375	-1.8979	-1.4042	-2.4292	-1.6167	-1.4854	470.307	378.328	261.908	427.806	419.493	412.782	416.751	163.247	297.784	421.689	466.788	421.963	440.581	381.203	322.678	392.069	0.0002372	0.001036	0.00021499	1127.4	9.7467e-06	1.6074e-05	1291.9	303.76	3.4974e-06	1.8053e-05	371.99	113.55	85.186	28.269	2.5011e-05	34.349	0.010952	0.01261	0.0034848	1290.4	0.00013492	0.00013751	1453.4	368.61	0.00013493	0.00013667	493.05	150.2	121.65	40.993	0.00013388	51.983	284.005	267.265	350.555	137.738	242.449	169.114	137.378	142.654	215.036	127.641	141.534	145.422	146.219	150.120	212.294	149.359	-8191	255	
2162.709	1	1	0	0	0.22419	0.10951	0.22668	0.28836	0.14796	0.19146	0.18804	0.29902	0.092939	0.057273	0.13387	0.35206	0.21986	0.11389	0.11417	0.15564	-1.7687	-1.2521	-1.8687	-1.8875	-1.1667	-2.3771	-1.6688	-1.5562	-2.0312	-1.2104	-1.8396	-1.8896	-1.2167	-2.0563	-1.475	-1.4646	457.035	309.135	216.752	464.134	156.554	182.401	391.169	438.532	367.074	401.468	368.319	180.168	213.793	164.835	414.573	332.579	0.00034998	0.0010227	0.00024405	1116.4	5.9523e-06	3.5468e-06	1265.1	300.31	1.7746e-05	2.7272e-05	371.73	112	84.291	28.052	1.7098e-05	33.973	0.010792	0.012421	0.003434	1279.7	0.00013248	0.00013513	1435.9	365.16	0.00013249	0.00013564	488.49	148.68	120.56	40.55	0.00013298	51.724	255.556	274.494	234.551	137.695	299.724	259.966	137.468	142.256	376.480	201.245	141.091	145.675	146.307	150.360	230.289	148.750	-8191	255	
2162.805	1	1	0	0	0.15684	0.010758	0.16578	0.26937	0.11173	0.18918	0.28168	0.12583	0.082252	0.10036	0.091621	0.134	0.15457	0.15697	0.21969	0.025176	-1.8062	-1.4771	-1.6604	-2.2729	-1.2625	-2.1396	-1.7188	-1.3458	-2.075	-1.2479	-1.7437	-2.1229	-1.3687	-1.9688	-1.6354	-1.4875	477.483	476.026	298.871	456.260	426.937	401.526	443.237	446.620	457.631	427.359	152.064	370.642	235.731	325.694	397.595	148.615	0.00011806	0.0018897	0.00060567	1109.3	4.2284e-06	2.6224e-05	1271.1	298.09	5.6441e-06	1.0859e-05	371.4	112.44	83.411	28.13	1.3942e-05	34.134	0.010657	0.012396	0.0034341	1274.8	0.00013151	0.00013437	1435.9	364.11	0.00013058	0.00013436	488.4	148.22	120.38	40.579	0.00013246	51.763	201.858	312.589	412.380	137.669	246.953	470.099	137.344	142.164	306.948	402.161	141.253	145.567	146.407	150.559	193.866	148.575	-8191	255	
2162.926	1	1	0	0	0.21765	0.23689	0.15238	0.037035	0.17753	0.20531	0.066877	0.23269	0.22494	0.2339	0.26163	0.18775	0.23002	0.34891	0.1993	0.081611	-1.9021	-1.3583	-1.6187	-2.225	-1.2812	-2.1479	-2.1146	-1.5938	-2.2833	-1.5354	-1.4979	-2.3208	-1.45	-1.8958	-2.0771	-1.5625	337.058	209.405	147.224	415.846	178.166	252.176	297.565	167.236	216.019	280.231	380.997	419.688	428.189	452.988	308.129	460.949	0.00023327	0.0024438	0.00047541	1114.2	1.154e-05	1.0502e-05	1275.9	300.2	1.7902e-06	1.0737e-05	371.12	113.45	84.623	28.212	2.8101e-05	33.87	0.010597	0.0123	0.0034004	1276	0.00013142	0.00013407	1440	364.68	0.00012993	0.00013354	488.72	148.48	120.33	40.467	0.00013151	51.532	210.020	202.071	252.254	138.061	209.211	152.437	137.349	142.125	169.071	190.119	140.917	145.356	146.308	150.916	293.907	149.431	-8191	255	
2163.022	1	1	0	0	0.24288	0.168	0.1704	0.074492	0.061573	0.10832	0.098834	0.18332	0.12224	0.15011	0.13911	0.16271	0.064182	0.19687	0.37952	0.18536	-1.6458	-1.6333	-1.3104	-2.0958	-1.2042	-1.8083	-2.1354	-1.4417	-2.0104	-1.5938	-1.45	-2.4167	-1.3937	-1.9604	-1.9646	-1.4542	402.303	269.759	269.124	279.059	167.808	329.200	467.778	462.642	422.944	144.904	344.534	190.497	153.892	381.920	482.675	416.586	0.00027345	0.0010697	0.00044207	1122.4	4.9796e-06	2.5373e-05	1274.6	300.44	3.8211e-06	1.0156e-05	371.15	113.01	83.812	28.072	1.5371e-05	34.457	0.010366	0.012207	0.0033786	1274.1	0.00013026	0.00013227	1436	364.7	0.00012921	0.00013355	488.94	148.3	120.33	40.491	0.00013164	51.653	222.026	474.125	140.374	138.057	208.274	306.438	137.455	141.974	148.977	440.525	141.186	145.607	145.953	150.522	209.422	148.844	-8191	255	
2163.094	1	1	0	0	0.12299	0.23998	0.22426	0.37698	0.10085	0.13231	0.18698	0.14789	0.17124	0.28283	0.065844	0.17251	0.3054	0.1624	0.20948	0.13197	-1.6812	-1.8125	-1.2188	-2.3708	-1.4312	-1.5292	-2.3208	-1.475	-1.9625	-1.8312	-1.3396	-2.3021	-1.5	-1.4833	-2.0417	-1.3042	151.524	363.010	250.439	417.669	481.110	463.092	468.207	131.874	369.783	180.638	460.187	460.293	398.444	447.221	271.719	375.405	0.00043051	0.0017417	0.00048139	1118.3	3.4079e-06	1.3637e-05	1268.7	299.12	1.3234e-05	1.4453e-05	368.86	111.46	83.397	28.052	1.26e-05	33.843	0.010459	0.012266	0.0033856	1270.3	0.00013032	0.00013382	1431.1	361.58	0.00012993	0.00013387	485.09	146.64	119.03	40.253	0.00013049	51.086	194.019	197.517	180.510	138.075	483.020	280.580	137.270	142.143	275.770	475.087	140.894	145.487	146.133	150.407	180.744	148.827	-8191	255	
2163.190	1	1	0	0	0.16107	0.12172	0.22982	0.31373	0.27273	0.1358	0.23226	0.48053	0.30535	0.28739	0.077001	0.10166	0.17926	0.34314	0.33682	0.16947	-1.5854	-1.8729	-1.2396	-2.3271	-1.55	-1.5292	-2.3146	-1.1646	-1.7271	-2.0896	-1.1958	-2.1854	-1.6208	-1.5833	-2.0958	-1.5521	370.350	218.444	287.143	456.412	201.920	464.244	410.857	393.420	282.298	344.052	438.518	216.289	169.176	390.248	208.864	162.381	0.00048855	0.0020219	0.00052844	1114.5	2.0037e-05	1.5672e-05	1259.6	297.81	1.5816e-05	4.4534e-06	370.61	111.72	83.106	27.841	3.5322e-05	33.385	0.010445	0.012182	0.0033741	1265.3	0.00013055	0.00013393	1420.6	361.07	0.00012945	0.0001341	484.92	146.5	119.25	40.085	0.00013032	50.808	222.317	224.413	326.466	137.970	269.193	229.038	137.053	142.193	266.014	168.374	141.259	145.400	145.551	150.584	167.303	148.783	-8191	255	
2163.310	1	1	0	0	0.21386	0.21665	0.20895	0.20546	0.24177	0.14694	0.1089	0.10949	0.10642	0.10625	0.11247	0.07654	0.18914	0.19177	0.10471	0.24478	-1.1146	-2.1542	-1.1229	-2.2917	-1.7458	-1.6396	-2.3396	-1.4896	-1.6875	-2.1458	-1.3271	-2.0083	-1.7875	-1.2917	-2.0417	-1.4208	154.709	174.912	156.724	405.681	183.618	219.915	330.029	370.298	228.121	403.075	345.587	238.184	425.757	425.644	250.768	333.038	0.00040369	0.0011981	0.00035632	1111.2	1.7093e-05	1.7599e-05	1259.3	295.93	2.5574e-05	4.446e-05	369.18	111.53	83.874	27.602	5.5725e-06	33.719	0.010407	0.012132	0.0033442	1262.4	0.00012986	0.00013296	1421.9	360.26	0.00012912	0.00013291	484.38	146.74	119.4	40.038	0.00013002	51.166	197.704	235.575	278.970	138.152	288.986	147.450	137.248	142.103	282.540	396.604	141.207	145.411	146.355	150.215	276.676	148.428	-8191	255	
2163.407	1	1	0	0	0.14976	0.2292	0.20262	0.21778	0.16822	0.1882	0.47067	0.3516	0.12957	0.18564	0.23723	0.077482	0.11039	0.27171	0.26249	0.2551	-1.0125	-2.0812	-1.2375	-2.1833	-1.6667	-1.2125	-2.325	-1.7583	-1.4458	-2.2354	-1.2292	-1.8521	-2.0125	-1.1875	-2.1604	-1.4896	429.378	159.321	349.611	468.008	219.066	276.846	414.261	432.161	413.206	273.528	461.644	449.633	148.460	254.495	357.733	190.441	0.0003721	0.0014392	0.00097488	1109.5	2.3571e-06	1.306e-05	1268.8	297.52	1.1074e-05	7.5781e-06	370.77	112.3	83.791	27.684	1.6816e-05	33.963	0.010491	0.012215	0.0033765	1266.2	0.00013088	0.00013294	1431.9	361.72	0.00012959	0.00013281	485.99	147.25	119.84	40.229	0.00012976	51.295	222.148	436.081	225.551	138.061	267.483	204.606	137.363	141.982	196.635	467.203	141.426	145.603	146.079	150.475	274.130	148.734	-8191	255	
2163.503	1	1	0	0	0.24921	0.2224	0.12353	0.22235	0.24732	0.13569	0.10373	0.024855	0.16277	0.04986	0.35415	0.12581	0.20849	0.25469	0.24353	0.14139	-1.2396	-2.1396	-1.1979	-1.8146	-1.9542	-1.1104	-2.0896	-1.8479	-1.225	-2.2083	-1.4	-1.8438	-1.975	-1.3833	-2.1	-1.6938	411.987	326.686	150.047	443.248	226.420	395.861	411.947	438.747	425.472	440.375	127.327	385.718	314.682	243.583	238.198	246.577	0.00060764	0.0033041	0.00035007	1119.6	1.1797e-05	9.3702e-06	1269.2	296.87	1.9174e-05	2.54e-05	372.73	112.67	83.441	27.556	7.8075e-06	33.912	0.010491	0.012189	0.0033857	1269.3	0.00013069	0.00013288	1428.2	361.38	0.00012817	0.00013046	482.7	146.22	118.6	39.716	0.00012732	50.838	227.764	218.843	130.634	137.925	338.785	266.655	137.432	142.023	216.932	329.122	141.043	145.667	145.783	150.394	240.026	148.559	-8191	255	
2163.597	1	1	0	0	0.15178	0.12033	0.10013	0.24568	0.12514	0.24178	0.24624	0.22418	0.092299	0.27441	0.17238	0.31294	0.096445	0.14898	0.087402	0.2224	-1.0625	-2.2125	-1.5792	-1.5229	-2.0396	-1.2625	-2.3958	-1.9375	-1.2792	-2.1937	-1.4729	-1.7313	-2.1688	-1.4458	-1.8271	-2.0292	254.861	180.445	358.227	452.634	452.623	173.467	410.468	469.730	275.388	474.574	454.588	408.558	312.122	458.120	190.849	341.971	0.00020029	0.001093	0.00080099	1099.6	1.0334e-05	1.6742e-05	1257.7	293.36	6.5372e-06	1.0162e-05	366.8	110.24	83.18	27.619	8.7862e-06	33.715	0.010323	0.01196	0.0033328	1253.4	0.00012863	0.00013121	1414.7	357.77	0.00012839	0.00013078	480.65	145.32	117.97	39.668	0.00012812	50.889	244.157	314.956	331.140	138.079	157.490	341.309	137.598	141.731	319.482	276.721	140.956	145.807	145.983	150.568	333.045	148.626	-8191	255	
2163.718	1	1	0	0	0.069077	0.17449	0.15223	0.077102	0.11719	0.26643	0.16684	0.20522	0.20077	0.19171	0.084388	0.048612	0.12407	0.30306	0.089256	0.32109	-0.74167	-2.1646	-1.6625	-1.5812	-2.2333	-1.35	-2.0646	-2.1146	-1.2458	-1.9688	-1.5708	-1.4312	-2.1208	-1.4125	-1.7521	-2.225	389.779	263.446	194.562	361.655	337.310	408.967	404.562	415.131	204.514	268.312	184.463	405.729	402.350	417.298	475.558	465.449	0.00035766	0.0034493	0.00040113	1099.1	2.0717e-05	8.8392e-06	1253.2	293.76	5.6197e-06	1.7478e-05	365.47	111.49	83.73	27.606	7.1766e-06	34.012	0.010344	0.011887	0.0033316	1249.2	0.00012745	0.00013042	1407.3	356.33	0.00012656	0.00012767	478.14	144.96	117.62	39.698	0.00012649	50.819	251.078	196.294	287.487	138.102	245.644	305.490	137.494	142.248	335.000	353.103	141.101	145.207	146.496	150.313	358.617	148.884	-8191	255	
2163.789	1	1	0	0	0.1606	0.25757	0.11077	0.16431	0.15073	0.14238	0.26666	0.33568	0.096753	0.11309	0.23375	0.35634	0.24548	0.19341	0.157	0.22462	-0.8	-1.8563	-1.5396	-1.4708	-2.0563	-1.3875	-1.7062	-2.1771	-1.3563	-1.9542	-1.7563	-1.3083	-2.3271	-1.4125	-1.6208	-1.9729	461.980	326.659	332.440	329.926	393.993	418.067	415.185	453.827	326.523	128.627	208.544	393.375	393.585	221.153	333.092	264.007	0.00037688	0.0025676	0.00029021	1109.3	1.7269e-06	1.9553e-05	1266.3	298.17	9.04e-06	1.2477e-05	370.24	112.04	83.835	27.957	2.1879e-05	34.079	0.010156	0.011728	0.0033017	1256.5	0.00012581	0.00013006	1420.3	359.57	0.00012558	0.00012779	482.53	145.55	117.74	39.751	0.00012505	50.895	260.807	375.772	423.505	138.017	174.223	178.432	137.434	142.297	162.135	217.406	140.839	145.327	146.652	150.376	411.858	149.216	-8191	255	
2163.886	1	1	0	0	0.18197	0.07683	0.078527	0.27455	0.13199	0.16128	0.19915	0.1966	0.14707	0.26842	0.15616	0.20431	0.18931	0.17575	0.20558	0.12575	-0.70625	-1.9188	-1.9229	-1.3667	-2.1917	-1.4958	-1.5146	-2.0333	-1.1354	-1.6729	-2.1479	-1.3104	-2.1979	-1.6146	-1.4562	-2.3229	372.506	242.132	339.413	427.975	249.863	135.259	483.176	430.791	289.246	264.523	225.324	411.912	468.119	130.791	292.745	391.921	0.00046658	0.002106	0.00029704	1115.1	5.9391e-06	1.2318e-06	1270.4	300.58	1.6396e-05	3.5707e-06	371.26	112.88	84.085	27.942	1.1603e-05	34.212	0.010028	0.011633	0.0032688	1262	0.00012438	0.00012888	1423	360.34	0.00012456	0.00012769	482	146.01	118.14	39.929	0.00012596	50.91	221.504	231.563	206.676	138.043	336.559	452.283	137.405	142.321	280.304	396.218	141.223	145.288	146.224	149.757	328.038	149.007	-8191	255	
2164.006	1	1	0	0	0.18683	0.1478	0.19078	0.020064	0.12595	0.1387	0.041407	0.030068	0.23743	0.042125	0.19377	0.24275	0.098054	0.21145	0.23714	0.12471	-1.0021	-1.6667	-1.8583	-1.375	-2.2	-1.6625	-1.4896	-2.3125	-1.4146	-1.5854	-2.1396	-1.3188	-1.9771	-1.8917	-1.2604	-2.4104	265.084	310.341	370.827	379.259	347.210	333.472	435.741	207.250	248.900	246.253	442.403	299.962	266.827	445.898	339.654	399.484	0.00031146	0.0017133	0.00071464	1110.5	1.3268e-05	1.191e-05	1255.9	299.54	1.5198e-05	2.0486e-05	366.4	111.48	84.144	27.77	1.4162e-05	34.076	0.010136	0.011791	0.0032568	1252.1	0.00012501	0.00012938	1413.2	358.19	0.0001251	0.00012782	477.95	145.23	117.35	39.774	0.00012579	50.56	197.020	333.639	411.628	138.254	281.199	385.303	137.616	142.394	312.907	291.023	140.836	145.639	146.006	150.369	453.088	148.508	-8191	255	
2164.102	1	1	0	0	0.13426	0.094492	0.38918	0.41283	0.085935	0.24538	0.36687	0.14504	0.15573	0.41725	0.12111	0.13182	0.2444	0.24542	0.2254	0.12695	-0.98125	-1.525	-1.9625	-1.4708	-1.875	-1.85	-1.5104	-2.3625	-1.425	-1.6854	-2.2354	-1.4312	-2.0354	-1.9896	-1.3937	-2.075	232.899	299.782	387.657	457.315	288.655	269.034	447.601	444.829	330.734	156.866	416.454	162.542	135.498	160.291	404.080	446.018	0.00056736	0.002131	0.00031171	1098.6	7.2993e-06	1.3275e-06	1248.6	295.24	1.195e-05	1.9753e-05	366.34	111.76	84.152	27.744	6.967e-06	34.449	0.01017	0.011663	0.0032396	1245.9	0.0001236	0.00012825	1403.5	355.44	0.00012438	0.0001271	477.76	144.9	117.73	39.784	0.0001251	50.666	247.138	125.830	310.557	137.870	285.321	290.546	137.350	142.270	221.484	265.483	140.772	145.949	146.360	151.196	420.361	148.808	-8191	255	
2164.198	1	1	0	0	0.18335	0.13077	0.042515	0.44817	0.21814	0.21578	0.42739	0.16418	0.19767	0.19042	0.34953	0.14894	0.15219	0.066979	0.14281	0.21479	-1.375	-1.3583	-2.0125	-1.35	-1.7875	-1.8667	-1.5333	-2.3479	-1.7146	-1.3937	-2.2292	-1.3875	-1.8354	-2.2562	-1.2542	-2.1667	250.208	187.055	432.079	390.370	277.483	259.316	434.872	393.449	253.315	365.661	369.318	166.848	248.470	245.423	479.509	402.157	0.0002533	0.00079484	0.00040537	1100.6	1.3902e-05	2.0703e-05	1267.9	298.09	1.8418e-05	2.8068e-05	368.93	112.31	84.26	27.966	1.3162e-05	34.145	0.010124	0.011685	0.0032421	1247.1	0.00012511	0.00013008	1415	357.74	0.00012654	0.00012896	479.67	146.03	118.63	40.112	0.00012645	51.039	212.690	261.008	278.194	137.869	436.407	376.331	137.553	142.229	345.491	261.110	141.235	145.462	145.962	150.331	185.341	149.364	-8191	255	
2164.295	1	1	0	0	0.11302	0.19558	0.48684	0.17771	0.27624	0.097839	0.044587	0.20877	0.28331	0.041954	0.17437	0.14749	0.1894	0.0030622	0.24093	0.12027	-1.3542	-1.3479	-2.1542	-1.5104	-1.6479	-2.3792	-1.4396	-2.1917	-1.7875	-1.3896	-2.4104	-1.6437	-1.6396	-2.1437	-1.2271	-1.8708	340.202	255.060	390.218	142.832	388.932	418.331	473.252	333.243	386.195	287.215	127.541	147.950	385.901	365.814	330.544	315.700	0.00032358	0.002196	0.0010984	1109.6	9.2317e-06	5.3546e-06	1265.7	299.62	1.4038e-05	3.8979e-06	370.68	113.46	85.39	28.201	4.4339e-06	34.638	0.010241	0.011708	0.0032532	1255.8	0.00012619	0.0001294	1422.3	360.47	0.00012597	0.00012808	482.3	147.18	118.88	40.265	0.00012616	51.267	231.210	180.292	344.316	137.894	386.359	447.801	137.474	142.326	310.151	378.590	141.372	145.576	146.050	150.868	297.998	148.699	-8191	255	
2164.391	1	1	0	0	0.1005	0.079074	0.34843	0.26049	0.15874	0.16832	0.37805	0.18282	0.10983	0.18177	0.037847	0.3209	0.075479	0.19402	0.27376	0.11092	-1.6625	-1.1833	-2.1771	-1.8042	-1.5917	-2.3604	-1.4854	-2.0854	-1.8687	-1.2479	-2.2104	-1.575	-1.4396	-2.0542	-1.1354	-1.8	431.900	201.221	356.847	477.050	416.061	224.647	360.264	474.823	316.503	336.239	202.130	469.157	289.769	325.307	297.989	466.787	0.00041595	0.0014221	0.00024825	1110.3	3.2837e-05	1.5491e-05	1260.9	299.46	1.3095e-05	2.2611e-05	371.34	112.62	84.556	28.1	1.0658e-05	33.917	0.010198	0.011717	0.0032451	1258.2	0.00012519	0.00012856	1417	359.16	0.00012544	0.00012769	480.65	145.99	118.06	39.878	0.00012531	50.548	227.440	187.263	333.732	137.977	273.083	178.632	137.180	142.145	151.748	247.053	141.070	145.407	146.149	151.142	476.701	148.892	-8191	255	
2164.487	1	1	0	0	0.20573	0.3488	0.1434	0.23439	0.035368	0.25956	0.17929	0.14679	0.13042	0.18366	0.14666	0.06263	0.096036	0.12714	0.074884	0.13067	-1.7188	-0.95	-2.0021	-1.8333	-1.2875	-2.2229	-1.5479	-1.8062	-2.1188	-1.2313	-2.2583	-1.7583	-1.4333	-2.1063	-1.5021	-1.9229	402.760	345.741	277.232	436.689	258.185	309.406	359.943	126.671	474.100	462.062	461.776	471.277	324.932	429.940	148.761	441.426	0.00033025	0.0018199	0.00063732	1100.9	2.4836e-05	1.9295e-05	1255.2	295.88	2.5416e-05	1.7801e-05	364.32	112.38	83.395	27.8	9.8138e-06	33.817	0.010089	0.01159	0.0032066	1247	0.00012474	0.00012788	1410.1	357.36	0.00012588	0.00012832	476.85	145.53	117.6	39.623	0.00012587	50.556	264.171	373.207	218.652	137.730	196.501	333.924	137.516	142.099	328.439	449.565	141.226	145.254	146.732	150.237	376.483	148.627	-8191	255	
2164.606	1	1	0	0	0.15018	0.1734	0.075791	0.15158	0.077664	0.070416	0.11729	0.31707	0.17321	0.23571	0.22876	0.17997	0.012634	0.16051	0.26532	0.42971	-1.8	-1.2479	-1.9354	-1.9979	-1.1917	-2.4313	-1.75	-1.5917	-2.0875	-1.1917	-1.7458	-1.6896	-1.2958	-2.15	-1.5729	-1.6667	408.055	357.160	292.288	465.316	142.552	314.635	138.450	341.852	311.246	396.972	383.696	470.839	309.387	475.889	147.875	407.719	0.00016104	0.00207	5.492e-05	1097.9	4.8452e-06	1.4831e-05	1254.4	295.66	1.7861e-05	3.155e-06	363.31	111.78	84.154	28.012	8.0672e-06	34.318	0.010111	0.01177	0.0032287	1247.2	0.00012506	0.00012773	1408.8	356.7	0.00012533	0.00012767	477.27	145.64	118.06	39.798	0.00012652	50.843	156.575	374.145	335.678	137.827	212.183	426.238	137.264	142.350	286.050	394.260	141.261	145.581	146.623	150.895	406.895	149.132	-8191	255	
2164.702	1	1	0	0	0.23914	0.17755	0.19532	0.20009	0.21182	0.26548	0.31773	0.076356	0.39604	0.26581	0.11874	0.17689	0.14412	0.25145	0.13814	0.17507	-1.7208	-1.2542	-1.6104	-2.0771	-1.2958	-2.0229	-1.7	-1.5354	-2.1646	-1.4583	-1.7125	-2.2042	-1.1104	-2.0208	-1.7917	-1.4104	133.137	336.631	458.124	422.362	316.921	396.746	438.489	362.884	136.847	226.399	471.696	460.816	124.868	366.695	358.938	444.815	0.00043094	0.0016035	0.0011483	1104.2	2.6012e-06	8.6505e-06	1263.2	298.15	1.6798e-05	9.3567e-06	366.43	111.93	84.337	28.234	1.9445e-05	34.109	0.010118	0.011634	0.0032332	1250.5	0.00012441	0.00012718	1414.7	358.41	0.00012463	0.0001281	479.99	145.93	118.27	40.008	0.00012643	50.938	272.323	188.209	423.459	137.877	439.426	259.138	137.239	142.512	267.974	200.398	141.358	145.440	146.631	150.441	417.327	148.727	-8191	255	
2164.798	1	1	0	0	0.11921	0.19829	0.14771	0.39461	0.14804	0.35137	0.29233	0.035234	0.17241	0.09654	0.060508	0.079329	0.22601	0.12078	0.28014	0.13355	-1.7771	-1.3771	-1.5688	-2.3021	-1.2708	-1.975	-2.0229	-1.5521	-2.1292	-1.5021	-1.6667	-2.2292	-1.3188	-1.9	-1.9521	-1.175	358.461	475.574	334.835	435.781	354.904	175.871	420.554	439.032	221.227	128.899	385.128	208.915	204.384	179.249	363.223	441.242	0.00032337	0.00087498	3.4655e-05	1104.1	2.505e-05	2.1428e-05	1264.2	297.61	9.43e-06	1.8977e-05	368.65	111.94	83.902	28.171	6.1267e-06	34.089	0.010061	0.011642	0.0032401	1252.1	0.00012487	0.00012699	1418.6	358.12	0.00012402	0.00012789	480.95	145.81	117.82	39.892	0.00012524	50.83	257.240	484.631	298.974	138.168	236.070	289.709	137.405	142.749	310.589	386.600	141.026	145.773	146.120	150.331	301.405	148.781	-8191	255	
2164.894	1	1	0	0	0.21544	0.17394	0.09214	0.33447	0.17227	0.099611	0.11792	0.12128	0.075604	0.24675	0.12508	0.18284	0.20968	0.38087	0.19199	0.14517	-1.65	-1.4562	-1.5063	-2.275	-1.2708	-1.8	-2.1312	-1.2375	-2.2146	-1.625	-1.4271	-2.3646	-1.3833	-1.6729	-1.9771	-1.1688	196.651	408.383	368.490	480.477	138.977	412.459	477.394	452.803	480.728	398.652	145.754	301.353	220.538	409.972	277.210	153.222	0.00049484	0.00061032	0.00021614	1102.1	8.1885e-06	1.5586e-05	1252.2	295.63	5.5168e-06	4.2322e-05	366.5	111.25	83.819	27.785	1.4592e-05	34.127	0.010006	0.011726	0.0032318	1246.9	0.00012455	0.0001274	1407.6	355.46	0.00012372	0.00012732	476.5	144.27	116.57	39.539	0.00012512	50.471	246.205	193.584	293.623	137.978	225.633	454.457	137.428	142.554	215.156	302.823	141.126	145.671	146.030	151.209	214.530	149.055	-8191	255	
2164.990	1	1	0	0	0.18376	0.20204	0.16749	0.27937	0.13742	0.13346	0.31393	0.16955	0.16341	0.29146	0.3044	0.1039	0.23106	0.1446	0.062571	0.056803	-1.825	-1.7896	-1.4042	-2.2708	-1.3833	-1.5708	-2.3729	-1.1938	-2.0396	-1.8208	-1.3542	-2.3208	-1.6688	-1.6938	-2.3396	-1.3896	330.446	462.964	441.651	209.745	147.033	199.697	405.176	377.686	386.458	266.784	482.874	130.813	360.823	137.867	167.998	387.384	5.7818e-05	0.0016458	0.00047047	1092.8	1.2748e-05	7.9615e-06	1253.4	295.59	1.6152e-05	1.5483e-05	365.39	111.85	83.677	27.736	1.5922e-05	33.927	0.0098705	0.011607	0.0032087	1236.6	0.00012401	0.0001265	1402.5	354.43	0.00012291	0.00012755	474.54	144.53	117.13	39.615	0.00012453	50.408	137.768	196.656	125.502	138.368	299.474	168.877	137.550	142.178	141.065	356.082	140.982	146.177	146.345	150.468	282.966	149.121	-8191	255	
2165.087	1	1	0	0	0.068902	0.12776	0.20997	0.24764	0.27447	0.086607	0.38127	0.13256	0.21687	0.17379	0.50596	0.10882	0.2178	0.083063	0.041741	0.060727	-1.5312	-1.9104	-1.2104	-2.3229	-1.4792	-1.4833	-2.3354	-1.5792	-1.7708	-1.9896	-1.3167	-2.2125	-1.75	-1.45	-1.9396	-1.4438	483.510	152.155	363.619	422.629	402.495	455.623	419.668	150.709	317.002	323.794	435.160	342.023	484.236	402.033	238.847	440.712	0.00021294	0.0010912	0.00014821	1087.4	7.5198e-06	1.3386e-05	1260	295.66	2.4575e-05	5.8071e-06	364.57	112.15	83.724	28.154	2.6242e-05	34.53	0.009981	0.011626	0.003216	1238.8	0.0001252	0.00012755	1409	356.28	0.00012338	0.00012842	477.55	145.06	117.84	39.885	0.00012461	50.868	240.629	131.924	243.223	138.175	466.506	362.522	137.582	142.546	204.871	284.364	141.173	145.636	146.489	150.685	220.348	149.332	-8191	255	
2165.183	1	1	0	0	0.26588	0.29609	0.043292	0.45842	0.20096	0.15218	0.27367	0.046938	0.15684	0.053474	0.079681	0.026008	0.078074	0.1794	0.18619	0.19393	-1.5292	-1.95	-1.2708	-2.1479	-1.5375	-1.2958	-2.2146	-1.65	-1.5312	-2.1188	-1.4625	-2.0708	-1.8062	-1.2604	-2.1667	-1.5	269.712	398.380	162.058	125.669	346.325	144.650	428.153	308.219	348.848	282.753	198.303	394.619	257.303	403.430	209.197	438.321	0.00045639	0.0020442	0.00037133	1096.6	8.1996e-06	2.5415e-05	1263.7	298.37	7.0936e-06	1.9079e-05	370.5	112.33	84.176	28.277	1.6195e-05	34.97	0.010006	0.011763	0.0032306	1243.3	0.00012533	0.00012797	1414.2	358.24	0.00012412	0.00012852	481.54	146.35	118.64	40.208	0.00012625	51.325	198.209	208.505	415.170	137.918	415.438	216.083	137.642	142.009	284.318	369.933	140.934	145.891	146.265	150.405	283.341	148.429	-8191	255	
2165.279	1	1	0	0	0.10658	0.094737	0.30328	0.47895	0.049711	0.21992	0.35734	0.04241	0.25552	0.17852	0.25337	0.1444	0.21913	0.019878	0.06511	0.30356	-1.2646	-2.1208	-1.3208	-1.9083	-1.8312	-1.15	-2.3042	-1.7875	-1.475	-2.2	-1.4083	-1.8417	-1.9354	-1.4937	-1.9104	-1.5896	259.835	317.802	274.029	127.311	451.906	172.338	463.195	357.651	339.162	430.765	161.466	390.688	129.534	318.359	199.269	283.330	0.00014637	0.00042527	0.00061561	1094.7	1.3365e-05	1.2388e-05	1262.7	296.63	1.3147e-05	1.9785e-05	368.66	111.76	84.326	27.925	6.8156e-06	33.956	0.010091	0.01176	0.0032606	1246.6	0.00012659	0.00012891	1417	358.85	0.00012619	0.00012901	480.65	146.13	118.84	40.204	0.00012754	51.241	259.154	417.691	335.625	137.998	156.585	349.280	137.236	141.768	457.630	172.952	140.670	145.407	145.835	150.134	404.600	148.872	-8191	255	
2165.375	1	1	0	0	0.11658	0.14857	0.20892	0.20416	0.15468	0.16727	0.24051	0.24673	0.10463	0.035855	0.21519	0.18784	0.14946	0.36797	0.099754	0.18637	-1.0812	-2.2146	-1.3021	-1.9813	-1.8917	-1.2146	-2.3792	-1.8271	-1.4667	-2.2854	-1.3438	-1.9208	-2.0542	-1.2729	-2.05	-1.7542	266.533	444.567	442.210	467.522	135.156	287.813	398.395	388.900	367.170	135.304	402.485	466.565	442.694	419.063	150.859	146.244	0.00030814	0.00077076	0.00066095	1092.6	2.8504e-06	9.003e-06	1255	295.04	1.6318e-05	3.0153e-05	364.77	111.97	83.208	28.001	1.5594e-05	34.27	0.010237	0.011908	0.0033153	1244.8	0.00012812	0.00013055	1407.7	357.99	0.00012717	0.00012945	480.08	145.35	117.75	39.835	0.00012587	50.977	193.790	463.553	401.603	137.692	462.097	292.630	137.134	141.450	269.652	290.805	140.940	145.457	145.737	149.723	354.255	148.249	-8191	255	
2165.494	1	1	0	0	0.20258	0.1213	0.19099	0.31175	0.15118	0.070141	0.34747	0.24352	0.22074	0.25592	0.52541	0.13888	0.39442	0.13302	0.16788	0.18231	-0.8125	-2.075	-1.3312	-1.75	-1.9271	-1.2938	-2.2271	-1.8333	-1.3167	-2.1792	-1.3833	-1.5542	-1.9729	-1.375	-1.9479	-1.8312	453.247	157.844	480.967	446.121	402.125	349.239	435.381	417.117	272.708	335.943	130.109	426.156	469.018	305.477	305.028	340.300	0.00038743	0.0016511	0.00029305	1091	4.7317e-06	1.1557e-05	1252.9	294.27	7.6062e-06	1.0426e-05	368.04	111.59	82.666	27.871	2.2688e-05	34.314	0.010183	0.011801	0.0032902	1240.5	0.00012673	0.00012863	1403.2	356.61	0.00012531	0.00012766	477.31	145.25	117.6	39.88	0.00012491	51.05	198.999	183.714	228.828	137.735	177.385	471.679	137.043	141.585	240.898	366.838	140.851	145.198	145.865	150.068	381.109	148.728	-8191	255	
2165.590	1	1	0	0	0.084633	0.39903	0.12379	0.22826	0.29051	0.094976	0.24014	0.13345	0.35593	0.1974	0.098717	0.25652	0.33531	0.096577	0.18375	0.085427	-0.69375	-2.0021	-1.6667	-1.6729	-1.9708	-1.2021	-2.0958	-1.9917	-1.1604	-2.1104	-1.575	-1.4229	-2.0917	-1.3	-1.8813	-2.1583	161.851	246.004	189.374	450.981	316.415	252.958	388.699	386.255	384.114	162.583	284.476	251.342	126.780	372.933	475.616	245.074	0.00022935	0.0025645	0.00067959	1098.2	8.2906e-06	2.1259e-05	1260.2	295.71	1.6551e-05	9.3333e-06	366.3	111.83	83.11	28.034	1.4209e-05	34.474	0.010124	0.011688	0.0032703	1244.7	0.00012543	0.00012934	1412.5	357.73	0.00012566	0.00012799	479.19	145.73	118.15	39.995	0.00012593	51.08	224.965	242.599	231.017	137.666	193.772	185.872	137.180	141.822	165.301	288.244	140.321	145.354	145.711	150.633	255.655	148.732	-8191	255	
2165.688	1	1	0	0	0.21395	0.091851	0.17091	0.21979	0.3147	0.22153	0.17019	0.22036	0.21547	0.22116	0.13071	0.1097	0.25305	0.20177	0.23908	0.13902	-0.8625	-1.9125	-1.6292	-1.6	-2.1583	-1.1375	-1.8229	-2.1625	-1.1313	-1.9542	-1.6187	-1.2292	-2.1833	-1.4354	-1.5083	-2.0271	161.273	470.628	399.656	427.539	186.548	469.431	332.484	147.516	222.827	260.344	228.568	251.594	419.396	334.549	422.572	329.857	0.00046679	0.0017201	0.00082432	1097.2	1.0562e-05	8.3078e-06	1258.2	297.69	8.3732e-06	1.8298e-05	368.99	111.72	83.932	27.928	2.1226e-05	34.505	0.010077	0.011631	0.0032743	1249.3	0.00012464	0.00012847	1414.3	358.67	0.00012497	0.00012688	479.94	145.68	117.45	39.962	0.00012386	50.798	227.861	206.568	174.668	137.592	232.654	150.248	137.350	141.829	319.806	323.403	140.615	145.353	146.033	149.798	360.703	148.588	-8191	255	
2165.782	1	1	0	0	0.098789	0.17793	0.096409	0.57001	0.10729	0.26887	0.25043	0.13518	0.12089	0.10909	0.16782	0.23525	0.17965	0.18737	0.16305	0.047184	-1.0063	-1.8542	-1.7729	-1.3021	-2.1437	-1.3375	-1.7875	-2.3042	-1.1187	-1.9062	-2.0417	-1.3604	-2.2667	-1.5104	-1.4667	-2.1479	195.268	464.482	251.972	459.459	185.629	204.731	162.821	424.342	386.545	481.748	381.940	276.388	383.327	132.682	305.419	422.058	0.00053319	0.0005162	0.0006262	1094.3	8.6894e-06	8.9437e-06	1253.9	292.66	1.2912e-05	1.3508e-05	364.15	110.8	82.839	27.925	1.377e-05	34.123	0.0099369	0.011451	0.0032135	1239	0.00012318	0.00012635	1400.3	353.57	0.00012279	0.00012512	473.14	143.5	116.22	39.464	0.00012301	50.353	183.599	200.385	253.589	137.753	243.709	308.384	137.577	141.882	201.609	288.859	140.777	145.441	145.890	150.340	263.137	148.070	-8191	255	
2165.878	1	1	0	0	0.039013	0.25835	0.021805	0.2519	0.3933	0.19742	0.23015	0.15393	0.17741	0.1939	0.18623	0.15659	0.106	0.15481	0.082009	0.030788	-0.99583	-1.6625	-1.9604	-1.4813	-2.0187	-1.5083	-1.5688	-2.1979	-1.2771	-1.775	-2.1354	-1.2208	-2.1125	-1.7167	-1.4458	-2.1688	314.586	282.748	335.644	481.764	288.731	332.676	470.842	456.884	255.290	307.103	336.264	479.766	463.624	132.080	280.769	278.615	0.00034369	0.0011472	0.00061818	1080.8	2.1296e-05	1.0211e-05	1248	294.25	2.0179e-05	2.1645e-06	362.64	111.42	83.018	27.895	2.9507e-06	34.184	0.0098621	0.011397	0.0031842	1228.2	0.00012177	0.00012614	1392.1	352.64	0.00012234	0.00012388	473.24	144.04	115.79	39.48	0.00012203	50.28	256.491	370.229	247.472	137.608	359.083	163.093	137.309	141.916	248.302	449.000	140.799	145.352	145.916	149.832	188.269	148.841	-8191	255	
2165.975	1	1	0	0	0.13084	0.2235	0.26153	0.16121	0.24006	0.24313	0.3196	0.16424	0.045198	0.25008	0.22671	0.11404	0.14126	0.11197	0.10212	0.084291	-0.85833	-1.5854	-2.0438	-1.3104	-1.9458	-1.8667	-1.3937	-2.3396	-1.5417	-1.4562	-2.4313	-1.5063	-1.8708	-1.7542	-1.0771	-2.1521	205.653	141.391	212.298	155.641	461.281	229.496	397.013	342.408	464.928	417.013	445.462	463.163	475.623	475.785	409.149	393.757	0.00039247	0.0018949	0.00026425	1087.8	2.112e-06	6.9867e-06	1250.5	294.94	8.8526e-06	1.8646e-05	366.1	111.81	82.838	27.952	2.0476e-05	34.634	0.0098037	0.011338	0.0031568	1228.5	0.00012123	0.00012538	1395.9	353.46	0.00012152	0.00012426	474.3	144.33	116.56	39.609	0.00012192	50.58	222.126	178.562	167.470	137.537	274.839	460.323	137.407	141.899	157.677	473.912	140.793	145.144	145.935	150.406	274.016	148.729	-8191	255	
2166.095	1	1	0	0	0.09245	0.11229	0.12351	0.36933	0.23864	0.16092	0.27537	0.1715	0.28504	0.26926	0.29855	0.14706	0.18571	0.30407	0.2334	0.22276	-1	-1.4917	-2.0792	-1.1771	-1.8583	-2.0042	-1.3604	-2.1188	-1.6021	-1.2417	-2.3104	-1.2667	-1.8833	-2.1312	-1.25	-2.2917	389.888	137.621	428.912	437.736	334.010	277.402	373.550	386.608	204.787	324.863	131.396	457.237	363.650	457.356	320.071	342.978	0.00039835	0.0020337	0.00019572	1096.5	2.0751e-06	2.8024e-05	1256.3	296.25	1.2109e-05	2.2251e-05	368.38	113.53	83.696	28.45	5.444e-06	35.096	0.0098255	0.011264	0.003135	1236.9	0.00012017	0.00012464	1401.2	354.49	0.00012058	0.0001236	476.42	145.04	117.03	39.85	0.0001207	50.856	231.891	277.581	270.968	137.508	142.940	299.908	137.189	141.914	330.374	289.796	140.737	144.876	146.073	150.087	221.329	148.820	-8191	255	
#DATA ENDS
