BOXY.EXE: ISS Imagent and Oximeter Data Acquisition Program Version 0.80
Ascii Record File

#ACQ INFORMATION
2  Detector Channels 
16  External MUX Channels 
1  Auxiliary Channels 
5000  Waveform (CCF) Frequency (Hz)
1  Waveforms Skipped 
30  Waveforms Averaged 
1  Cycles Averaged 
16  Acquisitions per Waveform 
10.0806  Updata Rate (Hz) 

#FILE INFORMATION
TRUE -- External MUX Channel results are PARSED.
FALSE -- AC DC and Phase are NOT grouped.
TRUE -- Companion Program Settings File CREATED.
FALSE -- AC data not excluded
FALSE -- DC data not excluded
FALSE -- Phase data not excluded
FALSE -- Auxillary Chn. data not excluded
Tab delimiters

#CALIBRATION STATE
TRUE -- Waveform Calibration Values APPLIED.


#AUX CALIBRATION VALUES
Val Type	aux-1	

Term	1.0000e+00	
Factor	0.0000e+00	


#WF CALIBRATION VALUES
A = Detector Channel
Val Type	A-AC1	A-AC2	A-AC3	A-AC4	A-AC5	A-AC6	A-AC7	A-AC8	A-AC9	A-AC10	A-AC11	A-AC12	A-AC13	A-AC14	A-AC15	A-AC16	A-DC1	A-DC2	A-DC3	A-DC4	A-DC5	A-DC6	A-DC7	A-DC8	A-DC9	A-DC10	A-DC11	A-DC12	A-DC13	A-DC14	A-DC15	A-DC16	A-Ph1	A-Ph2	A-Ph3	A-Ph4	A-Ph5	A-Ph6	A-Ph7	A-Ph8	A-Ph9	A-Ph10	A-Ph11	A-Ph12	A-Ph13	A-Ph14	A-Ph15	A-Ph16	

Term	0.00000e+00	0.00000e+00	0.00000e+00	0.00000e+00	0.00000e+00	0.00000e+00	0.00000e+00	0.00000e+00	0.00000e+00	0.00000e+00	0.00000e+00	0.00000e+00	0.00000e+00	0.00000e+00	0.00000e+00	0.00000e+00	0.00000e+00	0.00000e+00	0.00000e+00	0.00000e+00	0.00000e+00	0.00000e+00	0.00000e+00	0.00000e+00	0.00000e+00	0.00000e+00	0.00000e+00	0.00000e+00	0.00000e+00	0.00000e+00	0.00000e+00	0.00000e+00	0.00000e+00	0.00000e+00	0.00000e+00	0.00000e+00	0.00000e+00	0.00000e+00	0.00000e+00	0.00000e+00	0.00000e+00	0.00000e+00	0.00000e+00	0.00000e+00	0.00000e+00	0.00000e+00	0.00000e+00	0.00000e+00	
Factor	1.00000e+00	1.00000e+00	1.00000e+00	1.00000e+00	1.00000e+00	1.00000e+00	1.00000e+00	1.00000e+00	1.00000e+00	1.00000e+00	1.00000e+00	1.00000e+00	1.00000e+00	1.00000e+00	1.00000e+00	1.00000e+00	1.00000e+00	1.00000e+00	1.00000e+00	1.00000e+00	1.00000e+00	1.00000e+00	1.00000e+00	1.00000e+00	1.00000e+00	1.00000e+00	1.00000e+00	1.00000e+00	1.00000e+00	1.00000e+00	1.00000e+00	1.00000e+00	X	X	X	X	X	X	X	X	X	X	X	X	X	X	X	X	

B = Detector Channel
Val Type	B-AC1	B-AC2	B-AC3	B-AC4	B-AC5	B-AC6	B-AC7	B-AC8	B-AC9	B-AC10	B-AC11	B-AC12	B-AC13	B-AC14	B-AC15	B-AC16	B-DC1	B-DC2	B-DC3	B-DC4	B-DC5	B-DC6	B-DC7	B-DC8	B-DC9	B-DC10	B-DC11	B-DC12	B-DC13	B-DC14	B-DC15	B-DC16	B-Ph1	B-Ph2	B-Ph3	B-Ph4	B-Ph5	B-Ph6	B-Ph7	B-Ph8	B-Ph9	B-Ph10	B-Ph11	B-Ph12	B-Ph13	B-Ph14	B-Ph15	B-Ph16	

Term	0.00000e+00	0.00000e+00	0.00000e+00	0.00000e+00	0.00000e+00	0.00000e+00	0.00000e+00	0.00000e+00	0.00000e+00	0.00000e+00	0.00000e+00	0.00000e+00	0.00000e+00	0.00000e+00	0.00000e+00	0.00000e+00	0.00000e+00	0.00000e+00	0.00000e+00	0.00000e+00	0.00000e+00	0.00000e+00	0.00000e+00	0.00000e+00	0.00000e+00	0.00000e+00	0.00000e+00	0.00000e+00	0.00000e+00	0.00000e+00	0.00000e+00	0.00000e+00	3.94855e+01	-1.32128e+02	-1.27181e+02	-1.84490e+02	-6.72028e+01	-7.11501e+01	-1.59062e+02	-1.62015e+02	-4.80925e+01	-6.50300e+01	-1.70682e+02	-1.71722e+02	-1.81139e+02	-1.78172e+02	-6.66378e+01	-1.50327e+02	
Factor	6.14565e-05	1.43988e-04	4.12154e-05	2.02262e-01	1.95690e-06	1.65095e-06	1.56930e-01	5.15347e-02	2.54719e-06	1.60944e-06	8.43913e-02	3.21709e-02	2.84674e-02	9.18122e-03	1.99602e-06	1.31396e-02	2.11529e-05	3.98913e-05	1.12962e-05	1.08715e-01	3.85736e-07	4.59041e-07	7.93570e-02	2.79075e-02	3.67363e-07	4.60695e-07	4.42269e-02	1.68013e-02	1.55642e-02	5.02853e-03	4.02019e-07	6.94216e-03	X	X	X	X	X	X	X	X	X	X	X	X	X	X	X	X	



#DISTANCE SETTINGS
A = Detector Channel
A-1	A-2	A-3	A-4	A-5	A-6	A-7	A-8	A-9	A-10	A-11	A-12	A-13	A-14	A-15	A-16	

2.5000e+00	3.0000e+00	2.5000e+00	3.0000e+00	2.0000e+00	3.0000e+00	1.5000e+00	3.0000e+00	3.0000e+00	3.0000e+00	3.0000e+00	3.0000e+00	3.0000e+00	3.0000e+00	1.5000e+00	3.0000e+00	

B = Detector Channel
B-1	B-2	B-3	B-4	B-5	B-6	B-7	B-8	B-9	B-10	B-11	B-12	B-13	B-14	B-15	B-16	

1.0000e+01	1.0000e+01	1.0000e+01	1.4400e+00	1.0000e+01	1.0000e+01	1.5100e+00	1.9400e+00	1.0000e+01	1.0000e+01	1.9900e+00	2.4900e+00	2.4100e+00	2.9000e+00	1.0000e+01	2.9800e+00	




#DATA BEGINS
time	group	step	mark	flag	A-AC1	A-AC2	A-AC3	A-AC4	A-AC5	A-AC6	A-AC7	A-AC8	A-AC9	A-AC10	A-AC11	A-AC12	A-AC13	A-AC14	A-AC15	A-AC16	A-DC1	A-DC2	A-DC3	A-DC4	A-DC5	A-DC6	A-DC7	A-DC8	A-DC9	A-DC10	A-DC11	A-DC12	A-DC13	A-DC14	A-DC15	A-DC16	A-Ph1	A-Ph2	A-Ph3	A-Ph4	A-Ph5	A-Ph6	A-Ph7	A-Ph8	A-Ph9	A-Ph10	A-Ph11	A-Ph12	A-Ph13	A-Ph14	A-Ph15	A-Ph16	B-AC1	B-AC2	B-AC3	B-AC4	B-AC5	B-AC6	B-AC7	B-AC8	B-AC9	B-AC10	B-AC11	B-AC12	B-AC13	B-AC14	B-AC15	B-AC16	B-DC1	B-DC2	B-DC3	B-DC4	B-DC5	B-DC6	B-DC7	B-DC8	B-DC9	B-DC10	B-DC11	B-DC12	B-DC13	B-DC14	B-DC15	B-DC16	B-Ph1	B-Ph2	B-Ph3	B-Ph4	B-Ph5	B-Ph6	B-Ph7	B-Ph8	B-Ph9	B-Ph10	B-Ph11	B-Ph12	B-Ph13	B-Ph14	B-Ph15	B-Ph16	aux-1	digaux	

1160.713	1	1	0	256	0.11068	0.22154	0.31063	0.28211	0.33349	0.057859	0.22443	0.23925	0.207	0.064037	0.25313	0.13293	0.17754	0.14825	0.25893	0.10364	-0.70833	-1.9937	-1.4104	-1.3271	-1.9	-1.1833	-1.6958	-1.8083	-0.78958	-1.7917	-1.5521	-1.2292	-1.9062	-1.2104	-1.6437	-1.9521	391.004	217.373	102.252	331.636	375.730	323.139	369.281	240.244	168.280	253.891	350.057	362.433	36.359	32.799	92.031	40.728	0.00059186	0.00044912	3.7711e-05	1084.3	7.1337e-06	3.9238e-06	1191.7	224.95	1.479e-05	3.502e-06	287.19	80.921	63.465	18.455	5.6374e-06	25.595	0.0018722	0.0032398	0.00092227	1082.9	3.2088e-05	3.6586e-05	1186.2	227.86	3.0435e-05	3.7305e-05	289.94	82.615	64.935	19.09	3.3553e-05	26.775	315.358	125.571	373.066	43.388	203.389	209.516	43.361	50.539	193.221	216.098	50.011	57.213	57.553	64.978	245.583	63.441	-8191	255	
1160.810	1	1	0	0	0.10136	0.22972	0.21478	0.059282	0.1544	0.13254	0.16683	0.21464	0.29557	0.077021	0.16084	0.23135	0.21648	0.027472	0.19562	0.20898	-0.71042	-1.6812	-1.7437	-1.2521	-2.0354	-1.1479	-1.6042	-1.8333	-0.81042	-1.9062	-1.8333	-1.0604	-2.0146	-1.3333	-1.3271	-1.9	278.262	49.676	144.245	246.278	315.250	98.525	327.267	133.093	39.087	250.925	104.760	373.385	336.255	107.717	184.083	48.334	0.000649	0.00038445	0.00012066	1085.1	2.5573e-06	6.151e-06	1186.8	226.22	4.0789e-06	3.5778e-06	286.74	80.726	63.406	18.371	5.4089e-06	25.582	0.0018953	0.003198	0.00093542	1082.8	3.2532e-05	3.8332e-05	1184.5	228.44	3.1855e-05	3.8283e-05	290.08	82.805	65.016	19.141	3.478e-05	26.752	327.495	122.430	162.591	43.137	171.512	171.050	43.299	50.932	186.378	238.127	50.140	57.605	57.809	64.561	218.978	63.857	-8191	255	
1160.928	1	1	0	0	0.27379	0.16064	0.11313	0.053096	0.28282	0.16405	0.15974	0.13096	0.17907	0.26053	0.10109	0.12748	0.23953	0.18268	0.17856	0.1928	-0.7125	-1.5875	-1.675	-1.1104	-1.9396	-1.4771	-1.3687	-1.8521	-1.1708	-1.7	-1.6625	-1.1583	-1.9458	-1.4083	-1.2104	-1.9104	347.072	329.079	93.026	287.058	41.770	179.467	167.270	335.366	278.698	301.538	300.180	282.496	341.280	260.801	184.425	353.173	0.00072585	0.00020324	4.3859e-05	1083.3	2.8399e-06	5.1012e-06	1188.4	226.26	1.2306e-05	2.808e-06	284.13	81.343	63.872	18.249	5.8215e-06	25.704	0.0019911	0.0033167	0.00093502	1083.4	3.1974e-05	3.8235e-05	1186.1	228.39	3.0886e-05	3.8235e-05	289.75	82.848	65.074	19.104	3.3704e-05	26.819	315.181	355.186	181.553	43.151	153.594	104.666	43.194	50.639	282.733	85.326	50.549	57.734	58.018	64.384	163.037	63.676	-8191	255	
1161.025	1	1	0	0	0.26564	0.16999	0.19054	0.1629	0.035243	0.15525	0.19661	0.18738	0.1422	0.19663	0.19495	0.38017	0.23019	0.18215	0.13769	0.27135	-0.81667	-1.625	-1.9312	-1.0375	-1.8417	-1.3083	-1.4083	-1.9771	-1.2396	-1.5521	-2.0875	-1.2729	-1.8875	-1.7083	-1.2208	-1.9937	82.328	66.577	158.236	379.339	276.745	137.525	274.121	230.941	51.717	193.632	309.313	387.937	66.299	298.346	302.643	59.625	0.0005903	0.00036359	7.5425e-05	1085.3	4.0619e-06	5.9905e-06	1190.2	227.28	8.0624e-06	4.5072e-06	284.01	80.461	63.513	18.223	7.8121e-06	25.743	0.001913	0.0032704	0.00092436	1086.1	3.1419e-05	3.5665e-05	1184.7	228.7	2.8884e-05	3.5561e-05	289.17	82.486	64.79	19.006	2.9668e-05	26.777	323.409	97.997	147.083	43.091	197.183	193.137	43.153	50.808	198.993	167.953	50.203	57.317	57.655	64.431	185.717	63.697	-8191	255	
1161.121	1	1	0	0	0.19569	0.055554	0.24737	0.035457	0.14779	0.31718	0.38849	0.49566	0.26018	0.37033	0.23391	0.13238	0.22626	0.16605	0.11902	0.14239	-0.82083	-1.3792	-1.8792	-1.2375	-1.6354	-1.5812	-1.0979	-2.0896	-1.3896	-1.3875	-2.0771	-1.0792	-1.7938	-1.7396	-1.0604	-2.0729	309.308	323.349	210.542	226.458	216.587	44.137	287.172	337.816	158.574	62.848	291.968	40.879	355.877	320.691	91.451	315.045	0.00065685	0.00028707	0.00015321	1084.7	1.0456e-05	5.5517e-06	1188.5	226.32	8.4564e-06	1.6861e-06	285.56	80.659	63.206	18.418	3.4306e-06	25.625	0.0017162	0.0028206	0.0008174	1081	2.8165e-05	3.2454e-05	1182	227.62	2.6606e-05	3.1556e-05	288.02	82.238	64.687	18.948	2.8605e-05	26.644	321.579	90.888	120.750	42.459	187.596	185.565	43.161	50.344	228.990	174.691	50.181	57.288	57.276	64.259	173.418	63.686	-8191	255	
1161.217	1	1	0	0	0.075546	0.26795	0.16104	0.28554	0.31141	0.05373	0.12487	0.28024	0.10995	0.22811	0.10314	0.20205	0.1055	0.19515	0.082309	0.29349	-1.0458	-1.4833	-1.8312	-1.2375	-1.7042	-1.7188	-1.4562	-1.9	-1.3729	-1.2771	-2.1437	-1.2625	-1.6479	-1.9438	-1.175	-1.7021	229.998	221.596	148.099	381.292	320.601	129.693	43.819	386.815	176.029	379.718	205.798	311.442	322.860	64.432	212.651	34.498	0.00075652	0.00040671	8.478e-05	1075.4	7.0928e-06	4.4712e-06	1182.9	224.4	1.8619e-06	2.2189e-06	284.52	81.023	63.248	18.182	7.4149e-06	25.642	0.0016677	0.0027901	0.00079732	1077.6	2.8233e-05	3.3345e-05	1179.5	226.83	2.6027e-05	3.2212e-05	287.99	82.354	64.41	18.9	2.7175e-05	26.574	317.270	149.827	62.791	42.902	190.913	138.998	43.171	50.238	207.631	178.203	50.485	57.527	57.646	64.281	191.968	63.855	-8191	255	
1161.313	1	1	0	0	0.24462	0.30712	0.12576	0.21534	0.205	0.18781	0.252	0.079836	0.15961	0.12234	0.15469	0.29819	0.34493	0.35154	0.47133	0.16626	-1.2313	-1.2437	-2.0625	-1.2333	-1.4438	-1.7208	-1.1063	-1.8625	-1.7104	-1.1354	-1.9792	-1.4125	-1.4688	-1.9312	-1.0417	-1.5792	90.142	289.092	137.166	297.635	49.937	193.475	310.246	318.394	140.860	86.721	369.940	306.212	299.412	37.780	284.806	311.738	0.00059904	0.00038928	0.0001513	1076.9	5.7107e-06	1.0667e-06	1178.1	223.27	7.8946e-06	1.0483e-06	283.58	80.29	63.317	18.14	2.0133e-06	25.656	0.0015596	0.002687	0.00074607	1077.3	2.6703e-05	3.1362e-05	1176.5	226.06	2.505e-05	3.1565e-05	287.01	81.95	64.355	18.825	2.6834e-05	26.548	317.540	119.039	109.829	42.745	181.972	131.015	42.986	50.642	198.284	359.272	50.382	57.317	57.231	64.187	292.565	63.865	-8191	255	
1161.409	1	1	0	0	0.076424	0.31056	0.29009	0.19506	0.31992	0.24941	0.37705	0.14962	0.083463	0.25703	0.13553	0.060105	0.2776	0.19267	0.18145	0.062574	-1.1313	-1.175	-1.9375	-1.4167	-1.4562	-1.9625	-1.3271	-1.7542	-1.7333	-1.1375	-1.9417	-1.2979	-1.2271	-1.7542	-1.05	-1.5812	309.214	359.668	328.147	52.393	308.244	53.835	369.495	389.880	59.945	213.482	337.154	75.084	268.135	362.974	245.155	268.640	0.00059742	0.00030481	2.5753e-05	1071.8	4.9733e-06	3.7787e-06	1175.7	225.03	6.1786e-06	3.8687e-06	284.96	80.061	63.205	18.128	7.5611e-06	25.454	0.0015753	0.0026411	0.00072044	1072.9	2.6134e-05	2.9905e-05	1174.3	225.83	2.4492e-05	3.0511e-05	287.03	81.774	64.26	18.831	2.7116e-05	26.516	326.834	90.770	129.536	42.766	169.022	110.059	42.949	50.796	184.527	199.052	49.915	57.579	57.751	64.731	162.599	63.775	-8191	255	
1161.505	1	1	0	0	0.15603	0.32608	0.17031	0.24315	0.12491	0.085273	0.11754	0.070902	0.23989	0.17664	0.24462	0.13257	0.16973	0.1145	0.086086	0.32026	-1.2229	-0.96875	-1.7833	-1.475	-1.0458	-1.8958	-1.3854	-1.5896	-1.7646	-1.0688	-1.7687	-1.3708	-1.1354	-2.0792	-1.1229	-1.6833	386.925	221.524	275.986	375.965	337.103	149.489	382.198	355.348	156.265	46.558	329.331	160.814	249.974	106.792	193.830	303.948	0.00072489	0.00022322	8.9466e-05	1072.7	9.1084e-06	3.9606e-06	1178.9	222.82	1.8678e-06	6.1696e-06	284.36	80.056	63.476	18.103	3.2882e-06	25.559	0.0015756	0.0026199	0.00074532	1072.1	2.6527e-05	3.0727e-05	1172.5	225.65	2.4705e-05	3.0646e-05	286.98	81.86	64.316	18.829	2.6749e-05	26.523	309.281	176.638	138.499	43.207	186.289	203.675	43.275	50.591	197.076	181.068	50.262	57.215	57.957	64.542	247.557	63.784	-8191	255	
1161.626	1	1	0	0	0.14138	0.03509	0.12447	0.26055	0.10165	0.35106	0.27639	0.19488	0.057055	0.26334	0.25699	0.31961	0.19413	0.19825	0.043398	0.088796	-1.4937	-1.0042	-1.7479	-1.6604	-1.3417	-2.0521	-1.4438	-1.4521	-1.8729	-1.0812	-1.8	-1.7104	-1.2854	-1.8958	-1.4375	-1.3417	285.030	66.530	369.915	345.049	265.702	197.311	324.516	293.848	33.086	113.547	347.565	49.113	266.468	360.340	164.818	337.758	0.00064966	0.00037346	8.8313e-05	1075.9	3.9548e-06	3.9807e-06	1177.1	224.04	2.5553e-06	2.575e-06	284.07	80.79	63.313	18.283	4.557e-06	25.731	0.0015802	0.0026756	0.00074692	1073.6	2.6628e-05	3.0598e-05	1174.3	226.09	2.49e-05	3.1078e-05	286.77	82.131	64.269	18.863	2.7284e-05	26.534	314.699	111.665	181.265	42.954	137.557	191.647	43.023	50.926	258.828	161.473	50.373	57.722	57.546	64.238	222.431	63.492	-8191	255	
1161.722	1	1	0	0	0.18126	0.13154	0.081029	0.32403	0.32721	0.3054	0.24626	0.18639	0.42075	0.18001	0.057169	0.17425	0.30068	0.16815	0.18917	0.28567	-1.5542	-1.0021	-1.7083	-1.9375	-0.90625	-1.8312	-1.3854	-1.2646	-2.0521	-1.1979	-1.7333	-1.7854	-1.0562	-1.9979	-1.3458	-1.3833	326.947	88.488	118.134	33.256	134.901	380.608	330.598	325.510	82.058	304.509	349.126	123.958	139.107	196.873	382.663	291.228	0.00061935	0.00028411	0.00012833	1075	5.0258e-06	3.158e-06	1173.7	223.93	5.3922e-06	2.3693e-06	282.13	80.502	62.937	18.006	5.3632e-06	25.606	0.0015907	0.0026878	0.00075734	1073.9	2.6296e-05	3.1059e-05	1172.5	225.89	2.4281e-05	3.0728e-05	286.19	81.943	64.065	18.766	2.5924e-05	26.486	307.713	57.645	106.160	42.860	181.287	143.984	42.812	50.839	231.870	218.394	50.144	57.113	57.806	64.627	234.734	64.118	-8191	255	
1161.818	1	1	0	0	0.12204	0.062375	0.054143	0.2327	0.24797	0.19901	0.1318	0.37912	0.26135	0.15647	0.13315	0.15507	0.17712	0.36283	0.21952	0.3684	-1.6417	-1.1187	-1.4146	-1.9729	-1.1417	-1.7625	-1.6063	-1.0438	-1.9167	-1.2083	-1.3833	-1.8979	-1.2583	-1.7146	-1.6104	-1.2708	139.245	196.073	250.488	58.498	35.300	343.682	47.917	311.048	213.081	300.559	350.409	212.385	277.457	40.970	378.516	67.594	0.00076854	0.00010379	9.0851e-05	1076	1.2289e-06	4.0196e-06	1178.9	224.61	5.1311e-06	3.2555e-06	283.14	80.244	62.963	18.008	3.2991e-06	25.307	0.001553	0.0026205	0.00074708	1073.5	2.5872e-05	2.9796e-05	1171.6	225.87	2.4618e-05	2.9915e-05	285.86	81.631	64.019	18.712	2.564e-05	26.345	318.964	147.899	152.211	43.126	230.560	166.293	43.209	50.491	217.426	192.839	50.414	57.438	57.510	64.425	255.045	64.130	-8191	255	
1161.914	1	1	0	0	0.045269	0.45004	0.11213	0.21448	0.0081257	0.20934	0.15629	0.33438	0.049279	0.04708	0.18086	0.099007	0.22193	0.046126	0.13544	0.30429	-1.6688	-1.1271	-1.0938	-1.9875	-1.0583	-1.7458	-1.7146	-1.0875	-1.8396	-1.4312	-1.3896	-1.9458	-1.2521	-1.7833	-1.9396	-1.0667	88.910	194.924	333.468	365.669	106.938	342.229	283.831	104.492	132.055	151.901	229.894	274.694	328.650	345.064	305.805	288.072	0.00060845	0.00018577	4.1163e-05	1071.9	5.7842e-06	5.5485e-06	1175.3	223.78	6.3458e-06	1.9582e-06	280.75	80.037	62.601	18.189	3.5338e-06	25.357	0.0015127	0.0025955	0.00073743	1069.1	2.5825e-05	2.9739e-05	1168.6	225.08	2.4055e-05	2.9859e-05	284.36	81.552	63.659	18.746	2.6678e-05	26.396	312.041	135.554	185.128	42.893	203.200	159.257	43.160	50.596	238.631	170.846	50.139	57.342	57.647	64.333	159.531	63.556	-8191	255	
1162.009	1	1	0	0	0.39644	0.11504	0.13644	0.11845	0.17128	0.29473	0.30217	0.42464	0.1532	0.078617	0.12619	0.088084	0.19727	0.2102	0.085341	0.29251	-1.4312	-1.5771	-1.1042	-2.0479	-1.1125	-1.6812	-2.0646	-1.1542	-1.9292	-1.4208	-1.2229	-2.0167	-1.0833	-1.5104	-1.7875	-0.97083	105.000	173.663	195.284	392.135	200.631	237.320	49.363	261.936	266.060	185.798	275.882	149.979	340.715	87.829	87.926	39.919	0.00057718	4.0582e-05	0.00012782	1073.3	4.9882e-06	2.666e-06	1173.1	222.57	5.1491e-06	2.4741e-06	282.19	79.661	62.023	18.005	4.6651e-06	25.37	0.0015239	0.0025868	0.00075068	1070.8	2.5197e-05	3.0177e-05	1169.5	224.39	2.4363e-05	3.0046e-05	284.37	81.243	63.511	18.664	2.6351e-05	26.385	323.328	273.904	102.469	42.614	204.527	164.078	43.057	50.359	184.995	76.610	49.927	57.408	57.302	63.955	191.926	63.338	-8191	255	
1162.105	1	1	0	0	0.27433	0.24255	0.20141	0.19215	0.14382	0.12221	0.23947	0.34653	0.16625	0.064921	0.17766	0.1358	0.20752	0.12308	0.19682	0.097993	-1.3958	-1.3396	-1.0021	-2.0375	-1.0833	-1.2729	-2.1063	-1.1063	-1.8667	-1.6833	-1.2021	-2.0542	-1.2917	-1.3375	-1.7812	-1.2583	226.492	308.840	72.793	328.511	192.672	146.461	366.372	34.796	316.943	247.501	64.732	278.433	73.452	98.569	133.881	347.833	0.00068421	0.00028725	0.00014342	1073.1	6.6387e-06	2.2602e-06	1170.8	223.15	2.678e-06	6.2983e-06	282.29	80.188	62.289	18.059	9.3629e-06	25.424	0.001552	0.0025973	0.0007355	1069.1	2.5452e-05	3.0234e-05	1168.4	224.81	2.4332e-05	2.9614e-05	284.1	81.503	63.71	18.704	2.6238e-05	26.274	313.716	112.104	170.167	43.077	213.673	172.562	42.899	50.613	244.259	229.129	50.509	57.600	57.619	64.755	225.910	64.256	-8191	255	
1162.226	1	1	0	0	0.25354	0.2026	0.051929	0.11628	0.19809	0.2164	0.351	0.25224	0.086449	0.084669	0.32682	0.25963	0.037201	0.23172	0.10711	0.22563	-1.3708	-1.6833	-0.93125	-1.8979	-1.3229	-1.2146	-2.0875	-1.3417	-1.5708	-2.0125	-1.1229	-1.9625	-1.3167	-1.0938	-1.9292	-1.3563	383.397	389.599	95.488	265.296	47.425	257.199	335.236	235.929	131.405	344.572	385.760	303.239	46.445	351.581	328.991	137.454	0.00059027	0.00018635	0.00011417	1074.8	4.7099e-06	2.6704e-06	1172.1	223.64	3.1374e-06	3.7309e-06	279.32	79.798	61.939	17.899	2.0929e-06	25.2	0.0015526	0.0026042	0.00074934	1071.3	2.5128e-05	3.0845e-05	1168	224.97	2.458e-05	3.0065e-05	283.42	81.403	63.402	18.614	2.6909e-05	26.163	326.009	172.241	75.189	43.040	150.132	148.199	43.089	50.632	249.731	279.408	50.124	57.850	57.737	64.390	304.495	63.796	-8191	255	
1162.322	1	1	0	0	0.25527	0.023202	0.16096	0.39573	0.18162	0.20466	0.36786	0.068587	0.21272	0.087416	0.19957	0.21848	0.15528	0.13356	0.058973	0.016459	-1.1187	-1.7583	-1.2083	-1.7333	-1.575	-1.1958	-2.1437	-1.225	-1.4354	-1.975	-0.98958	-1.8625	-1.7792	-1.3125	-2.1188	-1.3333	225.285	377.159	385.814	390.359	377.159	182.508	317.900	265.298	141.673	66.234	137.425	200.647	385.856	347.146	52.872	179.980	0.00071788	0.00033504	0.00013224	1067.4	6.6382e-06	2.0989e-06	1171.5	222.65	7.0773e-06	8.5527e-07	279.84	80.019	62.245	17.994	3.3242e-06	25.267	0.0015827	0.0026036	0.00075106	1068.7	2.5822e-05	2.9614e-05	1169	224.7	2.4486e-05	3.0506e-05	283.94	81.367	63.639	18.658	2.5615e-05	26.2	313.609	101.704	134.377	42.970	186.151	270.847	42.932	50.489	198.136	337.004	50.191	57.442	57.928	64.449	96.364	63.306	-8191	255	
1162.418	1	1	0	0	0.15025	0.037618	0.16065	0.22265	0.17887	0.15965	0.26205	0.1359	0.29234	0.23096	0.14613	0.093574	0.16302	0.15249	0.19956	0.38836	-1.1854	-1.8062	-1.1313	-1.75	-1.4583	-0.96667	-2.0771	-1.3062	-1.3375	-1.9375	-1.0521	-1.75	-1.8104	-1.0542	-1.9833	-1.5542	282.254	87.480	296.138	375.684	146.894	350.650	38.447	236.239	134.060	116.661	133.035	55.806	147.094	320.845	237.001	354.461	0.00055576	0.00049778	7.2353e-06	1069	5.2026e-06	1.5875e-06	1166.9	222.84	6.4901e-06	4.6534e-06	280.78	80.251	62.502	17.893	2.4839e-06	25.396	0.0015574	0.0025702	0.00073548	1068	2.4978e-05	2.9481e-05	1166.3	224.74	2.4069e-05	2.9154e-05	284.17	81.401	63.445	18.558	2.588e-05	26.213	317.231	98.354	281.304	42.875	211.224	162.872	42.868	50.531	198.407	222.487	50.117	57.154	57.550	64.442	122.860	63.354	-8191	255	
1162.490	1	1	0	0	0.090068	0.17086	0.09469	0.173	0.055268	0.15724	0.2488	0.11243	0.14242	0.077111	0.26731	0.14404	0.19629	0.15194	0.26294	0.12795	-0.72708	-2	-1.175	-1.5938	-1.8312	-1.1083	-2.0187	-1.3771	-1.2854	-1.9771	-1.1896	-1.4083	-1.7687	-1.1021	-1.9083	-1.5938	288.104	336.055	58.089	281.694	92.982	306.155	282.476	197.626	168.716	173.468	329.193	294.148	192.311	355.364	369.588	251.617	0.00069777	0.00030789	8.0677e-05	1066.6	8.8127e-06	4.7184e-06	1168	223.77	3.4777e-06	4.2863e-06	280.39	80.252	62.72	17.956	4.0013e-06	25.376	0.0015429	0.0024153	0.00069173	1064	2.483e-05	2.8686e-05	1163.1	224.72	2.302e-05	2.8939e-05	283.09	81.238	63.704	18.551	2.5238e-05	26.208	323.841	84.965	72.646	43.073	222.016	181.652	43.147	50.412	221.802	170.759	49.900	56.943	57.572	64.678	123.107	63.528	-8191	255	
1162.586	1	1	0	0	0.26448	0.15949	0.11928	0.038199	0.22508	0.070469	0.10751	0.20299	0.11226	0.16415	0.11591	0.17155	0.10842	0.1973	0.017041	0.042034	-0.76875	-1.9417	-1.175	-1.6458	-1.9708	-1.1313	-1.9979	-1.6458	-1.0479	-1.9396	-1.3604	-1.4042	-1.9729	-0.9875	-1.9208	-1.7583	172.785	141.898	392.378	63.317	368.479	318.541	375.543	291.523	307.232	68.426	116.656	58.060	122.502	204.926	160.685	390.939	0.00050672	0.00031217	9.5177e-05	1060.7	3.5853e-06	3.943e-06	1164.2	222.65	2.7554e-06	3.0355e-06	279.63	79.526	62.474	17.891	2.7354e-06	25.165	0.0014771	0.0022943	0.00070328	1062	2.4494e-05	2.8294e-05	1162.1	224.13	2.295e-05	2.7688e-05	282.88	80.846	63.231	18.54	2.4447e-05	26.108	314.916	68.806	136.728	43.226	212.716	189.459	43.160	50.637	186.678	176.501	50.107	57.175	57.455	64.346	208.754	63.287	-8191	255	
1162.706	1	1	0	0	0.30204	0.15391	0.087802	0.16135	0.15746	0.11357	0.38367	0.2637	0.25674	0.082689	0.10893	0.21719	0.12634	0.022684	0.13358	0.30509	-0.56667	-1.9542	-1.3979	-1.6187	-2.0438	-1.1063	-1.8542	-2.1063	-1.0896	-1.975	-1.6354	-1.4562	-1.8937	-1.2146	-1.6854	-1.9042	150.665	236.606	55.507	303.590	390.849	150.780	335.228	335.653	56.021	160.869	46.775	385.273	52.809	339.184	55.180	363.784	0.00050246	0.00027639	0.00010825	1062.2	4.332e-06	2.4591e-06	1165.7	223.02	2.1739e-06	2.3263e-06	278.6	79.736	62.051	17.86	3.0196e-06	25.192	0.0014674	0.0023945	0.00069222	1063.9	2.4485e-05	2.866e-05	1161.9	223.69	2.3454e-05	2.837e-05	282.34	80.939	63.286	18.57	2.5331e-05	26.068	316.100	90.617	150.262	42.886	219.073	133.579	42.998	50.808	242.322	194.263	50.041	56.837	57.968	64.588	155.469	64.003	-8191	255	
1162.802	1	1	0	0	0.10206	0.11898	0.23909	0.22713	0.094766	0.11297	0.18701	0.12427	0.060178	0.1332	0.018988	0.080042	0.057304	0.44637	0.069974	0.043596	-0.66458	-1.8813	-1.5417	-1.5229	-1.9646	-1.2292	-1.6021	-1.9062	-1.15	-1.9146	-1.7208	-1.1479	-2.175	-1.2021	-1.3	-2.0312	209.618	130.990	39.979	260.686	359.379	270.574	312.035	289.280	155.135	266.104	214.209	40.078	40.746	41.112	303.769	143.550	0.00070593	0.00029172	0.00014864	1069	8.0419e-06	2.55e-06	1166.8	221.61	1.0054e-05	2.0579e-06	277.74	78.69	62.109	18.089	6.3695e-06	25.175	0.0014793	0.0024789	0.0006873	1065.1	2.4217e-05	2.8292e-05	1161.3	223.63	2.3475e-05	2.8683e-05	282.07	80.546	63.253	18.596	2.5416e-05	26.04	325.697	153.452	135.347	43.101	181.353	185.455	42.749	50.395	236.440	188.799	49.871	57.025	57.413	64.793	174.116	63.861	-8191	255	
1162.899	1	1	0	0	0.089915	0.32901	0.35576	0.14402	0.10308	0.20867	0.39977	0.17771	0.16305	0.38454	0.06364	0.093078	0.037816	0.042595	0.10664	0.096127	-0.70625	-1.9792	-1.7875	-1.1979	-1.975	-1.4417	-1.4438	-2.0979	-1.1042	-1.6208	-1.8479	-1.2167	-1.8917	-1.3958	-1.3417	-2.0667	290.790	380.755	281.366	281.770	98.112	273.667	326.624	302.422	347.307	83.965	46.321	231.765	223.532	115.908	235.682	68.337	0.00065356	0.00032944	0.00012359	1065.3	6.008e-06	2.7544e-06	1165.8	222.88	4.6833e-06	6.9109e-07	278.54	79.728	62.049	17.844	3.9176e-06	25.153	0.0015246	0.0024554	0.00069123	1064	2.4294e-05	2.7563e-05	1162.8	224.23	2.3271e-05	2.7982e-05	282.35	81.031	63.091	18.541	2.4932e-05	26.051	309.456	101.684	145.626	43.168	181.341	186.306	43.265	50.786	218.197	130.637	49.847	57.404	57.414	64.484	177.547	63.674	-8191	255	
1163.018	1	1	0	0	0.09657	0.15392	0.20082	0.23845	0.23094	0.27361	0.15949	0.27765	0.038826	0.09602	0.028243	0.37284	0.091501	0.35778	0.15809	0.11512	-0.62083	-1.4625	-1.7563	-1.425	-1.9271	-1.6479	-1.3542	-2.3187	-1.1021	-1.6708	-1.9792	-1.25	-1.875	-1.6021	-1.0562	-1.9542	86.386	108.113	250.162	121.941	205.128	61.707	290.340	389.660	308.274	146.958	298.624	359.637	308.807	67.277	366.574	282.383	0.00052778	0.00037927	8.1663e-05	1064.9	3.3807e-06	2.3213e-06	1164.1	222.86	6.8618e-06	4.2971e-06	279.06	79.241	61.671	17.798	5.3815e-06	25.205	0.0014684	0.0024596	0.00069909	1062.6	2.4024e-05	2.7667e-05	1161.8	223.95	2.3432e-05	2.7476e-05	281.37	80.676	63.001	18.486	2.5593e-05	25.955	315.092	128.203	129.854	42.930	193.649	167.013	43.122	50.809	233.305	207.087	49.922	57.403	57.719	64.955	158.892	63.984	-8191	255	
1163.089	1	1	0	0	0.19253	0.14216	0.2753	0.07035	0.086618	0.24931	0.25256	0.13328	0.023992	0.091715	0.10769	0.25224	0.17995	0.16016	0.18105	0.041208	-0.85208	-1.4354	-1.7917	-1.2583	-1.75	-1.7167	-1.4354	-2.0896	-1.3062	-1.4458	-1.8333	-1.2687	-1.8479	-1.7083	-1.0625	-1.9271	65.623	96.777	308.977	181.652	344.274	78.920	357.711	54.952	104.230	40.451	121.448	391.356	292.142	359.865	207.708	139.359	0.00074624	0.00041612	0.00011654	1066.5	3.737e-06	4.2113e-06	1168.4	222.39	4.9132e-06	3.1584e-06	279.67	79.281	61.919	17.759	6.5318e-06	25.209	0.0014756	0.0024607	0.00068429	1064.9	2.4743e-05	2.8983e-05	1161.4	223.33	2.3347e-05	2.8479e-05	282.26	80.783	63.208	18.459	2.4557e-05	26.019	313.029	143.804	180.116	42.724	173.429	136.515	43.244	50.609	208.108	140.911	50.075	57.879	57.371	65.021	165.764	63.651	-8191	255	
1163.187	1	1	0	0	0.17287	0.058243	0.14504	0.14807	0.12645	0.22999	0.39037	0.13426	0.21392	0.19706	0.12	0.21623	0.17495	0.050219	0.16656	0.19686	-1.0417	-1.3729	-1.7583	-1.225	-1.5958	-1.6333	-1.1562	-2.1208	-1.2458	-1.2542	-1.9604	-1.0896	-1.7208	-1.7917	-1.0104	-2.0542	380.137	196.387	208.744	340.769	275.265	71.630	345.592	275.770	229.344	254.127	63.283	376.576	307.348	39.655	140.843	322.423	0.00051917	0.0003398	2.6168e-05	1063.3	4.8336e-06	3.9181e-06	1173.9	221.71	1.0216e-05	2.9455e-06	278.46	79.262	61.93	17.863	6.6972e-06	25.108	0.0014555	0.0024501	0.00069658	1061.4	2.3978e-05	2.7942e-05	1162	223.54	2.3289e-05	2.7671e-05	282.2	80.691	63.241	18.498	2.5425e-05	26.058	305.267	129.027	104.285	43.253	214.324	135.056	43.283	50.645	214.925	217.978	50.474	57.515	57.661	64.527	179.486	64.264	-8191	255	
1163.306	1	1	0	0	0.012115	0.30568	0.082675	0.28147	0.12716	0.05379	0.10709	0.15619	0.35527	0.26797	0.078118	0.2357	0.25748	0.13061	0.15611	0.099772	-1.0521	-1.0854	-2.0479	-1.3292	-1.4896	-1.8937	-1.1521	-2.0917	-1.7417	-1.1688	-2.0104	-1.3021	-1.5125	-1.9562	-1.0375	-1.9854	161.142	63.311	48.673	108.454	341.234	216.770	183.265	336.375	361.213	380.810	363.889	389.010	359.442	72.612	174.819	132.674	0.00048222	0.000263	0.00015992	1063.8	6.0729e-06	3.7507e-06	1165.2	221.84	9.1584e-06	3.3424e-06	279.86	79.374	62.166	17.773	6.5138e-06	25.223	0.0014821	0.00249	0.00068648	1063	2.4317e-05	2.8383e-05	1160.8	223.43	2.3667e-05	2.942e-05	282.85	80.757	63.2	18.459	2.5339e-05	26.051	329.106	99.446	98.849	42.980	218.936	219.063	43.280	50.814	266.880	206.225	50.207	57.212	57.570	64.431	198.714	64.038	-8191	255	
1163.402	1	1	0	0	0.36402	0.29034	0.12288	0.17372	0.32126	0.21594	0.3442	0.38289	0.36199	0.059577	0.078549	0.0076225	0.32203	0.19267	0.14897	0.13921	-1.4688	-1.1562	-1.8667	-1.4	-1.5042	-1.9312	-1.3312	-2.0333	-1.55	-1.1083	-2.1667	-1.4146	-1.45	-2.1583	-1.1667	-1.8188	238.550	54.497	176.652	299.494	131.044	192.256	273.084	288.712	85.313	160.266	33.133	120.165	77.355	62.102	168.834	281.365	0.00069939	0.00018025	1.135e-05	1064.4	7.5585e-06	3.2608e-06	1167.3	222.95	4.533e-06	3.1007e-06	280.72	79.572	61.94	17.998	6.3684e-06	25.11	0.0014722	0.0024634	0.00069997	1061	2.4923e-05	2.8191e-05	1160.8	224.06	2.3539e-05	2.8961e-05	282.59	80.776	63.101	18.57	2.4497e-05	26.049	312.617	167.885	195.904	43.311	197.141	122.905	43.131	50.781	217.255	173.183	50.427	57.441	57.382	64.562	173.361	64.095	-8191	255	
1163.498	1	1	0	0	0.17479	0.052943	0.11789	0.36735	0.1193	0.17462	0.07186	0.34511	0.11469	0.20581	0.23644	0.21072	0.29925	0.066919	0.20228	0.10132	-1.35	-1.1146	-1.8625	-1.525	-1.2687	-2.0062	-1.6187	-1.7146	-1.9375	-0.99167	-1.9292	-1.5583	-1.3563	-1.9583	-1.2542	-1.4937	86.270	376.247	110.208	369.387	250.097	137.517	344.859	361.798	236.362	341.812	343.958	341.217	77.861	239.772	337.474	206.474	0.00066214	0.00032696	7.1533e-05	1064	4.3166e-06	5.909e-06	1166.8	221.19	1.1211e-05	2.9741e-06	277.97	79.379	61.639	17.894	3.9777e-06	24.955	0.0014831	0.0024913	0.0006922	1062.1	2.4453e-05	2.7592e-05	1161.9	223.47	2.3155e-05	2.8764e-05	281.7	80.668	63.004	18.514	2.4862e-05	26.008	314.277	98.538	122.743	43.088	262.475	201.238	43.158	51.010	176.406	235.239	50.822	57.494	58.149	65.113	244.322	64.269	-8191	255	
1163.619	1	1	0	0	0.028711	0.20909	0.11941	0.064834	0.056988	0.25564	0.25805	0.27627	0.075286	0.12088	0.25098	0.12774	0.039175	0.15463	0.099545	0.013856	-1.4062	-1.1437	-1.9062	-1.6437	-1.2687	-1.9667	-1.3875	-1.4813	-1.8021	-0.94583	-1.9062	-1.8021	-1.2375	-1.9375	-1.2333	-1.4062	260.110	250.267	242.244	162.375	52.613	289.037	331.647	358.389	221.515	212.510	314.751	253.232	334.260	71.444	95.837	85.178	0.00055201	0.00011764	9.6609e-05	1060.2	7.5843e-07	1.2177e-06	1171.5	221.61	1.0545e-05	4.5527e-06	280.97	78.923	62.738	17.836	4.6104e-06	25.093	0.0014744	0.0025766	0.00069564	1061.8	2.5349e-05	2.8211e-05	1164.1	223.16	2.3996e-05	2.9556e-05	282.5	80.591	63.282	18.511	2.4701e-05	26.029	322.113	55.402	164.156	43.220	263.088	244.682	43.090	50.962	171.465	218.362	50.038	57.375	57.698	65.070	192.544	63.759	-8191	255	
1163.715	1	1	0	0	0.18891	0.0713	0.13499	0.21703	0.10151	0.27897	0.16759	0.12801	0.19851	0.065902	0.18141	0.17001	0.25549	0.29357	0.21567	0.12102	-1.4438	-1.0958	-1.7104	-1.7708	-1.1063	-2.0104	-1.5333	-1.3646	-1.8917	-1.0312	-1.7208	-1.7979	-1.1792	-1.9021	-1.5187	-1.3333	302.656	178.824	46.887	276.033	180.339	213.415	310.039	98.747	167.503	192.021	391.427	364.704	69.317	270.572	320.868	304.371	0.00052921	0.00013568	9.6409e-05	1065	8.3698e-06	3.4197e-06	1164.8	221.56	7.8331e-06	3.5861e-06	279.74	79.647	61.981	17.952	3.2814e-06	25.117	0.0015054	0.0025186	0.00070712	1063.3	2.5252e-05	2.8292e-05	1160.5	223.3	2.3344e-05	2.9211e-05	281.66	80.69	63.171	18.496	2.5516e-05	26.036	318.793	137.448	97.655	43.170	228.241	148.738	43.244	51.104	192.131	153.084	50.713	57.274	57.807	64.618	185.086	63.815	-8191	255	
1163.787	1	1	0	0	0.036998	0.1231	0.30659	0.41944	0.23904	0.18736	0.34565	0.1703	0.20434	0.055152	0.19045	0.094871	0.12493	0.20445	0.13035	0.079424	-1.6792	-1.1625	-1.6729	-2.0938	-1.3687	-1.8937	-1.8771	-1.3917	-2.0771	-1.4042	-1.7021	-1.9562	-1.2521	-1.9	-1.7208	-1.4458	342.601	348.435	234.662	34.794	301.360	234.174	344.877	43.659	370.163	377.683	367.689	176.164	38.192	369.591	92.905	232.827	0.00071445	0.00027203	0.00013911	1065.9	5.1039e-06	3.7355e-06	1164.5	222.86	5.4554e-06	2.1239e-06	276.96	79.014	62.015	17.92	3.8084e-06	25.231	0.001466	0.0024961	0.00071178	1063	2.4647e-05	2.77e-05	1162	223.51	2.2473e-05	2.8419e-05	281.03	80.545	63.174	18.459	2.42e-05	26.043	313.053	139.268	125.430	43.411	176.258	201.472	43.227	50.958	187.971	169.227	50.782	57.887	58.276	64.939	230.571	64.013	-8191	255	
1163.907	1	1	0	0	0.28326	0.19391	0.1787	0.36124	0.34591	0.051233	0.30331	0.063029	0.19727	0.21677	0.31428	0.17575	0.24734	0.11232	0.16416	0.29535	-1.6583	-1.5562	-1.5417	-2.2021	-1.2833	-1.8979	-2.0229	-1.175	-2	-1.3208	-1.4125	-2.075	-1.1458	-1.7188	-1.6875	-1.2292	358.819	126.562	350.505	70.521	312.560	188.493	34.514	204.096	196.454	226.517	360.783	46.781	235.156	335.801	38.737	377.546	0.00070108	0.00038536	8.1459e-05	1062.3	8.3161e-06	1.5333e-06	1158.7	221.66	5.9242e-06	1.8343e-06	279.68	79.508	62.217	17.807	2.9769e-06	25	0.0014217	0.0023844	0.00067464	1061.8	2.3871e-05	2.5913e-05	1158.2	223.29	2.2212e-05	2.7318e-05	281.1	80.656	63.145	18.426	2.418e-05	25.875	320.466	108.550	174.549	42.757	203.595	47.998	43.118	51.007	225.785	219.964	50.626	57.487	57.931	64.863	164.757	64.227	-8191	255	
1164.002	1	1	0	0	0.029266	0.19988	0.12414	0.47469	0.1368	0.20039	0.18608	0.34657	0.15608	0.23633	0.27357	0.18018	0.1633	0.047783	0.17575	0.1408	-1.6063	-1.5771	-1.375	-1.9896	-0.90625	-1.6812	-1.9021	-1.2	-1.9875	-1.5646	-1.3208	-2.3396	-1.3375	-1.6146	-1.8083	-1.0917	329.618	281.087	38.339	42.461	106.404	294.665	286.561	367.276	329.412	348.270	326.798	258.261	371.293	74.420	114.560	303.036	0.00056134	2.7583e-05	3.939e-05	1067	6.3891e-06	1.9374e-06	1162.2	221.14	4.3189e-06	3.1455e-06	278.07	79.34	61.438	17.979	2.1429e-06	24.947	0.0014333	0.0023494	0.00067012	1060.7	2.3954e-05	2.7245e-05	1158.2	222.79	2.2199e-05	2.742e-05	281.31	80.425	63.009	18.526	2.3528e-05	25.887	309.334	297.178	46.047	43.198	221.401	87.325	43.224	51.177	265.131	203.078	50.547	57.837	57.858	64.912	144.474	64.144	-8191	255	
1164.098	1	1	0	0	0.062278	0.16051	0.15934	0.086775	0.11497	0.093013	0.32214	0.21866	0.13006	0.10571	0.21655	0.23906	0.24243	0.16583	0.12045	0.23292	-1.4333	-1.6271	-1.3271	-2.15	-1.2167	-1.4021	-1.9729	-1.1458	-1.8604	-1.5438	-1.4354	-2.0875	-1.2979	-1.5875	-2.0042	-1.1521	106.067	358.160	168.173	67.399	382.931	323.543	363.548	256.699	211.368	306.852	70.484	227.254	281.253	108.046	196.782	337.567	0.00064735	0.0004136	0.00012177	1065.6	7.8115e-06	3.8393e-06	1163.8	221.24	3.8853e-06	1.2771e-06	277.43	79.434	61.791	17.713	2.7384e-06	24.917	0.0013893	0.0023219	0.00067224	1062.9	2.3139e-05	2.6358e-05	1157.1	222.82	2.1772e-05	2.6452e-05	280.41	80.53	62.946	18.398	2.2956e-05	25.852	323.343	68.943	76.914	43.387	196.584	148.385	43.350	50.969	200.508	82.852	50.485	57.664	57.912	64.779	156.130	64.072	-8191	255	
1164.194	1	1	0	0	0.14863	0.053298	0.11506	0.040829	0.12574	0.15953	0.16967	0.16985	0.19308	0.14863	0.13084	0.054645	0.28832	0.33641	0.30688	0.1328	-1.3958	-1.65	-1.3042	-2.1896	-1.575	-1.3104	-2.1417	-1.3333	-1.6625	-1.825	-1.1437	-1.8979	-1.6229	-1.3	-1.9375	-1.2646	178.220	107.137	287.487	263.967	370.765	193.805	355.424	311.333	246.957	56.931	103.325	324.859	83.947	291.843	335.000	37.991	0.00065816	0.00021602	5.7252e-05	1059.7	5.749e-06	1.0333e-06	1160.8	221.52	3.1772e-06	3.2655e-06	276.05	78.895	61.959	17.747	4.0854e-06	25.022	0.0013671	0.0022056	0.00065182	1058.7	2.1762e-05	2.5009e-05	1154.1	222.03	2.0692e-05	2.4215e-05	279.45	80.227	62.752	18.357	2.2884e-05	25.771	325.501	211.706	143.236	43.416	216.125	276.513	43.264	50.931	209.989	224.611	50.517	57.792	57.859	65.414	194.125	64.196	-8191	255	
1164.315	1	1	0	0	0.10111	0.20334	0.19288	0.096102	0.13795	0.23499	0.23515	0.17165	0.069836	0.22184	0.34442	0.13365	0.084377	0.17129	0.3336	0.12949	-1.3229	-1.5333	-0.92917	-1.9125	-1.4937	-1.0625	-2.1833	-1.4125	-1.4438	-1.6938	-1.1729	-1.8	-1.6688	-1.2333	-1.9104	-1.3937	337.185	265.047	266.972	42.167	75.728	107.981	304.257	130.811	321.484	48.592	311.439	70.700	212.815	295.731	126.608	40.763	0.00067965	0.0003088	4.7352e-05	1057.8	3.9967e-06	1.9422e-06	1158.4	221.48	9.4628e-06	4.7218e-06	276.46	78.776	61.901	17.745	6.9481e-06	24.813	0.0013909	0.0022973	0.0006484	1057.4	2.3194e-05	2.6577e-05	1154	222.09	2.2336e-05	2.691e-05	279.92	80.373	62.699	18.396	2.2848e-05	25.76	308.281	111.473	98.690	43.636	187.069	270.367	43.337	50.757	192.661	168.783	50.624	57.950	58.037	64.891	200.272	63.938	-8191	255	
1164.386	1	1	0	0	0.14041	0.072044	0.13114	0.096779	0.27464	0.15861	0.14179	0.1776	0.21405	0.15207	0.1621	0.17863	0.17665	0.14441	0.045717	0.1234	-0.9875	-2.0125	-1.0958	-1.8625	-1.5583	-1.0583	-2.2958	-1.4417	-1.3542	-2.05	-1.0875	-1.8542	-1.8479	-1.1604	-1.8563	-1.4583	55.488	381.009	174.268	68.040	258.936	151.218	349.815	42.739	88.413	373.728	250.297	358.860	334.475	57.921	229.443	113.996	0.0006184	0.00015517	0.00011197	1056.8	4.5852e-06	1.3154e-06	1162.2	221.15	6.2693e-06	2.2089e-06	275.74	78.924	61.693	17.826	6.9397e-06	24.853	0.0013765	0.0023222	0.00067575	1056.8	2.3053e-05	2.7081e-05	1155.4	222.07	2.2101e-05	2.6284e-05	279.65	80.391	62.735	18.409	2.3111e-05	25.84	307.255	82.369	119.976	43.377	232.911	200.070	43.506	50.710	245.868	215.226	50.392	58.013	57.912	64.812	223.216	63.996	-8191	255	
1164.482	1	1	0	0	0.19915	0.13103	0.20368	0.18375	0.32977	0.048605	0.15534	0.11904	0.014611	0.097348	0.11398	0.1017	0.20814	0.085106	0.23125	0.070853	-0.80417	-1.875	-1.175	-1.7687	-1.5958	-1.1812	-1.9312	-1.5771	-1.0938	-1.8292	-1.2188	-1.7812	-1.8604	-1.1042	-1.85	-1.55	197.594	182.316	57.828	386.277	292.179	177.727	313.347	186.903	65.056	76.461	249.159	238.518	234.079	228.426	125.857	274.104	0.00062321	0.00025963	5.634e-05	1058.8	4.6804e-06	1.6266e-06	1160	220.41	6.2498e-06	1.4055e-06	277.51	78.942	61.891	17.648	6.5745e-06	25.062	0.0014288	0.0023764	0.0006625	1057.5	2.3733e-05	2.7644e-05	1156.2	222.11	2.2666e-05	2.7389e-05	280.65	80.304	62.899	18.378	2.4006e-05	25.951	311.005	174.018	141.118	43.631	159.831	233.356	43.422	51.002	190.908	142.730	50.636	57.618	57.856	65.097	185.089	64.185	-8191	255	
1164.579	1	1	0	0	0.29601	0.4309	0.20295	0.24225	0.13371	0.074072	0.1907	0.13867	0.11288	0.18071	0.13605	0.18553	0.30848	0.058502	0.13003	0.27472	-0.9125	-1.7583	-1.0792	-1.5083	-1.8937	-1.1688	-2.0354	-1.6313	-0.98542	-1.9312	-1.3229	-1.5792	-1.7062	-1.0438	-1.6583	-1.6229	142.577	305.911	132.002	380.921	38.304	255.737	62.838	383.477	34.123	227.646	163.274	291.973	41.308	194.189	40.209	87.293	0.00063449	0.0001906	7.5784e-05	1060.9	2.5757e-06	1.1607e-06	1161.7	222.05	9.3686e-06	3.5501e-06	277.75	78.741	61.839	17.924	6.2765e-06	25.175	0.0014645	0.0023976	0.00068629	1057.6	2.3701e-05	2.7888e-05	1157	222.68	2.3072e-05	2.7937e-05	281.14	80.32	62.721	18.455	2.4965e-05	25.914	322.085	34.755	189.014	43.306	192.961	117.527	43.544	51.176	166.780	152.995	50.525	57.954	58.316	65.748	189.730	64.524	-8191	255	
1164.699	1	1	0	0	0.13889	0.15174	0.091677	0.17408	0.05077	0.20433	0.15854	0.13399	0.20291	0.22643	0.11235	0.075173	0.022678	0.10872	0.041972	0.067337	-0.81042	-1.8521	-1.2667	-1.2313	-1.9917	-1.0646	-1.8208	-1.7104	-0.99167	-2.0438	-1.4771	-1.2667	-2.0104	-1.1208	-1.4375	-1.8354	112.587	293.132	303.608	248.121	208.936	294.924	389.962	52.130	79.612	172.474	373.975	201.512	380.090	387.089	139.960	310.513	0.00061402	0.00041015	0.00012744	1063.2	3.7044e-06	2.3481e-06	1159.6	220.32	6.6207e-06	4.8085e-06	278.39	78.924	62.177	17.829	6.4777e-07	25.042	0.001506	0.0024809	0.0007078	1058.9	2.4058e-05	2.7413e-05	1155.7	221.87	2.324e-05	2.698e-05	280.92	80.324	62.882	18.425	2.4163e-05	25.867	319.727	85.928	115.902	43.585	235.582	111.744	43.503	51.248	185.534	134.722	50.751	57.360	58.089	65.290	374.891	64.242	-8191	255	
1164.795	1	1	0	0	0.24938	0.14371	0.046855	0.10426	0.05118	0.2543	0.037374	0.32135	0.15773	0.1331	0.047499	0.24249	0.25566	0.16093	0.14255	0.22619	-0.60208	-1.8563	-1.4146	-1.2292	-1.9813	-1.3042	-1.7667	-1.8312	-1.0625	-1.9271	-1.7188	-1.2167	-2.0021	-1.1125	-1.4979	-1.9458	166.165	262.591	40.555	212.725	197.524	265.249	277.888	354.738	45.560	204.977	230.903	352.943	317.879	94.396	49.808	237.082	0.00077817	0.00039869	0.00010133	1059.7	2.9938e-06	4.3606e-06	1159.6	221.21	9.2629e-06	6.6873e-06	276.68	78.994	61.269	17.657	1.734e-06	24.893	0.0014633	0.0023901	0.00068782	1058.2	2.3178e-05	2.5922e-05	1154.6	222.31	2.1755e-05	2.6237e-05	280.07	80.073	62.575	18.364	2.2294e-05	25.812	309.814	145.644	119.157	43.708	185.188	239.882	43.764	51.127	203.181	182.470	50.600	57.684	57.577	64.932	190.702	64.269	-8191	255	
1164.890	1	1	0	0	0.38106	0.13154	0.15831	0.058885	0.082908	0.067725	0.33248	0.16701	0.055899	0.13582	0.11506	0.075386	0.20465	0.15434	0.27833	0.1057	-0.71042	-1.9604	-1.4917	-1.0542	-1.9271	-1.2667	-1.4042	-1.8979	-0.88125	-1.5521	-1.775	-1.35	-1.8646	-1.4292	-1.2208	-2.0729	248.071	301.189	305.248	176.652	363.155	307.903	339.895	53.923	257.692	337.940	295.561	212.639	43.475	231.061	346.725	363.089	0.00058481	0.00028615	0.0001473	1062.4	6.1481e-06	5.4649e-06	1165.8	221.59	8.6661e-06	5.9795e-06	277.99	79.177	61.85	17.802	5.272e-06	25.033	0.0013734	0.0022338	0.00062927	1058.2	2.2438e-05	2.5732e-05	1156.7	222.24	2.2245e-05	2.6202e-05	280.37	80.238	62.787	18.38	2.3805e-05	25.839	315.181	107.734	88.373	43.660	219.096	187.972	43.957	51.234	201.634	213.625	50.487	57.736	58.080	64.925	203.144	64.466	-8191	255	
1164.988	1	1	0	0	0.071344	0.18916	0.060683	0.17704	0.40085	0.14608	0.21855	0.15878	0.35398	0.15061	0.12443	0.10863	0.40383	0.14504	0.11953	0.25905	-0.81667	-1.6542	-1.6292	-1.0729	-1.7375	-1.4292	-1.4604	-2.0167	-1.2188	-1.6396	-1.8271	-1.15	-1.9458	-1.5125	-1.3208	-2.0229	380.152	153.121	392.467	346.584	167.980	132.342	281.153	384.598	101.000	135.285	100.509	323.088	384.225	136.608	300.148	366.245	0.00053515	0.00028157	3.2055e-05	1058.7	2.4589e-06	3.8085e-06	1156.2	220.58	3.342e-06	3.1442e-06	276.58	78.907	61.92	17.728	1.5398e-06	24.929	0.0014044	0.0023544	0.00063946	1056.3	2.3257e-05	2.6054e-05	1154.3	222.31	2.1314e-05	2.5766e-05	280.13	80.277	62.784	18.363	2.4067e-05	25.969	313.135	135.703	271.297	43.392	179.187	188.800	43.671	51.129	267.566	130.737	50.671	57.876	58.200	64.818	95.076	64.183	-8191	255	
1165.082	1	1	0	0	0.11443	0.015124	0.20343	0.091271	0.1928	0.11019	0.29378	0.47242	0.025398	0.26895	0.2556	0.27211	0.25115	0.049086	0.14973	0.27659	-0.88125	-1.6208	-1.875	-1.3271	-2.0167	-1.75	-1.2437	-2.075	-1.3438	-1.3896	-2.0167	-1.0063	-1.8292	-1.6688	-1.1313	-2.0271	259.247	109.421	150.256	45.753	93.953	45.606	336.671	347.368	293.508	221.617	356.492	70.850	310.267	208.857	199.516	72.309	0.00052538	7.5943e-05	0.00014099	1062.2	6.8337e-06	2.177e-06	1156.7	220.89	9.2359e-06	2.6008e-06	277.12	79.209	62.041	17.747	6.1994e-06	25.003	0.0014148	0.0022514	0.00063744	1057.1	2.3048e-05	2.6554e-05	1152.6	222.48	2.179e-05	2.6506e-05	280.38	80.428	62.952	18.379	2.2867e-05	25.862	320.926	331.412	121.536	43.280	200.344	156.812	43.286	50.774	237.477	139.695	50.604	58.131	58.468	64.873	180.146	64.666	-8191	255	
1165.178	1	1	0	0	0.20384	0.17023	0.177	0.12535	0.21906	0.14532	0.10135	0.12943	0.004272	0.33522	0.24409	0.35018	0.13014	0.053955	0.20111	0.1185	-0.93958	-1.4729	-1.7729	-1.1562	-1.7875	-1.8438	-1.1938	-1.9958	-1.3167	-1.1104	-2.0292	-1.1333	-1.8271	-1.8563	-1.0583	-2.0146	181.381	278.770	247.655	353.625	240.587	259.048	298.209	348.645	247.993	379.816	218.539	363.186	150.444	380.711	342.446	66.238	0.000618	0.00026497	8.5473e-06	1054.3	8.721e-06	2.6369e-06	1154.3	220.9	4.5957e-06	3.9012e-06	277.21	79.455	61.333	17.701	7.6875e-06	25.102	0.001315	0.0022275	0.00061915	1054.6	2.239e-05	2.556e-05	1152.9	222.13	2.2087e-05	2.7373e-05	279.74	80.306	62.725	18.351	2.3364e-05	25.982	327.283	148.997	71.056	43.430	219.326	167.982	43.492	51.385	197.694	214.351	50.895	58.338	58.080	65.061	163.925	64.751	-8191	255	
1165.299	1	1	0	0	0.20534	0.22208	0.046925	0.361	0.20206	0.30489	0.28397	0.39675	0.16059	0.21506	0.14838	0.14251	0.1579	0.15945	0.25972	0.22557	-0.84792	-1.3312	-2.0833	-1.3625	-1.4458	-1.8813	-1.2188	-1.7958	-1.5896	-1.2458	-2.1479	-1.3125	-1.6	-1.9375	-1.0542	-1.7229	345.135	382.972	45.830	106.123	222.268	101.038	335.566	317.335	197.035	62.816	310.852	315.903	158.058	109.141	301.493	49.485	0.00071105	0.00028825	3.751e-05	1059	5.0693e-06	3.6195e-06	1158.6	220.88	8.0741e-06	4.5219e-06	277.86	78.898	61.94	17.675	2.6997e-06	25.172	0.0014359	0.0023926	0.00067349	1055.1	2.3399e-05	2.7177e-05	1153.9	222.08	2.2474e-05	2.7166e-05	279.8	80.271	62.723	18.361	2.453e-05	25.838	315.500	118.412	82.002	43.647	172.228	221.122	43.780	51.398	214.295	201.651	50.661	57.913	57.960	65.125	160.142	64.385	-8191	255	
1165.393	1	1	0	0	0.1559	0.10283	0.090794	0.069245	0.33249	0.15056	0.013974	0.043194	0.18571	0.1244	0.12083	0.12182	0.12899	0.31651	0.1019	0.11738	-1.2729	-1.1479	-2.0271	-1.4125	-1.3354	-1.8208	-1.2396	-1.7917	-1.5625	-1.05	-2.075	-1.3312	-1.2729	-1.9146	-1.0604	-1.7542	67.839	112.268	183.440	320.817	392.531	80.368	246.607	218.730	250.707	300.420	352.278	333.396	347.564	51.768	354.296	352.106	0.00059738	0.00023927	0.00011102	1058.8	4.266e-06	2.729e-06	1161.5	221.72	7.0819e-06	3.598e-06	277.28	79.186	61.772	17.727	5.2492e-06	25.183	0.0014258	0.0024086	0.00067535	1056.9	2.4296e-05	2.7164e-05	1155.9	222.23	2.2374e-05	2.7632e-05	280.33	80.591	62.828	18.4	2.4493e-05	25.91	324.422	124.689	126.690	43.892	232.679	304.666	43.851	51.437	236.575	178.111	51.130	58.143	58.218	65.139	162.581	64.531	-8191	255	
1165.489	1	1	0	0	0.14536	0.0081863	0.26656	0.22287	0.19644	0.11602	0.23893	0.30355	0.20473	0.25293	0.16706	0.30061	0.16374	0.14599	0.071211	0.26686	-1.4	-0.99583	-2.0125	-1.375	-1.2896	-1.9896	-1.2687	-1.8125	-1.85	-1.0208	-1.8854	-1.3521	-1.1979	-2.0687	-1.1333	-1.7167	389.754	45.854	266.071	231.464	133.662	194.090	318.300	313.891	92.712	145.588	305.989	49.891	369.057	180.083	43.142	261.389	0.00071192	0.00024255	0.00014748	1063.8	6.8297e-06	4.4683e-06	1163.2	220.53	4.53e-06	1.4396e-06	277.83	78.537	61.468	17.871	3.4208e-06	24.923	0.0014506	0.002439	0.00067415	1058.1	2.3789e-05	2.7948e-05	1155.2	222.53	2.3726e-05	2.8959e-05	280.62	80.085	62.729	18.487	2.6277e-05	25.9	322.582	113.721	137.550	43.672	202.312	131.099	43.967	51.696	210.385	270.579	50.968	58.314	58.225	65.235	193.843	64.595	-8191	255	
1165.586	1	1	0	0	0.22899	0.070277	0.084426	0.17199	0.17842	0.11182	0.13899	0.24392	0.4016	0.17238	0.089727	0.065726	0.13589	0.17122	0.12773	0.18836	-1.4917	-1.0292	-1.8021	-1.7229	-1.1562	-1.9521	-1.4208	-1.4979	-2.0479	-1.1812	-1.7521	-1.6	-1.1021	-1.9854	-1.3292	-1.4896	138.663	76.863	90.753	339.391	64.230	182.219	312.748	357.808	184.902	276.083	205.890	51.317	380.065	329.146	137.972	164.574	0.00059426	0.0003923	9.0343e-05	1064.4	6.6366e-06	7.3975e-06	1168.4	221.55	1.2292e-06	2.8558e-06	279.11	79.438	61.593	17.821	5.438e-06	25.104	0.001526	0.0025815	0.00069771	1061.4	2.6221e-05	2.9242e-05	1159	222.74	2.3972e-05	3.0164e-05	281.52	80.632	62.927	18.513	2.6929e-05	26.011	313.621	150.206	112.973	43.750	178.168	157.403	43.898	51.346	269.945	209.605	50.678	57.545	57.890	64.437	224.646	64.145	-8191	255	
1165.682	1	1	0	0	0.056056	0.30823	0.072056	0.23233	0.14708	0.3126	0.29435	0.15652	0.23342	0.18954	0.21608	0.11743	0.20874	0.072161	0.19897	0.14888	-1.5917	-0.89167	-1.8979	-1.7812	-0.95208	-2.0271	-1.6063	-1.3021	-1.6812	-0.77292	-1.6667	-1.8021	-1.1458	-1.9208	-1.1979	-1.2042	289.786	355.982	326.550	347.790	320.836	303.386	350.549	360.315	239.376	285.770	355.254	119.517	157.652	289.166	133.607	371.672	0.00049325	0.00047889	0.00013284	1064.6	6.3776e-06	3.9447e-06	1164.2	218.81	8.0487e-06	1.5694e-06	278.49	79.043	61.599	17.782	5.5032e-06	25.003	0.0015631	0.0026653	0.00073896	1062.1	2.7538e-05	2.9798e-05	1158.5	222.35	2.5164e-05	3.1819e-05	281.9	80.726	63.058	18.512	2.8576e-05	26.069	322.346	125.474	128.016	43.028	191.795	169.846	43.099	51.051	173.984	139.705	50.365	57.765	57.828	64.972	143.011	63.718	-8191	255	
1165.778	1	1	0	0	0.23588	0.15237	0.30947	0.082205	0.12682	0.05735	0.24397	0.02066	0.19072	0.11425	0.18567	0.074551	0.055698	0.21982	0.063543	0.094785	-1.425	-1.1187	-1.475	-1.8542	-1.1521	-1.8729	-1.5583	-1.2458	-1.8958	-1.0958	-1.5896	-1.9396	-1.0562	-1.9604	-1.5729	-1.2313	281.118	367.256	287.666	359.451	180.070	241.559	241.583	86.904	62.770	84.801	285.209	239.971	234.654	77.488	268.042	285.713	0.0007407	8.2559e-05	0.00014273	1067.5	4.9526e-06	4.3394e-06	1170.5	222.41	5.0878e-06	9.9812e-07	278.44	79.714	62.216	17.815	3.1692e-06	24.966	0.0016416	0.0027898	0.0007881	1066.8	2.7861e-05	3.1822e-05	1163.7	224.26	2.5875e-05	3.2676e-05	282.07	81.032	63.431	18.599	2.8867e-05	26.12	318.812	392.320	153.870	43.121	200.568	135.359	43.329	50.880	247.769	211.216	50.435	57.516	57.708	64.734	261.930	64.220	-8191	255	
1165.874	1	1	0	0	0.18776	0.27788	0.17919	0.049027	0.10474	0.046539	0.27592	0.21463	0.26874	0.29991	0.1135	0.048206	0.10494	0.30873	0.1857	0.047974	-1.6125	-0.93542	-1.4438	-1.8604	-1.1187	-1.9021	-1.7979	-1.0896	-1.9813	-1.2833	-1.375	-2.1167	-1.0729	-1.9958	-1.6271	-1.1354	213.506	363.519	62.937	376.851	82.527	303.404	378.960	258.450	342.074	231.741	234.201	344.318	158.645	66.771	173.161	176.432	0.00073686	0.00010529	5.7949e-05	1070.3	5.251e-06	1.8992e-06	1167.3	222.59	1.2875e-05	1.3954e-06	279.88	79.496	62.082	17.945	4.8905e-06	24.972	0.0016828	0.0028264	0.00079485	1068.7	2.8342e-05	3.2709e-05	1166.5	224.2	2.6963e-05	3.2615e-05	282.94	80.938	63.489	18.656	2.8008e-05	26.102	308.530	188.848	79.862	43.279	164.127	183.423	43.214	51.224	228.982	57.501	50.566	57.711	57.803	64.932	154.426	64.198	-8191	255	
1165.970	1	1	0	0	0.065193	0.080904	0.20173	0.049784	0.19414	0.16814	0.27058	0.21888	0.16082	0.074368	0.3124	0.026498	0.1417	0.069825	0.047499	0.31396	-1.4458	-1.3542	-1.2896	-1.9979	-1.1125	-1.6167	-1.9354	-1.2229	-1.8396	-1.2479	-1.2417	-2.0729	-1.1646	-1.4708	-1.7417	-1.2167	114.688	379.895	300.889	324.359	343.783	156.697	326.035	355.176	174.880	307.378	53.314	166.999	362.981	139.076	79.703	378.861	0.00074886	0.00012052	0.00013739	1069.9	2.8161e-06	2.9545e-06	1169.2	223.35	7.3641e-06	3.9954e-06	280.34	79.438	62.378	17.908	2.8e-06	25.405	0.0016884	0.0028609	0.00082194	1069.8	2.8161e-05	3.2494e-05	1166.8	224.82	2.745e-05	3.3484e-05	283.14	81.087	63.751	18.651	2.9981e-05	26.23	317.792	172.434	159.043	43.187	155.964	187.498	43.182	50.630	224.353	177.331	50.803	57.623	57.763	64.997	252.696	64.529	-8191	255	
1166.091	1	1	0	0	0.15088	0.19511	0.073214	0.22495	0.26066	0.21713	0.31513	0.20886	0.15966	0.19878	0.12336	0.17203	0.0059066	0.14731	0.25128	0.20327	-1.5396	-1.4438	-1.1938	-1.9396	-1.225	-1.2479	-2.0396	-1.1146	-1.7292	-1.5354	-1.2375	-2.1312	-1.3667	-1.4937	-1.9646	-1.1604	236.072	317.443	258.024	382.797	153.351	237.372	360.544	310.066	221.630	263.845	115.154	218.053	375.247	241.264	323.085	292.692	0.00066927	0.00015943	8.3218e-05	1074	3.6277e-06	3.0101e-06	1178.4	222.79	3.8179e-06	1.6434e-06	281.69	79.96	62.155	17.965	3.2241e-06	25.414	0.0017384	0.0028433	0.00082742	1072.8	2.8864e-05	3.3571e-05	1170.6	224.27	2.6569e-05	3.2273e-05	284.04	81.236	63.491	18.675	2.8743e-05	26.21	323.025	87.796	139.476	43.509	192.096	173.216	43.357	50.986	271.323	100.400	50.516	57.863	57.751	64.594	172.873	64.151	-8191	255	
1166.187	1	1	0	0	0.15355	0.28035	0.1697	0.37579	0.062947	0.013126	0.097136	0.16561	0.13467	0.26048	0.052642	0.52592	0.1331	0.04111	0.16056	0.15656	-1.4646	-1.6562	-1.1458	-2.1792	-0.9875	-1.3646	-2.2188	-0.9875	-1.7542	-1.725	-1.1708	-2.0375	-1.525	-1.2271	-2.1229	-1.2792	168.902	380.961	280.808	337.286	375.247	349.802	297.826	73.796	286.588	365.924	295.324	108.709	385.708	340.967	358.346	294.398	0.00070678	0.00017224	0.00011978	1076.4	9.0635e-06	3.3946e-06	1171.2	224.13	1.2079e-05	4.1773e-06	278.86	79.92	62.131	17.792	5.8271e-06	25.276	0.0017056	0.002898	0.00083039	1073.2	2.8449e-05	3.3702e-05	1171.5	225.14	2.7992e-05	3.293e-05	283.69	81.455	63.692	18.662	2.9905e-05	26.198	319.544	152.915	137.800	43.224	201.929	175.720	43.440	51.026	230.660	173.601	50.780	57.869	57.992	65.297	187.919	63.825	-8191	255	
1166.259	1	1	0	0	0.26334	0.15991	0.22733	0.13101	0.19882	0.049398	0.11185	0.18751	0.050317	0.047794	0.25945	0.14364	0.11578	0.16584	0.15918	0.2679	-1.3396	-1.8625	-1.1229	-2.0563	-1.4438	-1.3125	-2.0125	-1.2	-1.7479	-1.7313	-0.99583	-2.0021	-1.5167	-1.1521	-2.0854	-1.1854	245.373	247.617	136.241	101.228	210.569	256.860	253.754	361.989	340.800	304.974	48.462	342.859	36.839	373.315	137.565	346.898	0.00064946	5.3595e-05	5.202e-05	1069	3.2599e-06	3.0996e-06	1170.6	221.82	1.6604e-06	3.0204e-06	280.82	79.498	62.604	18.015	6.5157e-06	25.218	0.0017112	0.0028374	0.00081003	1072.9	2.7976e-05	3.1931e-05	1168.8	224.28	2.589e-05	3.0534e-05	282.42	81.075	63.56	18.63	2.6614e-05	26.098	312.137	93.018	114.908	43.491	166.769	210.534	43.324	51.137	264.355	142.259	50.571	58.204	58.059	65.197	195.133	64.673	-8191	255	
1166.379	1	1	0	0	0.29643	0.11789	0.23636	0.080635	0.30345	0.059302	0.14067	0.30905	0.11054	0.18489	0.33477	0.080969	0.15439	0.084055	0.067281	0.38958	-1.0562	-1.7729	-1.3083	-1.9375	-1.8104	-1.2229	-2.3104	-1.2271	-1.2354	-1.7062	-1.2667	-1.7979	-1.6854	-1.2313	-2.1104	-1.4208	154.963	83.783	45.264	166.534	68.584	105.372	108.770	57.898	374.864	357.400	230.017	216.959	208.795	352.537	151.177	364.837	0.00064586	0.00021073	4.4706e-05	1072.6	4.877e-06	3.9198e-06	1173	223.57	9.5366e-06	3.0316e-06	280.37	79.432	62.428	17.853	2.3384e-06	25.199	0.0015494	0.0025924	0.00075294	1070.5	2.5689e-05	3.0257e-05	1165.7	224.62	2.4717e-05	2.9368e-05	283.15	81.002	63.423	18.552	2.6606e-05	26.039	322.414	93.225	95.481	43.546	182.757	187.434	43.809	51.257	207.102	77.810	50.878	58.056	58.001	65.272	248.567	64.236	-8191	255	
1166.474	1	1	0	0	0.039839	0.0175	0.30043	0.11849	0.20471	0.055808	0.31484	0.032814	0.21611	0.33367	0.16207	0.095486	0.14905	0.20615	0.16503	0.022991	-1.0542	-1.9729	-1.2979	-1.8	-1.7417	-1.2396	-2.075	-1.5708	-1.3542	-1.9	-1.3458	-1.7792	-1.7854	-1.1208	-1.6271	-1.4979	276.273	88.057	103.750	115.215	89.448	313.112	350.609	368.988	252.256	289.148	37.534	352.509	383.107	249.311	312.278	165.427	0.00061688	0.00014417	0.00015126	1069.5	8.0237e-06	3.2314e-06	1170.8	223.42	3.4706e-06	1.9093e-06	281.62	79.551	62.731	17.981	1.7575e-06	24.994	0.0015869	0.0026564	0.00076741	1069	2.6162e-05	3.0682e-05	1167.7	224.17	2.5154e-05	2.9801e-05	282.46	80.884	63.461	18.602	2.6671e-05	26.015	329.688	148.046	100.819	43.750	181.167	204.377	43.738	51.234	240.932	224.728	50.928	57.844	58.386	65.169	229.908	64.584	-8191	255	
1166.570	1	1	0	0	0.14923	0.24475	0.079212	0.098165	0.13928	0.19446	0.35541	0.24323	0.30696	0.1623	0.40561	0.20968	0.019143	0.30812	0.10113	0.074745	-0.71875	-2.0896	-1.0833	-1.4417	-1.7521	-1.0146	-2.0187	-1.8208	-1.1208	-1.8771	-1.2854	-1.5167	-1.875	-1.0375	-1.7667	-1.5312	356.009	237.872	118.330	250.461	344.317	201.369	274.767	52.464	72.587	152.610	339.557	380.211	291.750	352.009	118.898	330.763	0.00058128	0.00014148	7.7114e-05	1066.3	7.7409e-06	2.978e-06	1170.3	223.47	4.4887e-06	6.0774e-06	278.28	79.616	62.047	17.708	8.4343e-06	24.972	0.0015444	0.0026091	0.0007428	1069	2.5364e-05	2.9463e-05	1164.5	223.96	2.3648e-05	2.8549e-05	281.77	80.938	63.26	18.463	2.5429e-05	26.002	319.135	290.069	127.185	43.780	200.690	174.962	43.682	51.509	247.872	201.539	51.166	58.182	58.295	65.523	182.487	64.431	-8191	255	
1166.666	1	1	0	0	0.070447	0.22132	0.14533	0.26909	0.16589	0.11371	0.13106	0.24722	0.046251	0.11579	0.15161	0.094159	0.078017	0.13917	0.15072	0.11252	-0.74375	-2.0438	-1.3875	-1.5083	-1.75	-1.1104	-1.7792	-1.6625	-0.9375	-1.7833	-1.4292	-1.2625	-1.9479	-0.93125	-1.6146	-1.7833	389.786	365.113	316.156	48.109	125.579	91.264	42.575	280.680	51.606	37.515	103.201	276.489	321.204	120.947	192.154	265.247	0.00060839	9.9232e-05	0.0001072	1068.6	2.6749e-06	2.761e-06	1166.1	223.22	9.8397e-06	4.7586e-06	277.76	79.326	62.355	17.83	6.396e-06	25.012	0.0015292	0.0024988	0.00069973	1064.7	2.4295e-05	2.7973e-05	1161.9	223.98	2.317e-05	2.8343e-05	281.33	80.707	63.241	18.511	2.5418e-05	25.981	316.640	80.364	101.825	43.524	189.983	161.737	43.571	51.348	235.629	184.818	50.828	58.215	57.928	65.220	186.223	64.755	-8191	255	
1166.787	1	1	0	0	0.25655	0.21725	0.18457	0.20803	0.030542	0.13577	0.16325	0.1225	0.087671	0.30796	0.11182	0.17147	0.25614	0.11161	0.17811	0.20003	-0.64167	-1.8792	-1.3687	-1.3979	-2.0771	-1.1333	-1.5667	-1.8875	-1.1583	-1.8729	-1.5063	-1.0729	-1.8854	-1.3188	-1.4771	-1.9479	223.880	363.867	197.093	315.188	290.679	112.955	341.207	261.822	255.753	113.484	43.704	346.619	349.404	380.753	363.954	339.081	0.00065545	0.00041046	0.00013073	1064.3	4.5264e-06	5.6164e-06	1167.7	221.15	6.6034e-06	4.0047e-06	277.12	78.967	62.196	17.889	2.9839e-06	25.196	0.001491	0.0025322	0.00070644	1066.6	2.4661e-05	2.9155e-05	1162.4	223.61	2.4217e-05	2.9121e-05	281.43	80.674	63.24	18.482	2.6189e-05	26.039	321.589	140.340	123.787	43.690	190.110	199.761	43.996	51.489	212.399	234.382	50.365	57.925	57.797	64.912	177.279	64.066	-8191	255	
1166.883	1	1	0	0	0.06986	0.028773	0.44025	0.19051	0.067292	0.27662	0.18299	0.030068	0.31302	0.23636	0.30839	0.26778	0.2856	0.28064	0.11132	0.18078	-0.72083	-1.775	-1.6042	-1.1833	-2.0938	-1.1854	-1.5625	-1.8583	-1.0583	-1.7042	-1.8458	-0.8875	-1.9438	-1.425	-1.3667	-2.1604	276.290	346.870	390.729	251.334	360.158	349.324	354.130	95.161	323.537	238.677	337.385	339.512	54.197	375.274	193.277	259.492	0.00063905	0.00049506	6.0055e-05	1068.8	6.0492e-06	4.5286e-06	1167.6	222.53	9.4556e-06	3.8115e-06	278.6	79.167	61.784	17.895	7.2676e-06	25.018	0.0015163	0.0024928	0.00071498	1067.3	2.4792e-05	2.927e-05	1164	223.79	2.3651e-05	2.8739e-05	281.6	80.63	63.065	18.544	2.5054e-05	25.956	316.074	147.849	100.821	42.873	166.768	157.119	42.902	50.605	249.760	217.628	49.945	57.005	57.617	64.405	200.674	63.677	-8191	255	
1166.979	1	1	0	0	0.065127	0.28386	0.15578	0.13352	0.055914	0.054817	0.096926	0.10046	0.31311	0.097161	0.16469	0.083788	0.16164	0.21167	0.16688	0.10978	-0.62708	-1.5396	-1.8271	-1.4125	-2.0896	-1.4146	-1.3667	-2.1937	-1.1708	-1.7083	-2.0354	-1.2854	-2.0312	-1.3563	-1.1333	-2.1958	391.274	199.210	121.489	378.975	262.578	255.868	333.615	339.055	255.341	325.061	60.185	40.243	45.519	334.325	369.887	319.202	0.00061878	0.00020021	5.8507e-05	1066.9	3.4446e-06	4.0123e-06	1167.1	221.11	9.3081e-06	3.9839e-06	278.16	79.341	61.837	17.949	8.4756e-06	25.238	0.001523	0.0024825	0.0007114	1065.4	2.4648e-05	2.8522e-05	1161.3	223.21	2.4178e-05	2.892e-05	281.87	80.71	62.986	18.543	2.5639e-05	26.021	309.350	69.447	126.904	43.014	198.800	155.353	43.146	50.671	218.742	203.387	50.352	57.417	58.006	64.453	207.901	63.673	-8191	255	
1167.075	1	1	0	0	0.11374	0.040017	0.25908	0.14804	0.21327	0.30194	0.16542	0.080526	0.32683	0.13705	0.081117	0.22265	0.11356	0.14543	0.11435	0.15451	-0.71667	-1.6083	-1.6333	-1.1792	-1.9937	-1.5229	-1.4208	-2.0938	-1.1917	-1.6	-1.8813	-1.0562	-1.575	-1.5854	-1.0354	-2.1333	179.995	389.668	285.277	378.436	281.546	286.259	361.506	64.689	193.427	272.670	350.528	227.618	321.063	330.477	297.494	387.554	0.00054708	0.00037575	0.00015229	1067.6	5.1565e-06	4.6878e-06	1166	222.49	7.5571e-06	2.0714e-06	278.19	79.309	62.26	17.846	3.217e-06	25.05	0.0014934	0.0024142	0.0006778	1065.1	2.4406e-05	2.8392e-05	1162	223.54	2.3402e-05	2.8697e-05	281.42	80.548	63.046	18.521	2.5281e-05	25.958	326.631	144.154	155.920	43.359	214.428	201.925	43.171	50.551	235.841	160.342	50.320	57.389	57.800	64.033	168.800	63.569	-8191	255	
1167.171	1	1	0	0	0.016474	0.099597	0.17168	0.17929	0.055068	0.050996	0.082268	0.10983	0.23935	0.047309	0.41365	0.36109	0.16067	0.40989	0.20525	0.15801	-0.70833	-1.4354	-1.8958	-1.3375	-1.8042	-1.6542	-1.1688	-1.9396	-1.3792	-1.2604	-1.9125	-1.1125	-1.8208	-1.6	-1.1583	-1.8292	215.725	90.908	241.590	332.148	49.052	167.977	243.982	335.369	136.227	366.431	47.159	70.792	107.487	286.202	368.296	370.435	0.00065014	0.0003631	7.2461e-05	1060.5	1.1468e-05	3.151e-06	1168.3	222.66	9.7304e-06	5.4494e-06	276.38	78.591	62.177	17.793	1.541e-06	25.056	0.0014629	0.0024722	0.00068712	1062.1	2.4842e-05	2.7133e-05	1162.2	223.65	2.3475e-05	2.8207e-05	280.63	80.533	63.036	18.47	2.5454e-05	25.982	316.168	79.654	143.312	42.839	184.188	177.477	43.351	50.870	173.141	196.320	50.117	57.331	57.825	64.235	246.995	63.731	-8191	255	
1167.267	1	1	0	0	0.29815	0.45308	0.041052	0.22465	0.076416	0.1429	0.0526	0.33419	0.15035	0.12345	0.20378	0.18908	0.11252	0.17673	0.2073	0.14274	-0.90208	-1.2083	-2	-1.275	-1.6604	-1.6542	-1.3396	-1.9208	-1.4667	-1.2875	-2.1625	-1.05	-1.6729	-1.8312	-1.1292	-1.9896	324.597	383.451	223.531	305.388	124.533	199.350	239.840	372.458	206.731	149.506	383.930	279.089	54.803	372.160	320.730	385.950	0.00060711	0.00043305	6.4469e-05	1067.8	3.1939e-06	6.4797e-07	1166	220.73	6.7185e-06	2.3476e-06	277.44	79.214	61.939	17.873	2.3753e-06	25.043	0.0015033	0.0024891	0.00070333	1064	2.4123e-05	2.8206e-05	1161.6	222.91	2.2813e-05	2.8169e-05	281.46	80.589	62.952	18.511	2.5303e-05	25.976	323.296	86.689	178.309	43.016	238.948	126.259	43.142	50.751	181.286	243.348	50.293	57.058	57.465	64.355	149.519	64.083	-8191	255	
1167.388	1	1	0	0	0.32475	0.071402	0.2311	0.2222	0.27234	0.042161	0.14945	0.14323	0.34206	0.41097	0.15439	0.068935	0.067932	0.17703	0.19796	0.23893	-1.0375	-0.96875	-2	-1.3813	-1.5271	-1.9833	-1.25	-1.9625	-1.6187	-1.1688	-1.925	-1.3354	-1.3417	-1.9917	-1.0979	-1.8542	365.451	356.189	191.076	368.856	323.888	324.507	325.400	315.477	60.526	349.870	296.463	41.067	76.011	68.376	337.013	277.544	0.00051595	0.00024772	0.00011042	1063.8	1.7139e-06	1.5086e-06	1161.4	220.51	9.578e-06	1.8357e-06	278.17	78.879	61.861	17.606	5.2192e-06	25.145	0.0014376	0.0024574	0.00067373	1061.5	2.3462e-05	2.7967e-05	1159.7	222.9	2.2892e-05	2.8395e-05	280.92	80.38	63.156	18.417	2.5477e-05	26.007	308.760	157.789	108.093	42.922	189.305	172.041	43.055	50.674	228.684	165.849	50.379	57.531	57.462	64.075	152.270	63.699	-8191	255	
1167.482	1	1	0	0	0.24299	0.20477	0.23354	0.24295	0.16086	0.12006	0.16944	0.12637	0.075237	0.098933	0.20758	0.19595	0.26591	0.086093	0.27286	0.29786	-1.4188	-1.1917	-2.05	-1.5271	-1.3813	-1.8771	-1.1167	-1.6542	-1.6771	-1.0688	-1.9688	-1.3875	-1.2437	-2	-1.1167	-1.7729	155.854	160.168	284.137	357.623	143.237	96.955	289.490	359.094	270.488	160.543	309.545	310.285	146.181	55.705	248.928	318.407	0.00066005	0.00076561	8.1631e-05	1064.2	6.147e-06	5.6422e-06	1159.4	221.49	7.1979e-06	4.976e-06	279.31	78.93	61.632	17.807	2.8097e-06	25.181	0.0014794	0.0024546	0.00068763	1062.1	2.3932e-05	2.7217e-05	1158.1	223.01	2.2711e-05	2.8263e-05	281.2	80.479	62.944	18.503	2.4722e-05	26.005	310.080	121.399	134.983	42.964	234.797	166.755	43.055	51.243	215.526	154.213	50.474	57.097	57.998	64.409	239.315	63.798	-8191	255	
1167.554	1	1	0	0	0.067746	0.16896	0.050473	0.31861	0.21847	0.071082	0.14703	0.22119	0.087345	0.18696	0.26999	0.14393	0.25244	0.13369	0.27527	0.087129	-1.5271	-0.98125	-1.6938	-1.7771	-1.0271	-1.8417	-1.2333	-1.6958	-1.9958	-1.0083	-1.8542	-1.7125	-1.0729	-2.0521	-1.2583	-1.4479	37.978	299.830	378.310	58.523	313.725	129.299	312.120	376.014	138.098	67.972	41.044	236.539	390.294	39.914	305.178	244.602	0.00054515	0.00026297	7.8763e-05	1063.3	5.7693e-06	2.4766e-06	1164.4	221.1	5.6157e-06	2.4786e-06	278.18	79.261	61.805	17.834	9.1469e-06	25.043	0.0014338	0.002475	0.00067831	1060.9	2.4248e-05	2.7896e-05	1156.1	222.56	2.3021e-05	2.8559e-05	281.1	80.205	62.855	18.54	2.4816e-05	25.987	314.085	172.464	142.645	42.826	202.885	172.787	43.012	50.681	249.185	248.572	50.302	57.070	57.502	64.796	197.676	63.879	-8191	255	
1167.650	1	1	0	0	0.25376	0.064128	0.076319	0.10855	0.10173	0.034341	0.18373	0.15363	0.23557	0.12892	0.28307	0.17049	0.076517	0.16051	0.22433	0.21661	-1.3875	-0.92292	-1.8604	-1.6688	-1.0417	-2.0042	-1.5104	-1.3396	-1.9104	-0.90417	-1.7708	-1.6833	-1.0917	-1.7083	-1.4729	-1.4771	343.759	61.283	157.270	169.711	346.884	82.728	295.788	333.563	104.325	361.808	386.023	57.035	139.682	332.073	344.856	93.191	0.0006995	0.00027691	4.0119e-05	1066.6	3.019e-06	3.4019e-06	1165.2	221.77	4.7601e-06	3.5833e-06	277.36	79.208	61.998	17.72	6.2756e-06	24.824	0.001495	0.0024876	0.00067375	1063.8	2.5146e-05	2.7698e-05	1159	222.81	2.2496e-05	2.8316e-05	280.75	80.379	62.802	18.415	2.5167e-05	25.921	327.387	168.921	165.042	42.963	180.985	209.282	43.190	50.758	194.742	176.526	50.106	57.822	57.328	64.290	247.176	64.175	-8191	255	
1167.771	1	1	0	0	0.092778	0.2351	0.21765	0.2637	0.30151	0.1069	0.19778	0.093251	0.19707	0.32358	0.20881	0.20534	0.22817	0.10846	0.17789	0.073084	-1.5292	-1.1708	-1.4292	-1.6458	-0.90625	-1.95	-1.5125	-1.1938	-1.9833	-1.1875	-1.6688	-1.8438	-1.0812	-1.9792	-1.3625	-1.1708	212.997	41.933	307.006	333.217	311.658	159.304	332.896	292.475	178.436	109.023	55.062	144.787	61.960	361.962	390.314	342.911	0.00054349	0.0003131	8.1494e-05	1062.7	2.1897e-06	2.754e-06	1162.8	221.17	3.5603e-06	2.3553e-06	278.26	78.912	61.595	17.87	3.6926e-06	24.791	0.0014633	0.0024766	0.0007066	1061.6	2.4045e-05	2.8395e-05	1158.7	222.78	2.3171e-05	2.8145e-05	280.91	80.327	62.855	18.453	2.4949e-05	25.866	322.495	118.469	182.539	42.683	156.988	273.109	42.829	50.589	191.173	208.672	50.119	57.645	57.823	64.622	230.885	64.016	-8191	255	
1167.867	1	1	0	0	0.25202	0.12691	0.048169	0.332	0.16376	0.060792	0.33838	0.098843	0.23719	0.33432	0.25091	0.23274	0.2253	0.22244	0.08215	0.1311	-1.475	-1.2708	-1.3792	-1.8813	-1.1229	-1.7417	-1.8375	-1.2521	-1.9208	-1.2292	-1.5771	-2.0729	-1.1729	-1.875	-1.6229	-1.2125	173.551	140.144	91.911	319.535	372.889	124.885	332.042	304.290	188.947	212.421	303.823	367.134	119.921	131.081	120.574	63.879	0.00051794	0.00033085	0.0001166	1062.1	5.0254e-06	3.253e-06	1162.8	221.42	1.9431e-06	4.5202e-06	277.53	78.745	61.16	17.815	4.9612e-06	24.911	0.0014938	0.0024533	0.00069241	1061.1	2.4866e-05	2.7344e-05	1157.4	222.76	2.2966e-05	2.8973e-05	280.96	80.401	62.873	18.428	2.4996e-05	25.915	313.931	141.237	106.276	43.149	209.543	228.317	42.940	51.147	249.459	134.789	50.374	57.314	57.954	64.813	154.995	63.840	-8191	255	
1167.963	1	1	0	0	0.10945	0.18599	0.21891	0.18963	0.13837	0.35791	0.093594	0.11916	0.012362	0.20987	0.047828	0.17776	0.18682	0.18788	0.076371	0.13686	-1.6542	-1.275	-1.2917	-2.1375	-1.1854	-1.6938	-1.5979	-1.0438	-1.9875	-1.4875	-1.2854	-1.9542	-1.125	-1.8208	-1.8958	-1.1875	44.642	85.327	330.208	359.024	71.001	155.327	391.713	380.616	66.200	160.260	211.447	364.231	82.745	193.706	387.882	376.799	0.00047486	0.00039009	0.00010275	1060.4	5.6396e-06	1.3342e-06	1159.8	221.27	5.6442e-06	3.3021e-06	277.83	78.83	61.669	17.732	4.1087e-06	25.244	0.0014719	0.0024019	0.00068709	1060.9	2.3969e-05	2.7379e-05	1155.5	222.65	2.2569e-05	2.7998e-05	279.8	80.379	62.899	18.473	2.4815e-05	25.978	321.127	134.977	142.161	43.429	166.647	284.171	43.205	50.899	211.656	171.534	50.730	57.724	57.872	65.154	213.197	64.437	-8191	255	
1168.059	1	1	0	0	0.064874	0.21598	0.1741	0.1408	0.1308	0.13226	0.12846	0.21466	0.13543	0.21712	0.037098	0.33381	0.08508	0.17009	0.10755	0.27906	-1.5521	-1.3583	-1.2771	-2.0729	-1.1583	-1.5854	-1.8563	-1.1458	-1.7938	-1.4354	-1.1917	-1.9042	-1.1896	-1.4875	-1.8229	-1.2062	288.004	216.110	368.222	307.266	282.872	331.967	321.109	332.481	104.277	261.473	134.980	358.504	321.164	207.379	264.387	317.494	0.00061967	0.00018284	3.7487e-05	1059.1	4.1578e-06	3.2904e-06	1165.3	221.43	6.4823e-06	2.2632e-06	277.44	79.098	62.266	17.804	8.4954e-06	25.02	0.0014749	0.0025044	0.00072145	1059.7	2.5162e-05	2.8748e-05	1159.6	223.05	2.412e-05	2.9449e-05	281.01	80.431	63.085	18.497	2.5824e-05	25.954	316.669	166.727	89.757	43.173	189.472	199.061	43.191	51.060	270.195	182.202	50.418	57.141	57.693	65.404	208.259	64.509	-8191	255	
1168.180	1	1	0	0	0.16058	0.068152	0.1381	0.31775	0.07335	0.14773	0.30735	0.24493	0.28303	0.46095	0.097881	0.14569	0.29609	0.12402	0.20522	0.2676	-1.4396	-1.5604	-1.0833	-2.35	-1.1854	-1.4792	-2.1021	-1.3396	-1.8	-1.6812	-1.2729	-1.9854	-1.5271	-1.3563	-1.9625	-1.1042	59.680	257.679	353.806	320.524	286.646	141.305	348.366	52.182	258.028	77.655	42.476	194.924	80.238	307.397	352.377	290.457	0.00066462	0.00049634	6.3154e-05	1062.9	4.199e-06	7.0167e-07	1162.1	222.38	7.4044e-06	1.2378e-06	278.25	79.297	61.6	17.906	4.6374e-06	25.133	0.0015283	0.002492	0.00069874	1059.1	2.4948e-05	2.8577e-05	1156.9	223	2.3093e-05	2.7441e-05	281.2	80.467	62.804	18.433	2.5119e-05	25.926	309.498	127.278	136.729	43.299	197.563	256.887	43.197	50.650	197.517	232.520	50.377	57.703	57.799	65.037	232.285	63.685	-8191	255	
1168.252	1	1	0	0	0.24044	0.17192	0.098178	0.060007	0.11211	0.071931	0.058675	0.08772	0.31285	0.18947	0.53242	0.2472	0.49635	0.27093	0.21252	0.2199	-1.2875	-1.5979	-1.0167	-2.0771	-1.4271	-1.2687	-2.0625	-1.1812	-1.5625	-1.7083	-1.2437	-1.95	-1.3208	-1.3896	-1.9646	-1.1125	378.235	85.343	79.929	288.278	90.352	74.522	268.400	285.626	375.258	121.542	59.661	258.425	311.354	71.226	77.701	64.867	0.00055412	0.00035898	3.0409e-05	1060.4	6.5689e-06	5.1071e-06	1159.9	219.78	7.4182e-06	3.1134e-06	278.63	78.35	61.605	17.635	5.7332e-06	24.986	0.0014543	0.0024423	0.00069298	1058.1	2.4714e-05	2.8272e-05	1155	222.24	2.3388e-05	2.83e-05	280.83	79.913	62.692	18.382	2.5107e-05	25.896	317.241	94.253	268.616	43.034	209.430	140.147	43.085	50.666	229.980	120.554	50.110	57.401	58.008	64.566	187.638	64.017	-8191	255	
1168.348	1	1	0	0	0.2083	0.18383	0.32513	0.16134	0.23206	0.21021	0.2604	0.12721	0.2055	0.094422	0.10748	0.23918	0.51108	0.12466	0.1768	0.24665	-1.2833	-1.6688	-0.98542	-2.025	-1.3417	-1.4208	-2.2583	-1.3271	-1.4979	-1.8417	-1.1229	-1.8896	-1.5271	-1.2521	-1.9479	-1.325	156.064	338.938	214.829	350.465	172.322	332.865	381.635	381.959	38.937	357.800	123.380	369.417	347.697	258.947	185.453	189.074	0.0004505	0.00047274	3.0509e-05	1064.2	7.2913e-06	4.1122e-06	1163.3	219.75	1.8562e-06	5.6483e-06	278.38	78.266	61.506	17.751	4.3128e-06	25.006	0.0014884	0.0024486	0.00070204	1060.5	2.4763e-05	2.9118e-05	1158.1	221.98	2.375e-05	2.8604e-05	280.87	80.067	62.688	18.414	2.4779e-05	25.819	322.828	144.641	58.499	42.888	175.446	187.518	43.296	50.815	338.265	188.918	50.187	57.755	57.420	64.283	183.612	63.622	-8191	255	
1168.468	1	1	0	0	0.21275	0.081435	0.45408	0.2772	0.24519	0.12797	0.15425	0.068006	0.2463	0.27744	0.11553	0.060136	0.060512	0.079369	0.071363	0.13552	-0.85	-1.9625	-1.1417	-1.8271	-1.6896	-1.1396	-2.0125	-1.3687	-1.2313	-2.0396	-1.0729	-1.8333	-1.8229	-1.0063	-2.0187	-1.525	81.494	204.930	126.818	60.912	335.587	223.992	342.312	350.907	258.591	85.013	347.890	370.483	67.146	295.953	49.338	123.393	0.00068179	8.8195e-05	0.00011414	1056.9	2.3186e-06	3.0721e-06	1157.4	220.78	8.8912e-06	1.5736e-06	277.4	78.488	61.605	17.655	9.1e-06	24.804	0.0014449	0.0023882	0.00067766	1057	2.3796e-05	2.7278e-05	1152.8	221.9	2.2657e-05	2.6808e-05	280.09	80.072	62.652	18.282	2.5496e-05	25.821	313.372	331.530	139.983	43.304	90.290	206.960	43.204	50.508	228.777	163.381	50.031	57.536	57.846	64.751	157.698	63.536	-8191	255	
1168.563	1	1	0	0	0.2069	0.22008	0.20547	0.35847	0.15465	0.17803	0.18447	0.1797	0.31362	0.35016	0.12146	0.20904	0.15339	0.18478	0.099187	0.17457	-0.825	-1.85	-0.91458	-1.7062	-1.5688	-1.1437	-2.0833	-1.7125	-1.1875	-1.9896	-1.1854	-1.5417	-2.0479	-1.0458	-1.7521	-1.6229	38.559	306.146	276.219	63.002	98.398	212.724	266.163	322.867	98.207	203.911	389.238	263.164	388.787	290.359	251.738	383.685	0.00062733	0.00043326	0.00011902	1057.6	3.8976e-07	2.2216e-06	1157.7	219.85	6.551e-06	3.3571e-06	277.81	79.098	61.88	17.685	2.5074e-06	24.67	0.0015668	0.0025329	0.00074058	1056.5	2.5659e-05	3.0061e-05	1154.5	221.87	2.4747e-05	3.0194e-05	280.2	80.247	62.795	18.357	2.6203e-05	25.837	322.573	139.938	94.392	43.323	356.686	137.114	43.220	50.829	268.778	217.499	50.382	57.289	57.887	65.098	174.088	63.905	-8191	255	
1168.659	1	1	0	0	0.18654	0.20198	0.024756	0.045541	0.16525	0.12792	0.14473	0.1879	0.2891	0.17257	0.48778	0.066127	0.27535	0.121	0.15378	0.21609	-0.58125	-1.9271	-1.1729	-1.5688	-1.8792	-1.0229	-1.8896	-1.8625	-1.1375	-1.9271	-1.3833	-1.5375	-1.7729	-1.0958	-1.8375	-1.9062	102.146	59.257	326.430	54.521	324.686	382.825	57.063	276.949	181.759	115.802	390.037	49.877	360.002	297.279	238.659	362.005	0.00059204	0.00038996	0.00010882	1059.9	1.7746e-06	2.9849e-06	1161.6	220.22	4.2468e-06	2.1385e-06	277.09	78.423	60.977	17.727	3.9494e-06	24.887	0.0015346	0.0024873	0.0007267	1057.8	2.4447e-05	2.9122e-05	1155.3	222.26	2.3236e-05	2.7628e-05	279.72	80.179	62.702	18.341	2.3733e-05	25.754	320.390	141.155	161.193	43.183	221.931	195.836	43.470	50.787	163.671	195.345	50.677	57.602	57.770	64.662	267.987	63.739	-8191	255	
1168.780	1	1	0	0	0.23646	0.041608	0.11578	0.4194	0.25886	0.15978	0.31771	0.27255	0.16206	0.1247	0.073986	0.31765	0.17284	0.27488	0.27251	0.17678	-0.78125	-1.825	-1.35	-1.4146	-1.8708	-1.1521	-1.8937	-1.8333	-0.89167	-2.0771	-1.5583	-1.1729	-2.0896	-1.1063	-1.625	-1.8021	243.670	162.223	253.377	338.365	143.788	391.742	47.638	345.545	88.505	69.899	213.613	364.125	342.836	171.054	80.668	209.312	0.00064974	0.00036718	1.3021e-05	1058.5	6.848e-06	1.8108e-07	1156.3	219.19	9.2348e-06	1.3124e-06	275.83	78.595	61.556	17.772	6.3388e-06	24.863	0.0014385	0.0023848	0.00068119	1056.6	2.3023e-05	2.7724e-05	1151.2	221.38	2.2944e-05	2.833e-05	279.8	79.949	62.639	18.361	2.5044e-05	25.85	318.306	106.572	161.598	43.597	235.772	68.480	43.142	50.870	231.321	192.226	50.342	57.564	57.904	64.820	176.935	64.194	-8191	255	
1168.851	1	1	0	0	0.33286	0.13534	0.15268	0.208	0.14843	0.14473	0.42395	0.06012	0.14843	0.28243	0.15613	0.18142	0.16541	0.17045	0.31088	0.14513	-0.58958	-1.7833	-1.525	-1.2833	-1.9896	-1.2042	-1.7146	-1.8833	-1.0979	-1.8062	-1.8271	-1.3229	-2.0896	-1.4083	-1.5208	-2.0229	252.837	144.996	223.024	172.596	167.213	65.383	330.943	85.017	216.026	309.844	350.255	280.726	87.607	114.958	203.576	211.540	0.00082142	0.00022611	0.0001185	1058.5	5.4255e-06	4.5793e-06	1158.5	219.56	5.7127e-06	3.6052e-06	276.03	78.876	61.383	17.637	5.7163e-06	24.886	0.0014759	0.0024192	0.00068634	1056.3	2.4595e-05	2.7797e-05	1152	221.35	2.2998e-05	2.8071e-05	279.37	80.119	62.582	18.292	2.422e-05	25.774	321.035	189.979	112.613	43.492	195.510	166.415	43.303	51.037	187.852	243.794	50.404	57.785	57.897	64.775	225.465	64.235	-8191	255	
1168.947	1	1	0	0	0.32025	0.3237	0.40594	0.20483	0.060245	0.11986	0.27274	0.027672	0.2147	0.17018	0.27588	0.1898	0.11259	0.044395	0.089401	0.22104	-0.6125	-1.9625	-1.6187	-1.0312	-1.85	-1.3312	-1.3625	-1.9312	-1.2208	-1.8937	-1.8563	-1.1521	-1.975	-1.4667	-1.0917	-1.8854	325.108	230.877	125.800	371.112	110.126	79.346	343.571	347.005	264.227	101.566	364.124	360.094	383.175	181.389	272.669	265.307	0.00058065	0.00026694	0.00013904	1054.6	2.6001e-06	2.9372e-06	1159.3	220.34	2.6646e-06	2.7654e-06	277.38	79.093	61.247	17.705	5.4946e-06	25.018	0.0014631	0.0024325	0.00068714	1056.3	2.5164e-05	2.8119e-05	1153.3	221.43	2.3039e-05	2.8005e-05	279.61	80.15	62.627	18.366	2.5422e-05	25.898	309.577	155.400	140.111	43.566	205.396	127.058	43.836	51.338	280.833	155.422	50.574	57.833	57.841	64.954	184.562	64.087	-8191	255	
1169.068	1	1	0	0	0.34238	0.081694	0.18153	0.4521	0.23161	0.13329	0.21543	0.2001	0.23364	0.16535	0.14721	0.039413	0.11139	0.20396	0.14649	0.20878	-0.675	-1.5979	-1.9438	-1.3312	-1.7625	-1.4167	-1.3146	-2.0875	-1.2146	-1.5229	-1.9958	-1.0354	-1.8479	-1.6104	-1.0875	-1.9771	266.911	351.737	374.317	52.647	243.308	269.215	37.106	82.017	145.380	162.839	130.807	179.019	318.172	171.887	94.292	349.182	0.00084858	0.00043368	1.5341e-05	1060.1	4.9726e-06	2.5135e-06	1158.6	221.02	7.0208e-06	3.4361e-06	275.51	78.423	61.537	17.589	7.2864e-06	25.153	0.0015104	0.0025549	0.0007139	1056.5	2.4762e-05	2.8294e-05	1153.6	221.83	2.3183e-05	2.8339e-05	279.19	80.137	62.637	18.343	2.55e-05	25.873	326.178	126.028	206.213	43.590	172.728	225.879	43.813	51.314	205.046	233.340	50.506	57.895	58.433	64.708	174.206	64.123	-8191	255	
1169.164	1	1	0	0	0.3598	0.28868	0.13826	0.0087778	0.079508	0.10661	0.27666	0.20108	0.10926	0.16958	0.08053	0.25561	0.39386	0.26027	0.16233	0.18858	-0.78333	-1.3729	-1.7667	-1.0375	-1.7875	-1.2812	-1.2792	-2.0312	-1.3646	-1.1	-1.8438	-0.99583	-1.7146	-1.7188	-1.0521	-2.0687	381.269	326.081	368.396	261.030	272.132	98.425	331.260	253.477	41.076	286.831	321.255	268.897	328.345	153.509	134.417	101.546	0.00062033	0.00043402	7.8489e-05	1056.4	3.9672e-06	4.7343e-06	1159.7	220.73	6.0771e-06	3.3601e-06	276.96	78.873	61.353	17.723	3.1365e-06	24.889	0.0014829	0.0023754	0.00068406	1056.4	2.3924e-05	2.7877e-05	1150.1	221.87	2.3139e-05	2.8464e-05	280.17	80.175	62.626	18.391	2.5681e-05	25.807	302.504	123.256	125.977	43.620	171.749	181.982	43.757	51.343	199.750	134.487	50.788	57.618	58.382	65.229	250.899	64.661	-8191	255	
1169.260	1	1	0	0	0.2635	0.1795	0.047401	0.058009	0.02541	0.25225	0.16133	0.13922	0.26577	0.39357	0.07038	0.22168	0.20465	0.047781	0.22615	0.11956	-0.90417	-1.3146	-1.9917	-1.2479	-1.7583	-1.4813	-1.2646	-2.1063	-1.3188	-1.3417	-1.8729	-1.3083	-1.5333	-1.7854	-1.0208	-2.0375	345.491	85.328	108.501	101.835	232.464	381.293	383.949	375.943	371.809	354.862	218.195	380.031	242.393	375.858	255.682	199.913	0.00053555	0.00019732	8.7296e-05	1053	8.0922e-06	5.7554e-06	1158.5	220.77	4.7535e-06	3.4959e-06	276.11	79.193	61.301	17.674	7.7716e-06	25.008	0.0015509	0.0025751	0.00071143	1055.1	2.4969e-05	2.8959e-05	1151.2	221.74	2.3586e-05	2.8231e-05	279.56	80.325	62.558	18.342	2.4952e-05	25.852	328.303	125.798	120.624	43.771	179.129	177.060	43.721	51.426	184.202	189.790	51.131	58.349	58.336	65.380	214.830	63.936	-8191	255	
1169.356	1	1	0	0	0.13323	0.30607	0.12992	0.29943	0.33321	0.24504	0.25592	0.22472	0.061185	0.11423	0.12053	0.036403	0.16728	0.10139	0.13955	0.15252	-1.0625	-1.1333	-1.9104	-1.2687	-1.45	-1.8771	-1.0667	-1.8271	-1.7333	-1.2583	-2.1688	-1.3271	-1.6354	-1.9583	-1.0938	-1.9208	306.037	296.743	76.107	323.417	123.283	57.846	343.732	36.606	155.995	375.715	204.696	101.859	368.287	357.569	280.746	291.020	0.00063609	0.00042009	9.0984e-05	1053.5	8.0456e-06	3.6611e-06	1160.2	220.29	4.965e-06	1.8162e-06	277.31	77.732	61.232	17.655	4.4021e-06	25.07	0.001478	0.0024778	0.00067702	1053.5	2.4354e-05	2.7757e-05	1152.3	221.18	2.3261e-05	2.8239e-05	279.87	79.635	62.486	18.284	2.569e-05	25.866	314.714	116.203	61.187	43.323	242.300	196.408	43.315	51.473	266.967	97.858	50.786	57.952	58.606	65.558	196.892	64.142	-8191	255	
1169.428	1	1	0	0	0.12325	0.10667	0.1236	0.072527	0.14618	0.28916	0.21991	0.26761	0.21338	0.15386	0.0059293	0.13183	0.10001	0.2419	0.2702	0.14712	-1.0521	-1.3083	-2.1042	-1.4062	-1.3542	-2.05	-1.2667	-1.7042	-1.7917	-0.98125	-1.9958	-1.5625	-1.2833	-1.8833	-1.0938	-1.7417	365.205	341.849	268.505	52.196	354.656	130.463	314.856	114.016	290.587	290.860	325.509	288.603	173.572	318.808	105.249	118.963	0.00072855	0.00041683	6.4709e-05	1053.9	5.5835e-06	3.9253e-06	1158.1	219.89	5.5123e-06	5.1841e-06	275.83	78.732	61.402	17.659	1.9631e-06	25.074	0.0014642	0.002487	0.00069545	1053.6	2.4438e-05	2.8165e-05	1151.1	221.59	2.247e-05	2.8113e-05	279.73	79.956	62.589	18.332	2.3947e-05	25.867	322.912	101.835	139.884	43.929	205.464	224.333	43.691	51.317	210.313	148.961	51.058	58.567	58.657	65.367	202.081	64.991	-8191	255	
1169.547	1	1	0	0	0.14437	0.19376	0.20804	0.25821	0.2547	0.11912	0.25631	0.22877	0.26662	0.17061	0.14825	0.071418	0.11214	0.24612	0.24174	0.069772	-1.2729	-0.87708	-1.8708	-1.5375	-1.1646	-2.0479	-1.375	-1.4604	-1.9271	-0.98333	-1.8937	-1.6583	-1.2875	-1.925	-1.1979	-1.6729	313.567	156.447	111.780	386.644	324.316	165.392	350.558	308.987	136.676	166.812	240.254	124.023	326.375	381.948	126.304	232.694	0.00069972	0.00014087	6.7942e-05	1056.3	4.4372e-06	6.2984e-06	1151.4	219.86	4.803e-06	4.1664e-06	275.34	78.591	61.178	17.657	3.5278e-06	25.139	0.0014065	0.0023497	0.00066657	1054	2.3563e-05	2.6952e-05	1149.3	221.69	2.2068e-05	2.7475e-05	279.13	79.939	62.368	18.302	2.4578e-05	25.838	315.761	375.660	137.235	43.694	185.309	169.739	43.874	51.402	169.121	179.134	50.552	57.527	58.410	65.620	235.174	63.957	-8191	255	
1169.643	1	1	0	0	0.12455	0.18064	0.18561	0.14701	0.2406	0.03328	0.11843	0.28664	0.18139	0.12998	0.32986	0.16845	0.14223	0.29003	0.23733	0.085132	-1.2687	-1.0854	-1.6604	-1.6562	-1.1854	-2.0875	-1.4708	-1.7854	-1.8646	-1.1437	-1.9458	-1.8458	-1.2917	-1.8813	-1.2271	-1.4688	47.169	356.967	346.508	360.983	185.108	78.251	56.100	306.225	388.501	344.314	347.840	147.198	379.248	338.039	246.245	259.132	0.0006212	0.00039344	3.215e-05	1055.9	2.4288e-06	3.5388e-06	1158	220.37	3.5364e-06	2.6904e-07	277.66	78.989	61.649	17.672	4.5173e-06	24.892	0.0015015	0.0024793	0.00069879	1051.9	2.4837e-05	2.7548e-05	1151.4	221.37	2.2598e-05	2.7303e-05	279.74	79.984	62.762	18.294	2.5459e-05	25.802	320.424	138.105	99.854	43.784	105.618	217.027	43.887	51.218	249.208	333.127	51.120	58.160	58.427	64.684	164.464	64.780	-8191	255	
1169.739	1	1	0	0	0.011707	0.20772	0.080184	0.087472	0.20769	0.22864	0.37396	0.11014	0.19557	0.20196	0.19942	0.088101	0.16026	0.17016	0.39204	0.3519	-1.5021	-1.075	-1.6646	-1.8104	-1.2437	-1.8167	-1.6167	-1.4417	-2.1125	-1.1542	-1.9	-1.8083	-1.3354	-2.0521	-1.5146	-1.3167	243.716	133.291	50.843	61.726	84.377	299.606	383.214	243.702	95.767	84.017	332.358	71.135	252.961	197.962	227.442	376.263	0.00076123	0.00044219	2.3235e-05	1054.1	5.8515e-06	5.5866e-06	1151	220.19	1.092e-05	9.8043e-07	277.2	78.924	61.746	17.669	5.202e-06	24.976	0.0014717	0.002472	0.0006705	1052.6	2.3518e-05	2.6189e-05	1149.1	221.36	2.1654e-05	2.5735e-05	279.06	79.812	62.604	18.319	2.4234e-05	25.696	311.703	181.886	172.017	43.665	199.562	142.922	43.668	51.470	220.946	263.081	50.810	57.538	58.635	64.845	150.595	64.327	-8191	255	
1169.860	1	1	0	0	0.13137	0.15758	0.17929	0.12198	0.12713	0.0076864	0.30614	0.20004	0.26635	0.129	0.2217	0.25785	0.19562	0.15881	0.12971	0.05416	-1.6167	-1.2625	-1.5562	-2.0583	-0.99792	-2.0687	-1.4167	-1.3333	-1.9604	-1.0417	-1.5771	-1.9438	-1.0229	-1.6833	-1.4625	-1.3333	59.302	216.986	253.090	148.898	333.938	223.449	317.760	44.660	361.064	130.152	340.369	104.178	383.790	85.667	380.373	33.546	0.00058212	0.00055865	8.2201e-05	1053.1	4.7315e-06	3.6226e-06	1153.7	219.53	7.9487e-06	3.2093e-06	275.65	79.061	61.333	17.656	3.2653e-06	24.859	0.0014074	0.0023221	0.00066909	1050.7	2.3339e-05	2.7202e-05	1148.9	221.05	2.2793e-05	2.7745e-05	279.26	79.747	62.347	18.275	2.4726e-05	25.779	317.118	155.688	144.294	43.253	135.270	159.939	43.282	51.448	251.922	207.265	50.690	57.963	58.026	64.953	301.486	64.606	-8191	255	
1169.956	1	1	0	0	0.21732	0.12	0.24592	0.046538	0.26148	0.19055	0.36567	0.041302	0.26173	0.080084	0.074475	0.13244	0.30202	0.30255	0.098715	0.24972	-1.7396	-1.1583	-1.2271	-2.1125	-1.1063	-1.5292	-1.9021	-1.6292	-2.0792	-1.6417	-1.6604	-2.0104	-1.1833	-1.8042	-1.7313	-1.2687	102.455	265.730	192.575	280.713	269.390	84.560	345.479	329.012	169.360	119.704	268.051	166.370	358.250	284.798	297.249	374.445	0.00057384	0.00035356	6.1962e-05	1058.2	1.3284e-06	5.7284e-06	1159.7	219.13	4.6615e-06	2.8671e-06	275.62	78.728	61.309	17.747	2.6523e-06	25.033	0.0014466	0.0024945	0.00070696	1053.8	2.3592e-05	2.8286e-05	1151.4	221.21	2.2998e-05	2.7717e-05	278.97	79.818	62.51	18.338	2.4609e-05	25.788	327.571	119.354	110.916	43.493	169.583	229.425	43.617	51.283	223.876	205.614	50.384	57.842	58.422	65.360	168.649	64.137	-8191	255	
1170.052	1	1	0	0	0.05685	0.13794	0.12512	0.3927	0.19869	0.086275	0.20455	0.38977	0.14165	0.27021	0.087125	0.13403	0.24063	0.19735	0.13204	0.2051	-1.5625	-1.5229	-1.2583	-2.075	-1.0271	-1.6833	-1.9146	-1.1417	-2.1646	-1.3458	-1.2146	-2.1604	-1.525	-1.6354	-1.9625	-1.3062	50.558	355.477	137.493	381.530	103.430	322.917	49.958	370.070	374.112	318.832	339.793	264.272	214.772	339.005	265.185	318.811	0.00065968	0.00038841	4.1647e-05	1060.4	3.7743e-06	5.1053e-06	1154.4	219.62	8.0309e-06	1.0623e-06	276.04	78.194	61.323	17.606	2.3789e-06	25.058	0.0014458	0.0024217	0.00067636	1053.4	2.3665e-05	2.7406e-05	1151.1	220.87	2.3218e-05	2.7977e-05	279.33	79.689	62.441	18.298	2.4553e-05	25.794	315.819	100.968	142.859	43.114	229.943	213.784	43.379	51.208	213.955	147.811	50.347	58.063	58.074	65.354	89.996	64.427	-8191	255	
1170.148	1	1	0	0	0.14149	0.26991	0.091634	0.11968	0.090997	0.24844	0.14821	0.22453	0.16815	0.11005	0.09623	0.2719	0.19044	0.14968	0.15019	0.0083892	-1.5104	-1.4896	-1.2833	-2.1979	-1.2771	-1.6375	-2.1021	-1.2167	-1.8271	-1.6271	-1.4646	-2.1125	-1.5583	-1.7167	-2.0042	-1.2646	279.225	122.350	126.586	224.444	255.216	184.249	235.121	256.101	116.824	41.650	239.670	284.920	243.253	180.255	311.586	366.865	0.00073056	0.00045314	3.1565e-05	1056.2	5.2099e-06	4.2202e-06	1153.5	219.27	7.556e-06	1.2865e-06	276.35	78.65	61.272	17.626	4.1954e-06	24.697	0.0014903	0.0024664	0.00071376	1053.5	2.516e-05	2.8214e-05	1149.5	220.78	2.2741e-05	2.8221e-05	279.4	79.908	62.496	18.298	2.4477e-05	25.775	329.492	91.065	240.663	43.485	217.649	202.432	43.584	51.245	238.140	188.635	50.787	57.473	58.544	65.431	122.471	64.086	-8191	255	
1170.245	1	1	0	0	0.12308	0.16061	0.034705	0.47449	0.23879	0.18267	0.19227	0.28413	0.18178	0.10608	0.14794	0.29715	0.22715	0.074858	0.093555	0.16234	-1.3667	-1.7604	-1.0542	-2.0187	-1.2708	-1.3771	-2.2146	-1.3146	-1.75	-1.8042	-1.2292	-2.0208	-1.5979	-1.4167	-1.9875	-1.4688	162.044	126.891	373.254	337.701	327.431	188.135	340.943	367.878	320.081	348.830	382.068	277.674	153.675	357.333	152.136	380.968	0.00054346	0.00029575	0.00012685	1054	6.5346e-06	2.4605e-06	1158.1	219.85	8.8698e-06	1.3986e-06	276.65	78.589	61.22	17.695	3.2364e-06	24.912	0.0014645	0.0023811	0.00070491	1054.4	2.4501e-05	2.7838e-05	1151	221	2.3426e-05	2.7739e-05	279.37	79.906	62.36	18.356	2.4166e-05	25.805	318.186	83.852	150.073	43.586	208.116	132.131	43.727	51.557	204.530	190.787	51.103	57.911	58.243	65.440	177.328	64.691	-8191	255	
1170.341	1	1	0	0	0.22069	0.12713	0.25418	0.33404	0.32475	0.20056	0.026953	0.44773	0.10462	0.17403	0.34107	0.18233	0.040515	0.15946	0.043156	0.083983	-1.2958	-1.8188	-1.1708	-2.2396	-1.5583	-1.2083	-2.3333	-1.4104	-1.6875	-1.9542	-1.1125	-1.8896	-1.7229	-1.2771	-2.2938	-1.3958	47.991	303.552	308.510	362.976	211.528	326.937	84.209	302.256	298.060	137.043	324.077	345.646	324.530	380.740	41.686	282.198	0.00063721	0.00016243	0.00010007	1053.7	8.5437e-06	2.4207e-06	1153.7	220.43	1.071e-05	3.9061e-06	277	79.261	61.366	17.752	8.1497e-06	24.733	0.0014688	0.0024153	0.00068107	1052.4	2.3975e-05	2.7497e-05	1149.7	221.4	2.2884e-05	2.7747e-05	279.68	80.156	62.598	18.355	2.5185e-05	25.779	314.618	149.798	97.825	43.729	189.622	217.841	43.960	51.467	238.789	93.305	51.290	57.905	58.756	64.920	183.582	64.537	-8191	255	
1170.460	1	1	0	0	0.23056	0.19387	0.16693	0.24447	0.049621	0.072279	0.044816	0.17855	0.25939	0.19254	0.16851	0.10303	0.047383	0.1919	0.07929	0.28472	-1.1854	-1.9125	-1.1729	-1.9688	-1.6375	-1.3604	-2.2958	-1.5604	-1.525	-2.0958	-1.3333	-1.8438	-1.7958	-1.1229	-2.125	-1.6125	42.688	87.898	362.785	61.080	200.394	267.696	261.599	304.896	212.378	77.560	304.157	295.746	390.918	180.397	367.107	302.875	0.00067405	0.00054413	1.6096e-05	1055.3	2.0261e-06	2.9533e-06	1159.1	218.93	9.7265e-06	3.5527e-06	276.17	79.277	61.579	17.634	5.0488e-06	25.005	0.0014796	0.00249	0.00068097	1054.2	2.4346e-05	2.7911e-05	1152.1	220.86	2.3429e-05	2.8299e-05	278.8	80.083	62.628	18.326	2.4481e-05	25.712	311.318	65.710	163.621	43.575	168.479	239.736	43.674	50.936	187.306	206.178	50.711	57.985	58.544	65.017	98.529	64.591	-8191	255	
1170.556	1	1	0	0	0.12469	0.12807	0.080739	0.02277	0.20122	0.13741	0.20664	0.21291	0.12618	0.13782	0.16277	0.29611	0.1828	0.11653	0.12334	0.17699	-0.97083	-2.2292	-1.2875	-1.9625	-1.85	-1.2104	-2.1146	-1.6521	-1.4333	-2.1646	-1.1833	-1.6604	-1.95	-1.2604	-1.7687	-1.6458	90.728	205.164	310.518	367.286	192.299	172.429	308.740	302.959	253.745	45.102	195.173	325.524	370.404	304.314	184.498	337.806	0.00070674	0.00061794	0.00012616	1057	2.494e-06	3.8437e-06	1157.6	219.77	7.2872e-06	1.7753e-06	274.17	78.462	61.483	17.767	4.1315e-06	24.992	0.0015003	0.0024572	0.00070385	1054.8	2.4464e-05	2.9123e-05	1152	221.13	2.3282e-05	2.8965e-05	278.86	79.933	62.569	18.426	2.5396e-05	25.826	318.931	132.556	156.871	43.612	246.832	239.552	43.980	51.229	217.389	205.059	51.141	58.060	58.357	65.093	222.942	64.638	-8191	255	
#DATA ENDS
