BOXY.EXE: ISS Imagent and Oximeter Data Acquisition Program Version 0.80
Ascii Record File

#ACQ INFORMATION
2  Detector Channels 
16  External MUX Channels 
1  Auxiliary Channels 
5000  Waveform (CCF) Frequency (Hz)
1  Waveforms Skipped 
30  Waveforms Averaged 
1  Cycles Averaged 
16  Acquisitions per Waveform 
10.0806  Updata Rate (Hz) 

#FILE INFORMATION
TRUE -- External MUX Channel results are PARSED.
FALSE -- AC DC and Phase are NOT grouped.
TRUE -- Companion Program Settings File CREATED.
FALSE -- AC data not excluded
FALSE -- DC data not excluded
FALSE -- Phase data not excluded
FALSE -- Auxillary Chn. data not excluded
Tab delimiters

#CALIBRATION STATE
TRUE -- Waveform Calibration Values APPLIED.


#AUX CALIBRATION VALUES
Val Type	aux-1	

Term	1.0000e+00	
Factor	0.0000e+00	


#WF CALIBRATION VALUES
A = Detector Channel
Val Type	A-AC1	A-AC2	A-AC3	A-AC4	A-AC5	A-AC6	A-AC7	A-AC8	A-AC9	A-AC10	A-AC11	A-AC12	A-AC13	A-AC14	A-AC15	A-AC16	A-DC1	A-DC2	A-DC3	A-DC4	A-DC5	A-DC6	A-DC7	A-DC8	A-DC9	A-DC10	A-DC11	A-DC12	A-DC13	A-DC14	A-DC15	A-DC16	A-Ph1	A-Ph2	A-Ph3	A-Ph4	A-Ph5	A-Ph6	A-Ph7	A-Ph8	A-Ph9	A-Ph10	A-Ph11	A-Ph12	A-Ph13	A-Ph14	A-Ph15	A-Ph16	

Term	0.00000e+00	0.00000e+00	0.00000e+00	0.00000e+00	0.00000e+00	0.00000e+00	0.00000e+00	0.00000e+00	0.00000e+00	0.00000e+00	0.00000e+00	0.00000e+00	0.00000e+00	0.00000e+00	0.00000e+00	0.00000e+00	0.00000e+00	0.00000e+00	0.00000e+00	0.00000e+00	0.00000e+00	0.00000e+00	0.00000e+00	0.00000e+00	0.00000e+00	0.00000e+00	0.00000e+00	0.00000e+00	0.00000e+00	0.00000e+00	0.00000e+00	0.00000e+00	0.00000e+00	0.00000e+00	0.00000e+00	0.00000e+00	0.00000e+00	0.00000e+00	0.00000e+00	0.00000e+00	0.00000e+00	0.00000e+00	0.00000e+00	0.00000e+00	0.00000e+00	0.00000e+00	0.00000e+00	0.00000e+00	
Factor	1.00000e+00	1.00000e+00	1.00000e+00	1.00000e+00	1.00000e+00	1.00000e+00	1.00000e+00	1.00000e+00	1.00000e+00	1.00000e+00	1.00000e+00	1.00000e+00	1.00000e+00	1.00000e+00	1.00000e+00	1.00000e+00	1.00000e+00	1.00000e+00	1.00000e+00	1.00000e+00	1.00000e+00	1.00000e+00	1.00000e+00	1.00000e+00	1.00000e+00	1.00000e+00	1.00000e+00	1.00000e+00	1.00000e+00	1.00000e+00	1.00000e+00	1.00000e+00	X	X	X	X	X	X	X	X	X	X	X	X	X	X	X	X	

B = Detector Channel
Val Type	B-AC1	B-AC2	B-AC3	B-AC4	B-AC5	B-AC6	B-AC7	B-AC8	B-AC9	B-AC10	B-AC11	B-AC12	B-AC13	B-AC14	B-AC15	B-AC16	B-DC1	B-DC2	B-DC3	B-DC4	B-DC5	B-DC6	B-DC7	B-DC8	B-DC9	B-DC10	B-DC11	B-DC12	B-DC13	B-DC14	B-DC15	B-DC16	B-Ph1	B-Ph2	B-Ph3	B-Ph4	B-Ph5	B-Ph6	B-Ph7	B-Ph8	B-Ph9	B-Ph10	B-Ph11	B-Ph12	B-Ph13	B-Ph14	B-Ph15	B-Ph16	

Term	0.00000e+00	0.00000e+00	0.00000e+00	0.00000e+00	0.00000e+00	0.00000e+00	0.00000e+00	0.00000e+00	0.00000e+00	0.00000e+00	0.00000e+00	0.00000e+00	0.00000e+00	0.00000e+00	0.00000e+00	0.00000e+00	0.00000e+00	0.00000e+00	0.00000e+00	0.00000e+00	0.00000e+00	0.00000e+00	0.00000e+00	0.00000e+00	0.00000e+00	0.00000e+00	0.00000e+00	0.00000e+00	0.00000e+00	0.00000e+00	0.00000e+00	0.00000e+00	-1.98888e+02	-1.41666e+02	-1.28181e+02	-1.83212e+02	-8.92266e+01	-7.95993e+01	-1.60609e+02	-1.62015e+02	-7.67401e+01	-7.98675e+01	-1.72562e+02	-1.72621e+02	-1.82837e+02	-1.77955e+02	-8.59113e+01	-1.50807e+02	
Factor	3.77429e-05	1.24987e-04	3.22763e-05	1.53048e-01	1.12836e-06	1.18453e-06	1.66555e-01	5.17580e-02	1.34229e-06	1.30404e-06	7.96663e-02	2.59757e-02	2.43854e-02	7.97063e-03	1.19627e-06	1.14541e-02	1.84811e-06	1.93964e-06	5.39761e-07	8.01032e-02	2.10885e-08	2.12456e-08	8.19187e-02	2.70715e-02	2.11425e-08	2.13452e-08	4.02592e-02	1.31275e-02	1.28064e-02	4.18483e-03	2.12242e-08	5.82685e-03	X	X	X	X	X	X	X	X	X	X	X	X	X	X	X	X	



#DISTANCE SETTINGS
A = Detector Channel
A-1	A-2	A-3	A-4	A-5	A-6	A-7	A-8	A-9	A-10	A-11	A-12	A-13	A-14	A-15	A-16	

2.5000e+00	3.0000e+00	2.5000e+00	3.0000e+00	2.0000e+00	3.0000e+00	1.5000e+00	3.0000e+00	3.0000e+00	3.0000e+00	3.0000e+00	3.0000e+00	3.0000e+00	3.0000e+00	1.5000e+00	3.0000e+00	

B = Detector Channel
B-1	B-2	B-3	B-4	B-5	B-6	B-7	B-8	B-9	B-10	B-11	B-12	B-13	B-14	B-15	B-16	

1.0000e+01	1.0000e+01	1.0000e+01	1.4400e+00	1.0000e+01	1.0000e+01	1.5100e+00	1.9400e+00	1.0000e+01	1.0000e+01	1.9900e+00	2.4900e+00	2.4100e+00	2.9000e+00	1.0000e+01	2.9800e+00	




#DATA BEGINS
time	group	step	mark	flag	A-AC1	A-AC2	A-AC3	A-AC4	A-AC5	A-AC6	A-AC7	A-AC8	A-AC9	A-AC10	A-AC11	A-AC12	A-AC13	A-AC14	A-AC15	A-AC16	A-DC1	A-DC2	A-DC3	A-DC4	A-DC5	A-DC6	A-DC7	A-DC8	A-DC9	A-DC10	A-DC11	A-DC12	A-DC13	A-DC14	A-DC15	A-DC16	A-Ph1	A-Ph2	A-Ph3	A-Ph4	A-Ph5	A-Ph6	A-Ph7	A-Ph8	A-Ph9	A-Ph10	A-Ph11	A-Ph12	A-Ph13	A-Ph14	A-Ph15	A-Ph16	B-AC1	B-AC2	B-AC3	B-AC4	B-AC5	B-AC6	B-AC7	B-AC8	B-AC9	B-AC10	B-AC11	B-AC12	B-AC13	B-AC14	B-AC15	B-AC16	B-DC1	B-DC2	B-DC3	B-DC4	B-DC5	B-DC6	B-DC7	B-DC8	B-DC9	B-DC10	B-DC11	B-DC12	B-DC13	B-DC14	B-DC15	B-DC16	B-Ph1	B-Ph2	B-Ph3	B-Ph4	B-Ph5	B-Ph6	B-Ph7	B-Ph8	B-Ph9	B-Ph10	B-Ph11	B-Ph12	B-Ph13	B-Ph14	B-Ph15	B-Ph16	aux-1	digaux	

8544.142	1	1	0	256	0.46362	0.15334	0.066515	0.4066	0.18469	0.14965	0.19256	0.141	0.1451	0.077218	0.043528	0.013065	0.11093	0.12586	0.29486	0.32491	-2.1229	-2.3125	-2.6958	-2.6208	-2.3104	-2.8417	-2.5646	-2.6667	-2.6146	-2.3542	-2.675	-2.5563	-2.3917	-2.9	-2.3563	-2.5875	416.613	363.255	181.520	355.055	405.565	350.822	401.978	405.261	156.889	73.112	95.600	247.399	206.328	359.312	148.438	364.598	0.0010605	0.00059598	0.00013149	1288.7	6.4519e-06	6.4263e-06	1281	341.31	8.0067e-06	5.0633e-06	389.24	127.46	111.58	37.734	1.6506e-06	47.192	0.00050793	0.00049043	0.00013762	1309.3	5.4301e-06	5.4121e-06	1300.7	348.11	5.4836e-06	5.4732e-06	397.62	130.2	113.67	38.949	5.5101e-06	48.648	97.222	144.064	104.144	81.602	204.392	191.662	81.782	86.645	226.907	170.470	85.846	90.475	91.044	95.410	243.701	94.859	-8191	255	
8544.239	1	1	0	0	0.21017	0.167	0.31455	0.023869	0.10795	0.15062	0.19881	0.42891	0.15428	0.20178	0.31488	0.10727	0.36781	0.31094	0.1623	0.082888	-2.2438	-2.4208	-2.5979	-2.6437	-2.2917	-2.9042	-2.4979	-2.6375	-2.7229	-2.4417	-2.8396	-2.8958	-2.4333	-2.8979	-2.4979	-2.4479	76.075	197.261	373.090	74.000	390.663	275.922	391.634	380.025	320.930	117.276	311.793	71.663	421.064	390.038	390.275	99.259	0.0010206	0.00072206	0.00011545	1287.3	3.3097e-06	5.0745e-06	1282	342.29	2.5035e-06	4.0703e-06	388.44	127.64	110.81	37.888	6.2285e-06	47.14	0.00050337	0.00049196	0.00013797	1310.7	5.4744e-06	5.4616e-06	1301.4	348.93	5.3554e-06	5.3763e-06	397.89	130.11	113.39	39.029	5.4382e-06	48.652	95.049	145.326	182.714	81.834	200.609	171.336	81.587	87.002	178.767	210.832	86.065	90.718	91.116	95.705	262.297	94.669	-8191	255	
8544.310	1	1	0	0	0.058045	0.13609	0.2713	0.17255	0.096673	0.23941	0.26641	0.077013	0.093179	0.10958	0.04709	0.17732	0.18638	0.11112	0.18834	0.40344	-2.3583	-2.2458	-2.5312	-2.6896	-2.3292	-2.5979	-2.6458	-2.5417	-2.6896	-2.375	-2.7083	-2.6	-2.0187	-2.7646	-2.5875	-2.5396	208.433	136.650	86.304	75.492	73.037	381.530	368.561	181.323	269.501	110.945	394.130	294.977	86.266	372.033	149.635	335.299	0.0010113	0.00037239	6.9396e-05	1287.8	9.1846e-06	1.8816e-06	1282.3	341.91	2.3531e-06	6.4888e-06	390.06	127.92	111.11	37.82	2.9166e-06	47.258	0.00050795	0.00048933	0.00013837	1311.2	5.3489e-06	5.3649e-06	1301.5	349.18	5.3958e-06	5.3946e-06	398.3	130.3	113.57	39.007	5.4109e-06	48.681	93.053	185.781	112.381	82.043	199.502	301.019	81.580	86.760	207.072	266.484	86.113	90.423	91.112	95.923	203.503	94.432	-8191	255	
8544.431	1	1	0	0	0.19056	0.19147	0.12781	0.31206	0.10881	0.017065	0.20529	0.14482	0.27484	0.26376	0.35087	0.2939	0.25748	0.079055	0.22922	0.18406	-2.3937	-2.2062	-2.5854	-2.7958	-2.2979	-2.6688	-2.5792	-2.4938	-2.7854	-2.5396	-2.7	-2.8	-2.2104	-2.7417	-2.5938	-2.4604	392.015	119.354	170.953	406.110	395.152	203.761	415.082	383.578	390.858	139.645	399.848	406.387	408.804	331.106	290.944	121.808	0.0010212	0.00016072	0.00012793	1286.5	3.0557e-06	2.2181e-06	1281.7	341.74	1.324e-06	4.1546e-06	391.32	127.56	111.38	37.846	2.4009e-06	47.052	0.00050537	0.00049283	0.00013729	1311	5.3929e-06	5.3475e-06	1302.5	348.54	5.3494e-06	5.3658e-06	399.18	130.27	113.65	39.039	5.4045e-06	48.618	95.990	424.982	213.244	81.633	183.199	300.249	81.627	86.598	402.445	160.889	86.014	90.559	90.864	95.741	260.471	94.833	-8191	255	
8544.525	1	1	0	0	0.11952	0.021837	0.093039	0.22472	0.068435	0.087111	0.24376	0.050308	0.17936	0.17511	0.097934	0.16071	0.1346	0.30696	0.1893	0.051574	-2.3854	-2.375	-2.4896	-2.8396	-2.4354	-2.6458	-2.7167	-2.3917	-2.6875	-2.3792	-2.4854	-2.8542	-2.4667	-2.6312	-2.625	-2.4313	364.912	368.731	247.095	88.143	199.646	295.115	368.308	137.573	107.640	218.144	152.806	328.918	287.707	385.025	317.156	81.660	0.0009376	0.00047947	0.0001833	1288.7	3.2144e-06	1.6625e-06	1285.3	341.93	2.1308e-06	3.3565e-06	391.1	127.97	110.96	38.082	2.7271e-06	47.091	0.00050235	0.00049115	0.00013565	1310	5.3477e-06	5.352e-06	1305.6	349.1	5.359e-06	5.4593e-06	399.02	130.62	113.64	39.125	5.4001e-06	48.756	98.214	113.051	169.631	81.925	121.326	206.874	81.772	86.821	167.724	215.538	85.838	90.668	91.177	95.670	231.828	94.912	-8191	255	
8544.621	1	1	0	0	0.28228	0.14533	0.24408	0.34349	0.23561	0.14712	0.30964	0.25405	0.094974	0.13537	0.13678	0.032524	0.093761	0.15165	0.22127	0.45847	-2.2667	-2.3354	-2.4021	-2.8125	-2.2333	-2.5104	-2.7854	-2.5125	-2.7896	-2.3458	-2.4292	-2.8375	-2.4042	-2.6167	-2.7604	-2.4958	278.380	398.971	388.843	74.170	381.771	162.385	342.166	343.479	205.587	148.056	364.046	216.192	115.798	381.581	365.454	326.642	0.00077586	0.00039443	8.2794e-05	1293.1	4.0869e-06	5.4752e-06	1288.1	343.43	3.6263e-06	3.149e-06	391.23	128.22	111.61	37.855	2.9744e-06	47.059	0.00049882	0.00049214	0.0001387	1313.4	5.3801e-06	5.3893e-06	1306.2	350.18	5.4008e-06	5.369e-06	399.39	130.67	113.99	39.063	5.4155e-06	48.69	92.207	134.497	228.467	81.717	176.288	212.836	81.601	86.737	236.010	210.527	85.987	90.587	90.845	95.595	187.215	94.777	-8191	255	
8544.742	1	1	0	0	0.30461	0.14236	0.17228	0.45834	0.13373	0.20424	0.2428	0.20545	0.26505	0.1649	0.21871	0.090149	0.18918	0.3759	0.072097	0.19228	-2.3271	-2.4813	-2.4042	-2.8917	-2.475	-2.3646	-2.8625	-2.3625	-2.625	-2.5604	-2.5542	-2.9688	-2.4354	-2.6854	-2.7521	-2.3375	101.478	154.654	289.028	410.859	257.542	198.750	343.972	122.106	275.783	202.600	359.144	379.873	259.877	420.133	268.268	368.961	0.0010622	0.00052743	0.00011383	1294.1	9.179e-06	4.0243e-06	1289.2	342.63	3.0843e-06	3.5969e-06	391.4	128.29	111.72	38.149	5.7767e-06	47.4	0.00050295	0.00049553	0.00013538	1318	5.4695e-06	5.3997e-06	1308.6	350.31	5.3967e-06	5.4277e-06	400.29	131.06	114.24	39.265	5.3852e-06	48.971	93.214	108.628	211.341	81.707	223.463	213.976	81.486	86.625	230.235	224.347	85.616	90.554	90.856	95.839	175.238	94.684	-8191	255	
8544.838	1	1	0	0	0.0476	0.12586	0.073725	0.093976	0.18591	0.23341	0.21678	0.16018	0.14038	0.064754	0.15735	0.20358	0.3322	0.20461	0.082527	0.24793	-2.3187	-2.6479	-2.1688	-2.8542	-2.4271	-2.25	-2.8708	-2.5687	-2.575	-2.6729	-2.5438	-2.8396	-2.6479	-2.5042	-2.8583	-2.325	233.670	335.839	95.254	387.423	321.527	254.752	312.122	387.276	217.146	414.237	405.980	427.115	89.859	368.417	187.416	323.955	0.0010804	0.0008275	0.00014307	1307.1	8.5385e-06	3.5799e-06	1300.9	346.48	3.6313e-06	1.5987e-06	395.8	129.71	113.87	38.825	7.2221e-06	48.355	0.00050783	0.00049377	0.00013658	1327.5	5.3379e-06	5.356e-06	1323	353.34	5.3428e-06	5.3359e-06	404.58	132.58	115.96	39.962	5.1741e-06	49.827	95.813	228.121	195.238	81.903	220.832	201.604	81.758	86.744	209.178	234.926	85.693	90.325	91.016	95.631	182.005	94.661	-8191	255	
8544.910	1	1	0	0	0.36421	0.11971	0.38156	0.23728	0.12447	0.19023	0.1754	0.014405	0.11126	0.1983	0.086845	0.085133	0.28925	0.07777	0.21697	0.12452	-1.9292	-2.7146	-2.2396	-2.8667	-2.4667	-2.4813	-3.0458	-2.5104	-2.6458	-2.6583	-2.2812	-2.7438	-2.5396	-2.3667	-2.7542	-2.3667	405.832	373.482	332.313	390.849	78.525	107.843	340.345	207.407	380.920	352.353	196.866	72.814	373.193	98.633	303.359	352.522	0.0011021	0.00036928	0.00011296	1341.4	8.8035e-06	3.5601e-06	1331.1	352.94	3.3854e-06	5.523e-06	407.15	133.3	116.92	39.871	6.1824e-06	49.661	0.00049052	0.00047205	0.0001335	1357.9	5.1818e-06	5.1202e-06	1351.7	360.07	5.2469e-06	5.1786e-06	414.05	135.7	118.85	40.945	5.0503e-06	50.98	101.150	418.129	204.744	81.810	202.389	132.881	81.569	86.600	111.105	153.769	85.901	90.716	90.993	95.317	187.263	94.621	-8191	255	
8545.030	1	1	0	0	0.29136	0.032642	0.17217	0.42405	0.08801	0.048271	0.25052	0.36052	0.20247	0.27202	0.13452	0.13447	0.21832	0.10377	0.057833	0.22981	-2.1958	-2.8667	-2.3792	-2.8771	-2.6312	-2.4333	-2.9146	-2.6688	-2.6146	-2.7958	-2.4729	-2.6917	-2.4229	-2.3667	-2.6542	-2.6208	177.880	329.430	102.469	409.113	194.491	78.980	405.524	357.597	305.016	258.813	371.339	401.707	110.382	167.815	107.887	347.066	0.001014	0.00032897	0.00016915	1378.1	2.1073e-06	1.4923e-06	1379.6	368.38	4.2052e-06	4.7373e-06	417.84	137.39	119.15	40.431	8.0444e-06	50.319	0.00047479	0.00045044	0.00012585	1397.6	4.8878e-06	4.8694e-06	1395.4	374.73	4.8915e-06	4.9503e-06	426.34	139.96	121.51	41.648	5.03e-06	51.645	89.867	123.419	140.006	81.824	184.419	246.022	81.543	86.272	221.233	191.957	85.735	90.210	90.781	95.458	228.619	94.439	-8191	255	
8545.127	1	1	0	0	0.26129	0.10626	0.21919	0.30101	0.16338	0.13705	0.23454	0.11185	0.1424	0.11157	0.13383	0.15675	0.13157	0.20017	0.05933	0.44991	-1.8646	-2.6667	-2.2646	-2.7229	-2.7396	-2.3479	-2.7771	-2.7271	-2.3208	-2.8458	-2.4771	-2.8146	-2.8229	-2.3229	-2.4979	-2.7333	85.674	83.354	426.509	337.136	349.496	153.004	374.448	257.125	345.976	119.057	104.451	94.923	385.998	103.472	206.771	366.714	0.00089203	0.00027439	6.2186e-05	1395.4	2.7206e-06	4.9297e-06	1388.1	370.65	3.8887e-06	2.8038e-06	422.4	139.32	121.33	41.154	5.1088e-06	50.75	0.00047697	0.00045444	0.00012618	1415.4	4.998e-06	5.014e-06	1410	377.62	5.0416e-06	5.0255e-06	430.5	141.52	123.31	42.261	5.0563e-06	52.184	94.410	419.459	216.276	81.641	222.475	207.283	81.467	86.359	189.900	200.327	85.642	90.347	90.493	95.509	224.790	94.629	-8191	255	
8545.223	1	1	0	0	0.21855	0.15382	0.30574	0.077601	0.071095	0.16124	0.37577	0.091143	0.04671	0.17235	0.19461	0.19539	0.17268	0.48477	0.30059	0.308	-1.8604	-2.7	-2.4125	-2.8083	-2.7625	-2.225	-2.8271	-2.6021	-2.25	-2.8271	-2.5312	-2.4562	-2.7646	-2.4146	-2.5146	-2.6875	409.145	390.202	347.833	87.205	319.057	262.503	372.477	205.496	279.835	173.477	92.710	368.273	173.969	377.526	293.077	402.786	0.0010724	0.00018783	0.00020723	1417.8	3.6412e-06	1.6359e-06	1408.2	375.12	2.3309e-06	5.2602e-06	426.78	140.33	122.7	41.474	7.0311e-06	51.391	0.00047724	0.00045888	0.00012549	1437.7	5.0459e-06	4.9866e-06	1430.8	382.11	5.0824e-06	5.0389e-06	434.46	143.07	124.83	42.665	5.1627e-06	52.659	93.485	188.120	165.814	81.662	211.325	203.515	81.356	86.073	195.977	214.218	85.764	90.585	90.836	95.429	233.919	94.301	-8191	255	
8545.319	1	1	0	0	0.1299	0.027278	0.11207	0.37849	0.10904	0.074499	0.067876	0.36059	0.17076	0.022606	0.35867	0.4353	0.20631	0.11865	0.020994	0.078516	-1.7437	-2.7792	-2.3375	-2.6417	-2.7458	-2.3958	-2.9562	-2.75	-2.3333	-2.8	-2.6396	-2.5146	-2.925	-2.5146	-2.7271	-2.8542	94.378	327.232	94.412	349.214	148.863	191.154	224.019	85.125	112.933	146.796	372.722	382.505	87.570	334.936	118.897	122.314	0.00123	0.0005261	0.00010664	1425.2	3.5076e-06	6.3518e-06	1425	377.19	6.5506e-06	5.2934e-06	429.31	141.66	123.29	42.043	6.6821e-06	51.297	0.00048007	0.00046314	0.00012958	1448.8	5.0954e-06	5.0988e-06	1441.8	383.89	5.0862e-06	5.1213e-06	436.74	143.89	125.36	42.959	5.0856e-06	52.964	101.985	118.231	168.108	81.762	181.149	246.679	81.495	86.228	231.315	236.953	85.665	90.393	90.585	95.122	203.743	94.373	-8191	255	
8545.440	1	1	0	0	0.13517	0.19975	0.044495	0.16491	0.13681	0.076918	0.2204	0.073516	0.075947	0.09979	0.29281	0.34458	0.26324	0.091772	0.20906	0.043303	-1.8438	-2.7083	-2.4917	-2.775	-2.8396	-2.3125	-2.8104	-2.8125	-2.2375	-2.5938	-2.6063	-2.4104	-3.0312	-2.6312	-2.5729	-2.7812	126.274	223.980	158.511	370.996	393.106	295.257	346.462	265.992	211.106	206.542	419.131	387.588	393.186	159.785	257.336	106.067	0.0011119	0.00054758	0.00014752	1435.9	9.2401e-06	3.2796e-06	1430	379.16	6.9663e-06	5.7185e-06	432.7	142.09	124.17	41.837	4.5152e-06	51.884	0.00047674	0.00045984	0.00012777	1456.5	5.0309e-06	5.0014e-06	1449.5	385.01	5.072e-06	5.0147e-06	438.28	144.43	125.97	43.055	4.9587e-06	53.158	99.217	145.030	146.117	81.562	206.983	147.546	81.488	86.330	246.365	210.836	85.675	90.359	90.408	95.013	161.191	94.461	-8191	255	
8545.534	1	1	0	0	0.22241	0.1166	0.11003	0.23901	0.17194	0.17702	0.14961	0.18331	0.064407	0.099937	0.075183	0.061256	0.14626	0.10396	0.23095	0.13981	-1.7667	-2.6229	-2.4396	-2.5187	-2.7438	-2.3438	-2.6292	-2.9146	-2.2292	-2.5417	-2.6146	-2.4292	-2.8312	-2.675	-2.3458	-2.9667	267.169	419.560	330.096	363.815	87.981	322.932	289.206	191.247	160.786	249.758	388.055	400.254	383.953	409.632	316.358	316.414	0.0010721	0.00065542	6.3428e-05	1436.1	8.3321e-06	4.8277e-06	1437.3	378.02	6.3319e-06	3.5896e-06	432.05	142.59	124.52	42.403	3.1873e-06	52.369	0.00046639	0.00044962	0.00012649	1459.6	4.9552e-06	4.931e-06	1451.1	385.45	4.9326e-06	4.9728e-06	438.88	144.92	126.45	43.414	4.9059e-06	53.644	94.440	139.097	197.914	81.532	221.200	194.861	81.542	86.172	197.561	190.718	85.863	90.087	90.585	94.910	223.348	94.187	-8191	255	
8545.606	1	1	0	0	0.053338	0.19788	0.1428	0.18571	0.10052	0.19982	0.28881	0.23422	0.1265	0.17083	0.16157	0.18913	0.15466	0.45465	0.16467	0.24108	-1.8417	-2.7146	-2.5687	-2.4125	-2.7458	-2.375	-2.6271	-2.8375	-2.4271	-2.5542	-2.8063	-2.4146	-2.8688	-2.5958	-2.2958	-2.8854	368.191	119.999	113.336	402.762	253.157	335.999	422.319	375.852	149.867	224.701	353.836	271.242	407.430	415.161	202.235	415.321	0.0011097	0.00076172	6.2338e-05	1440	5.1139e-06	8.3006e-06	1437.4	381.42	6.5712e-06	3.6457e-06	435.7	143.84	126.25	42.885	5.8412e-06	53.123	0.00046174	0.00044175	0.00012206	1466.3	4.7445e-06	4.7305e-06	1459.9	388.67	4.7917e-06	4.7686e-06	442.36	146.79	128.27	44.027	4.7385e-06	54.378	93.579	169.597	117.146	81.725	265.061	190.525	81.413	86.252	232.324	242.419	85.837	90.133	90.602	94.962	223.919	94.208	-8191	255	
8545.703	1	1	0	0	0.39241	0.33513	0.19253	0.19748	0.15885	0.14898	0.24487	0.38861	0.14452	0.094969	0.067149	0.24251	0.28566	0.18702	0.23046	0.26566	-1.7812	-2.7479	-2.6937	-2.5375	-2.6813	-2.7812	-2.5812	-2.8354	-2.5042	-2.6083	-2.9042	-2.2854	-2.7833	-2.6813	-2.2771	-3.0042	272.305	378.635	116.807	72.279	199.370	349.300	375.627	400.746	75.307	222.942	216.984	352.472	395.244	384.104	200.006	398.382	0.001201	0.00043804	0.00012947	1453.7	5.1931e-06	4.2535e-06	1447	385.35	5.2572e-06	4.392e-06	437.01	144.09	126.2	42.827	2.1585e-06	52.588	0.00044765	0.00042517	0.00011792	1473.6	4.6534e-06	4.7163e-06	1465.5	390.89	4.7138e-06	4.7175e-06	442.97	146.75	127.98	43.899	4.6525e-06	53.976	91.899	157.246	167.952	81.580	237.203	182.947	81.398	86.204	245.947	206.851	85.526	89.817	90.661	95.049	220.900	94.373	-8191	255	
8545.822	1	1	0	0	0.02873	0.30084	0.053605	0.15575	0.052941	0.097934	0.11597	0.30717	0.10197	0.18414	0.26222	0.14337	0.15478	0.15071	0.21413	0.10863	-1.9583	-2.5958	-2.7896	-2.5625	-2.5229	-2.625	-2.525	-2.9854	-2.425	-2.4542	-2.95	-2.3417	-2.7729	-2.7042	-2.3021	-2.8917	315.740	304.324	259.354	375.602	373.028	265.019	83.111	393.615	219.296	326.723	228.695	83.669	375.498	353.922	355.667	265.869	0.0010993	0.00046954	0.00019584	1447.1	4.223e-06	5.0416e-06	1439.4	382.45	7.5439e-06	2.1041e-06	433.09	143.41	125.33	42.36	7.3788e-06	52.375	0.00045089	0.00043326	0.00012071	1470.7	4.7273e-06	4.7048e-06	1457.6	388.08	4.7437e-06	4.7296e-06	440.19	145.76	127.21	43.469	4.7204e-06	53.606	93.706	142.760	180.117	81.687	183.017	200.371	81.616	86.170	239.929	208.263	85.620	90.060	90.623	95.130	206.773	94.377	-8191	255	
8545.919	1	1	0	0	0.096688	0.16487	0.23408	0.23121	0.18373	0.12716	0.15218	0.20916	0.19724	0.12654	0.19479	0.22809	0.086727	0.22244	0.13522	0.14091	-2.1063	-2.3167	-2.5854	-2.5875	-2.6604	-2.6875	-2.3	-2.8125	-2.5479	-2.4292	-2.7521	-2.4458	-2.6396	-2.7917	-2.1896	-2.9521	358.910	291.449	243.918	407.211	289.338	313.461	425.040	376.532	209.268	288.148	382.213	135.686	89.928	370.958	251.168	358.338	0.0012515	0.0003068	0.00012728	1450	5.0967e-06	4.0793e-06	1440.8	380.08	4.2347e-06	5.4017e-06	433.83	143.5	124.8	42.302	3.0422e-06	52.015	0.00045389	0.00043585	0.00011875	1467.2	4.7806e-06	4.6912e-06	1456.3	387.22	4.7513e-06	4.7346e-06	439.87	145.24	126.54	43.228	4.7246e-06	53.144	93.188	203.689	215.563	81.620	201.177	210.713	81.468	86.028	224.665	215.511	85.681	90.216	90.563	95.198	223.935	94.489	-8191	255	
8546.015	1	1	0	0	0.25346	0.22566	0.064244	0.26107	0.08081	0.20726	0.23698	0.081434	0.1941	0.036452	0.17425	0.29173	0.17083	0.20582	0.26769	0.20179	-2.1188	-2.3083	-2.7188	-2.4479	-2.4208	-2.8021	-2.5042	-2.8	-2.4062	-2.3187	-2.9417	-2.5917	-2.6604	-2.7333	-2.1146	-2.9479	311.312	103.970	129.918	405.072	69.314	78.387	352.949	190.967	232.672	238.206	269.012	121.831	365.431	403.946	350.148	407.677	0.0011072	0.00030799	0.0001518	1438.9	8.0481e-06	2.5828e-06	1434	378.97	5.2216e-06	1.8952e-06	431.5	141.66	123.33	41.744	6.4429e-06	51.395	0.00044973	0.00043734	0.00012093	1461.1	4.8078e-06	4.6937e-06	1449.8	384.85	4.8005e-06	4.8111e-06	436.83	143.91	125.39	42.764	4.7741e-06	52.791	97.711	171.332	214.837	81.607	216.800	143.652	81.409	86.324	189.614	194.114	85.804	90.500	90.753	95.376	211.905	94.346	-8191	255	
8546.111	1	1	0	0	0.17124	0.21695	0.14206	0.16156	0.23109	0.29063	0.30621	0.023649	0.02667	0.1989	0.18317	0.24273	0.21069	0.096931	0.19576	0.22301	-2.1063	-2.2021	-2.4646	-2.6875	-2.3979	-2.7292	-2.5729	-2.8104	-2.6063	-2.35	-2.7562	-2.6271	-2.525	-2.7104	-2.2896	-2.5625	352.553	111.037	266.124	335.694	417.596	155.913	354.167	303.164	404.830	189.165	349.109	420.838	400.237	156.142	166.157	367.668	0.0010339	0.00033014	7.0712e-05	1435	7.0011e-06	2.8062e-06	1426.1	376.67	7.5725e-06	7.8137e-06	427.22	140.66	122.25	41.436	3.7155e-06	51.361	0.00045642	0.0004354	0.00012325	1454.5	4.831e-06	4.7952e-06	1442.4	382.58	4.8284e-06	4.8506e-06	434.11	143.01	124.58	42.551	4.7859e-06	52.572	92.863	147.037	92.621	81.389	208.429	306.644	81.513	86.283	238.728	201.512	85.748	90.332	90.569	95.174	183.859	94.589	-8191	255	
8546.207	1	1	0	0	0.33266	0.047231	0.22349	0.28256	0.20396	0.19712	0.17656	0.34837	0.020718	0.080076	0.50379	0.28118	0.28051	0.16156	0.10609	0.039878	-2.1146	-2.2521	-2.6521	-2.6333	-2.3833	-2.8292	-2.5417	-2.7083	-2.675	-2.2812	-2.7083	-2.6667	-2.5083	-2.8146	-2.3708	-2.6417	402.899	77.914	229.534	335.599	189.927	103.335	343.379	398.347	143.572	420.025	353.881	371.857	72.057	374.314	98.729	196.103	0.001031	0.00022242	0.00011729	1431.3	3.6974e-06	8.3375e-06	1421.8	376.76	6.2348e-06	6.1247e-06	427.42	140.35	121.85	41.542	5.8751e-06	51.36	0.00045969	0.00043445	0.00012145	1450.8	4.7986e-06	4.832e-06	1438.3	382.23	4.8551e-06	4.8854e-06	434.59	142.93	124.46	42.611	4.819e-06	52.666	92.201	122.968	176.687	81.695	199.543	176.475	81.441	86.418	234.190	189.553	85.735	90.248	90.802	95.261	205.604	94.543	-8191	255	
8546.303	1	1	0	0	0.053287	0.074372	0.045962	0.28671	0.091344	0.13071	0.25014	0.35894	0.10788	0.10476	0.15265	0.36949	0.42904	0.3859	0.20951	0.090211	-2.3	-2.2958	-2.575	-2.7979	-2.3333	-2.8917	-2.7188	-2.7313	-2.6917	-2.3542	-2.8479	-2.8	-2.4042	-2.9229	-2.3729	-2.4833	403.744	305.583	275.757	392.931	225.560	169.857	91.933	368.837	389.546	253.748	366.879	76.837	398.203	416.164	372.396	385.403	0.00096612	0.00029094	0.00013203	1441.9	1.2726e-06	2.3205e-06	1425	375.92	3.3619e-06	2.3546e-06	428.51	141.42	123.1	41.556	6.3007e-06	51.03	0.00046101	0.00043856	0.00012146	1455.3	4.8201e-06	4.7931e-06	1443.9	382.98	4.8233e-06	4.7894e-06	434.97	143.34	124.95	42.688	4.8209e-06	52.637	97.281	200.592	167.789	81.632	264.988	180.711	81.310	86.333	174.983	179.303	85.696	90.203	90.790	95.175	207.713	94.400	-8191	255	
8546.424	1	1	0	0	0.054699	0.13885	0.2151	0.47021	0.091321	0.029955	0.29121	0.17926	0.10142	0.069215	0.28169	0.24189	0.25738	0.22808	0.18937	0.04363	-2.3083	-2.3208	-2.5125	-2.8458	-2.1063	-2.7354	-2.6646	-2.6208	-2.6417	-2.4625	-2.7021	-2.5521	-2.3875	-2.6312	-2.4417	-2.5479	319.564	229.700	315.601	386.316	332.259	137.206	420.105	398.310	261.388	107.550	80.015	327.016	375.928	402.452	71.955	124.693	0.0010345	0.00087429	9.8504e-05	1431.7	6.1296e-06	6.783e-06	1418.5	377.51	7.499e-06	7.7831e-06	426.99	141.06	122.79	41.702	8.3685e-06	51.365	0.00045544	0.00043802	0.00012276	1453	4.7531e-06	4.755e-06	1441.6	382.34	4.8243e-06	4.8098e-06	434.31	143.22	124.65	42.657	4.8262e-06	52.635	100.552	135.562	150.049	81.764	204.971	197.001	81.436	86.349	206.499	215.561	85.534	90.263	90.708	95.051	211.997	94.266	-8191	255	
8546.520	1	1	0	0	0.10237	0.22548	0.19628	0.41219	0.17092	0.18995	0.42465	0.15973	0.037187	0.18606	0.17093	0.26222	0.19825	0.14518	0.34325	0.10468	-2.3458	-2.3	-2.6	-2.9167	-2.3271	-2.8021	-2.8396	-2.4521	-2.7292	-2.3958	-2.8187	-2.6646	-2.3271	-2.7812	-2.6354	-2.3458	207.874	413.656	211.209	410.366	306.204	192.921	319.224	424.414	128.526	236.776	386.252	390.605	415.157	107.391	205.361	338.961	0.0010869	0.00037207	6.7564e-05	1431.3	5.61e-06	8.5917e-06	1425.8	377.24	5.8755e-06	3.4814e-06	427.68	140.55	122.81	41.529	4.8936e-06	51.219	0.00044977	0.00043888	0.00012273	1453.5	4.7784e-06	4.841e-06	1443.5	383.29	4.8252e-06	4.8551e-06	434.54	143.12	124.89	42.622	4.8151e-06	52.607	96.371	175.215	95.609	81.721	189.422	209.206	81.626	86.275	256.343	217.858	85.710	90.090	90.756	95.389	212.039	94.269	-8191	255	
8546.614	1	1	0	0	0.28822	0.25603	0.15948	0.30342	0.1451	0.097834	0.15533	0.2484	0.12573	0.033112	0.13534	0.33684	0.21959	0.25172	0.2498	0.22485	-2.3833	-2.5042	-2.5354	-3.0312	-2.3979	-2.6229	-2.8187	-2.3354	-2.8063	-2.5854	-2.5854	-2.8646	-2.5312	-2.7021	-2.6312	-2.4458	269.977	417.067	323.013	393.973	78.701	219.581	76.631	407.066	286.707	88.613	373.410	399.312	213.793	93.995	369.049	386.787	0.0010418	0.00062162	7.6402e-05	1431.8	6.0162e-06	4.4882e-06	1420.6	376.44	8.6564e-06	8.6502e-07	427.55	141.03	122.54	41.57	2.3748e-06	51.593	0.0004575	0.00043812	0.00012296	1453.2	4.7504e-06	4.8116e-06	1443.1	382.57	4.8076e-06	4.841e-06	434.55	142.92	124.69	42.653	4.8275e-06	52.62	98.485	84.447	173.801	81.664	199.849	157.784	81.436	86.374	179.781	208.963	85.769	90.229	90.816	95.316	171.578	94.409	-8191	255	
8546.710	1	1	0	0	0.25821	0.18671	0.12896	0.4247	0.084688	0.35707	0.165	0.16981	0.028808	0.13656	0.35525	0.057161	0.11087	0.28283	0.1235	0.056098	-2.0917	-2.3875	-2.5229	-2.9104	-2.2438	-2.6521	-2.7729	-2.4688	-2.7667	-2.5708	-2.5438	-3.0083	-2.3625	-2.6937	-2.7021	-2.5187	245.484	177.500	113.090	362.215	410.311	317.165	427.018	321.710	402.907	198.291	347.829	251.541	292.732	334.656	369.637	327.890	0.0011814	0.0004574	0.00016319	1434.7	6.3225e-06	5.718e-06	1429	375.83	8.0534e-06	5.3934e-06	426.58	140.74	122.65	41.48	2.3849e-06	50.987	0.00045541	0.00043789	0.00012241	1453.5	4.8266e-06	4.818e-06	1444.8	382.43	4.8142e-06	4.8237e-06	433.94	142.91	124.65	42.515	4.8321e-06	52.454	95.583	136.540	185.692	81.637	211.203	239.693	81.596	86.194	182.639	159.244	85.751	90.492	90.751	95.425	195.243	94.301	-8191	255	
8546.831	1	1	0	0	0.093825	0.043945	0.017556	0.22636	0.12724	0.16134	0.19904	0.087169	0.083607	0.32392	0.26865	0.33045	0.20886	0.44314	0.058478	0.078194	-2.1229	-2.55	-2.4396	-2.9708	-2.3417	-2.4521	-3.1167	-2.3833	-2.4521	-2.6125	-2.5208	-2.9354	-2.5812	-2.5375	-2.6271	-2.3333	109.215	313.650	338.262	378.239	98.499	393.795	87.231	140.023	107.174	149.245	69.680	396.611	418.454	418.269	245.936	214.060	0.0010148	0.00070202	0.00010009	1439.3	5.2535e-06	5.6138e-06	1424.9	375.26	2.8326e-06	7.4347e-07	428.34	140.06	122.35	41.26	4.2829e-06	50.75	0.00046081	0.00044347	0.0001245	1454.4	4.9105e-06	4.8572e-06	1441.7	381.19	4.8707e-06	4.9562e-06	433.8	142.24	124.15	42.311	4.9485e-06	52.246	95.874	154.240	272.877	81.568	228.238	174.602	81.404	86.442	166.491	167.171	85.777	90.495	90.899	95.093	175.710	94.109	-8191	255	
8546.903	1	1	0	0	0.087406	0.12687	0.03729	0.42439	0.28746	0.12614	0.55736	0.13903	0.14373	0.21941	0.38552	0.22735	0.099227	0.053503	0.20219	0.038539	-2.0479	-2.6021	-2.3187	-2.8292	-2.5	-2.6	-2.9	-2.5812	-2.5667	-2.6792	-2.5667	-2.7896	-2.7521	-2.4396	-2.75	-2.4375	214.957	272.458	141.497	396.193	202.627	181.366	393.576	386.741	301.136	114.192	360.751	337.628	294.730	275.078	357.252	101.579	0.0010135	0.00040065	0.00012214	1434	4.7741e-06	5.2258e-06	1420.5	374.66	6.7325e-06	6.1773e-06	424.97	139.81	121.64	40.885	5.4997e-06	50.793	0.00046252	0.00044791	0.00012435	1451.1	4.9555e-06	4.9461e-06	1439.6	380.75	4.9682e-06	4.9451e-06	432.25	141.72	123.6	42.069	4.9442e-06	52.127	94.300	155.987	131.923	81.842	220.528	264.716	81.416	86.168	224.027	182.161	85.848	90.324	90.757	95.366	172.989	94.357	-8191	255	
8546.999	1	1	0	0	0.079749	0.024958	0.31414	0.22355	0.13907	0.13448	0.3568	0.2521	0.091658	0.33749	0.14954	0.30971	0.074447	0.32856	0.28854	0.21235	-2.2229	-2.6396	-2.1396	-2.8542	-2.7042	-2.525	-2.925	-2.4833	-2.5812	-2.8063	-2.5021	-2.9479	-2.5208	-2.4625	-2.9125	-2.3167	298.958	412.469	347.124	423.250	330.934	232.014	368.550	326.186	427.480	375.667	344.152	361.194	405.903	384.629	105.410	396.857	0.00091259	0.0003056	0.00012905	1430.8	4.4882e-06	6.3609e-06	1419.7	374.68	4.3646e-06	5.273e-06	423.11	139.44	121.08	41.034	4.0455e-06	50.873	0.00046298	0.00045162	0.00012585	1451.2	4.9618e-06	4.9038e-06	1437.4	379.77	4.959e-06	4.9357e-06	430.95	141.68	123.34	42.125	4.8952e-06	52.156	93.180	176.712	159.936	81.583	216.680	237.201	81.520	86.465	250.718	160.680	85.690	90.221	90.825	95.225	221.467	94.408	-8191	255	
8547.120	1	1	0	0	0.14588	0.36367	0.14612	0.1869	0.086312	0.042486	0.26077	0.38943	0.15799	0.08829	0.20103	0.15534	0.15883	0.0436	0.20744	0.49007	-2.0667	-2.5479	-2.2208	-2.8667	-2.5812	-2.3021	-3.0271	-2.5354	-2.5958	-2.7458	-2.4729	-2.6646	-2.7771	-2.6625	-2.9167	-2.6937	204.853	107.858	229.053	415.749	84.276	164.805	377.715	338.002	199.121	302.046	390.072	378.111	390.380	203.782	286.129	426.519	0.0010926	0.00062806	0.00013269	1427.2	2.7708e-06	5.4691e-06	1417.7	373.76	8.26e-06	4.2763e-06	424.34	138.88	121.2	41.113	4.6768e-06	50.892	0.00046662	0.00044663	0.00012421	1449.8	4.9478e-06	4.9227e-06	1436.3	379.7	4.9788e-06	4.8814e-06	431.46	141.42	123.39	42.159	4.9087e-06	52.135	96.518	139.005	203.900	81.729	216.327	201.425	81.498	86.137	220.002	199.637	85.693	90.292	90.566	95.501	207.780	94.583	-8191	255	
8547.216	1	1	0	0	0.14238	0.33717	0.096545	0.43891	0.039423	0.23139	0.17288	0.18545	0.16165	0.25436	0.30146	0.2082	0.033184	0.0070283	0.102	0.26017	-1.9188	-2.8708	-2.4146	-2.8396	-2.7771	-2.4333	-3.025	-2.5812	-2.2104	-2.9146	-2.3479	-2.5875	-2.8083	-2.3729	-2.8625	-2.5938	318.581	384.031	328.366	368.196	418.488	243.432	337.829	384.756	381.862	355.129	76.079	93.788	312.716	193.202	199.162	78.057	0.0010475	0.00042028	0.00018493	1427.5	4.6759e-06	3.599e-06	1416.4	373.43	5.8232e-06	2.514e-06	421.93	139.18	121.2	40.819	5.1353e-06	50.433	0.00046488	0.00044373	0.00012477	1449.1	4.9073e-06	4.8393e-06	1435.6	379.43	4.9323e-06	4.8663e-06	430.09	141.15	123.29	41.958	4.9521e-06	51.925	97.627	105.530	172.858	81.503	207.527	184.552	81.417	86.157	241.160	132.214	85.610	90.305	90.797	95.394	177.920	94.423	-8191	255	
8547.312	1	1	0	0	0.20337	0.079425	0.12003	0.11287	0.10534	0.17315	0.13534	0.32654	0.060448	0.16579	0.21098	0.33051	0.20699	0.25665	0.25215	0.14024	-1.9917	-2.7687	-2.4104	-2.7354	-2.6458	-2.1417	-2.8104	-2.6583	-2.3271	-2.7667	-2.3521	-2.625	-2.7354	-2.4958	-2.775	-2.8563	309.757	301.320	207.097	379.011	140.449	421.679	296.436	374.594	184.802	427.770	305.696	389.055	416.135	71.407	107.619	420.390	0.0010663	0.00056204	0.0001847	1422	5.7493e-06	4.6686e-06	1410.5	371.43	5.843e-06	7.2987e-06	423.35	138.83	121.16	40.722	3.889e-06	50.486	0.00046905	0.00044739	0.00012577	1443.3	4.9524e-06	4.8885e-06	1432.6	377.97	4.9772e-06	4.9273e-06	430.66	140.97	122.96	41.881	4.9108e-06	51.865	95.189	126.881	137.419	81.763	189.319	243.603	81.529	86.477	263.993	226.186	85.588	90.405	91.012	95.247	224.737	94.478	-8191	255	
8547.406	1	1	0	0	0.091255	0.17163	0.17509	0.20233	0.15922	0.26242	0.31245	0.15723	0.11228	0.086289	0.12029	0.23853	0.1137	0.19506	0.057863	0.069184	-1.9542	-2.7208	-2.3063	-2.9208	-2.8063	-2.3854	-2.8458	-2.8708	-2.3167	-2.7958	-2.7438	-2.5792	-2.8042	-2.6146	-2.5021	-2.8438	69.699	366.366	128.267	120.296	123.761	341.588	309.275	374.095	293.617	161.308	351.036	92.016	96.233	363.442	376.253	370.151	0.0010853	0.00054064	0.00016179	1419.1	5.154e-06	3.1375e-06	1415.7	372.65	2.4319e-06	7.0693e-06	425.13	138.82	121.09	40.653	6.6573e-06	50.688	0.00046498	0.00045145	0.0001247	1441	4.8825e-06	4.8397e-06	1430.3	378.18	4.9528e-06	4.8981e-06	431.03	141.04	123	41.909	4.9589e-06	51.968	99.122	117.576	200.607	81.652	199.553	220.627	81.539	86.241	176.554	210.363	85.930	90.254	90.748	95.556	228.244	94.605	-8191	255	
8547.504	1	1	0	0	0.29502	0.20451	0.12264	0.11539	0.12405	0.029498	0.35255	0.20473	0.02075	0.069812	0.26522	0.59856	0.18279	0.11487	0.18072	0.21602	-1.7771	-2.5875	-2.5062	-2.6021	-2.7729	-2.2396	-2.7958	-2.8542	-2.3312	-2.7667	-2.7667	-2.5229	-2.8292	-2.6167	-2.4729	-2.7854	85.688	409.839	165.802	336.431	345.021	79.730	385.851	269.107	141.122	376.402	417.650	369.440	359.897	153.580	252.225	426.326	0.0010658	0.0008081	9.7208e-05	1417.7	5.6639e-06	2.4625e-06	1419.6	372.89	4.713e-06	3.5551e-06	421.95	139.18	120.1	40.689	7.5917e-06	50.266	0.00046104	0.00045018	0.00012512	1440.7	4.9135e-06	4.9282e-06	1432.7	378.94	4.9175e-06	4.9353e-06	429.7	141.15	122.72	41.849	5.0233e-06	51.808	94.742	142.127	224.872	81.599	226.681	275.086	81.721	86.275	220.780	240.941	85.709	90.278	90.667	95.194	207.288	94.478	-8191	255	
8547.599	1	1	0	0	0.018301	0.069921	0.043511	0.31803	0.039933	0.29605	0.24768	0.24397	0.15481	0.11662	0.27763	0.048609	0.34021	0.14882	0.056464	0.038087	-1.8208	-2.6375	-2.3312	-2.6354	-2.825	-2.2458	-2.6833	-2.6729	-2.3125	-2.6229	-2.8438	-2.5542	-2.7396	-2.4625	-2.6167	-2.9167	309.405	295.762	85.911	70.790	320.730	83.148	374.582	105.508	338.998	407.930	257.178	267.015	337.841	346.004	129.045	182.778	0.00093476	0.00055412	0.00021473	1421.8	5.2334e-06	4.6101e-06	1411.4	370.44	8.6973e-06	2.9594e-06	422.6	138.28	120.98	40.752	3.3474e-06	50.22	0.00046665	0.00045299	0.00012601	1442.9	4.9511e-06	4.9082e-06	1430.6	377.54	4.9704e-06	4.9866e-06	430.27	140.79	123.08	41.859	5.0525e-06	51.851	96.079	173.440	159.164	81.767	188.489	197.792	81.378	86.303	225.808	284.331	85.354	90.384	90.676	95.388	201.977	94.366	-8191	255	
8547.695	1	1	0	0	0.096741	0.13473	0.15451	0.22759	0.15396	0.21418	0.23566	0.18682	0.10378	0.21109	0.21828	0.34322	0.30387	0.20136	0.25515	0.094993	-1.8667	-2.7167	-2.7125	-2.3333	-2.5229	-2.5625	-2.8063	-2.8812	-2.4437	-2.8271	-2.8292	-2.4104	-2.6833	-2.5771	-2.3312	-2.9667	320.594	411.821	240.996	378.652	267.370	335.555	314.587	379.047	301.089	238.013	403.802	372.703	407.221	371.695	192.271	337.036	0.0010039	0.00050211	9.2726e-05	1427.3	1.7102e-06	7.0439e-06	1414.3	373.08	6.9856e-06	9.2698e-06	420.94	138.36	121.11	40.849	5.0463e-06	50.516	0.00047118	0.00045493	0.00012642	1444.7	4.9684e-06	5.0054e-06	1431.3	378.4	4.9975e-06	4.9935e-06	429.53	140.77	122.93	41.898	5.0081e-06	51.928	98.794	153.854	159.493	81.708	159.054	228.155	81.486	86.257	225.975	197.952	85.570	90.089	90.455	95.252	202.075	94.587	-8191	255	
8547.791	1	1	0	0	0.11638	0.32537	0.037185	0.38976	0.082298	0.084304	0.32439	0.13679	0.23798	0.075433	0.031128	0.50249	0.09158	0.32975	0.071537	0.25903	-1.8	-2.5167	-2.8375	-2.6146	-2.7313	-2.5833	-2.4146	-2.9479	-2.3833	-2.5062	-2.8271	-2.4271	-3.0354	-2.3646	-2.4125	-3.0792	350.478	78.077	272.546	365.636	253.381	321.766	370.945	419.129	232.880	333.988	405.891	388.805	252.733	385.466	405.571	367.073	0.0010151	0.00062815	7.8079e-05	1418.2	5.2874e-06	2.4813e-06	1416.5	373.01	9.3041e-06	9.069e-06	424.17	138.26	120.71	40.927	4.115e-06	50.268	0.00046813	0.0004485	0.00012531	1442.1	4.9229e-06	4.9626e-06	1432.7	378.47	4.9433e-06	5.1006e-06	430.85	140.68	123.02	41.945	4.9959e-06	51.783	97.742	157.864	171.864	81.626	252.007	280.650	81.342	86.154	220.176	202.584	85.696	90.315	90.561	95.188	207.487	94.470	-8191	255	
8547.911	1	1	0	0	0.23312	0.29052	0.16017	0.34642	0.20947	0.20221	0.41572	0.15907	0.064466	0.16918	0.34911	0.15757	0.040869	0.11551	0.052794	0.3836	-2.1083	-2.3667	-2.9396	-2.4979	-2.5167	-2.7	-2.5958	-2.9958	-2.3875	-2.5563	-2.8208	-2.5292	-2.8021	-2.7062	-2.4521	-2.8937	179.686	359.527	367.585	414.669	234.109	68.579	350.634	347.799	176.787	87.052	103.183	86.424	220.989	76.169	209.848	325.375	0.0010009	0.00030532	0.00014822	1419.4	6.089e-06	4.0098e-06	1406	371.66	2.6937e-06	2.3881e-06	421.59	137.84	120.28	40.741	4.466e-06	50.386	0.00047003	0.00046005	0.0001261	1441.8	5.0209e-06	4.9844e-06	1429.9	377.67	5.0277e-06	5.0866e-06	428.64	140.38	122.53	41.764	5.0743e-06	51.719	92.608	217.618	157.186	81.673	225.083	203.294	81.637	86.143	200.092	150.775	85.800	90.321	90.749	95.479	236.288	94.752	-8191	255	
8548.008	1	1	0	0	0.15426	0.10336	0.19715	0.1682	0.14318	0.15423	0.39258	0.26481	0.086588	0.092527	0.14895	0.070483	0.1327	0.33251	0.17547	0.015094	-1.8292	-2.1604	-2.7833	-2.6063	-2.4979	-2.6125	-2.6771	-2.6625	-2.5729	-2.3146	-2.8854	-2.6937	-2.5938	-2.7188	-2.1167	-2.7917	420.729	74.329	374.898	352.461	363.748	180.381	389.419	331.049	354.484	71.745	426.273	173.834	95.490	89.086	298.943	313.021	0.0010821	0.00083372	0.00014296	1419.5	5.061e-06	3.7949e-06	1414.5	372.17	6.4281e-06	3.7883e-06	422.39	137.58	120.81	40.764	5.4236e-06	50.048	0.00047643	0.00045977	0.00012724	1442.2	5.066e-06	4.967e-06	1432.1	377.58	5.0506e-06	5.036e-06	429.14	140.47	122.66	41.82	5.08e-06	51.658	92.810	168.574	190.117	81.829	200.817	216.327	81.559	86.203	225.537	244.531	85.613	90.296	90.557	95.217	197.913	94.276	-8191	255	
8548.104	1	1	0	0	0.23029	0.19535	0.058202	0.19227	0.25414	0.019454	0.14249	0.14094	0.27757	0.10742	0.33359	0.11037	0.061618	0.17258	0.14861	0.24849	-2.1104	-2.4042	-2.825	-2.3875	-2.6854	-2.8125	-2.6833	-2.9521	-2.6104	-2.1729	-2.9042	-2.3667	-2.7062	-2.7646	-2.3854	-2.8708	261.524	268.852	102.506	404.756	84.004	216.791	316.321	286.686	353.710	206.965	374.882	339.255	401.237	391.216	229.924	377.988	0.0011295	0.00043843	5.8458e-05	1425.1	4.2609e-06	3.4482e-06	1410.5	371.45	4.6581e-06	3.7895e-06	419.83	137.63	120.59	40.615	3.3298e-06	50.294	0.00047622	0.00046188	0.00012818	1442.2	5.0268e-06	5.0362e-06	1428.6	377.49	5.0188e-06	5.086e-06	428.37	140.3	122.56	41.705	5.04e-06	51.63	90.604	201.533	144.530	81.736	218.553	192.218	81.520	86.445	232.119	216.656	85.572	90.526	91.006	95.380	223.751	94.560	-8191	255	
8548.200	1	1	0	0	0.25985	0.10163	0.12233	0.073311	0.17189	0.1217	0.25273	0.14961	0.1886	0.2231	0.17916	0.33575	0.13515	0.31785	0.41042	0.23086	-2.0583	-2.4104	-2.5854	-2.65	-2.5438	-2.8875	-2.6104	-2.9104	-2.6312	-2.3833	-2.7667	-2.475	-2.5833	-2.9188	-2.2792	-2.6979	292.759	158.034	418.017	201.788	292.598	264.230	372.745	74.625	370.181	191.664	190.731	81.420	272.865	375.540	110.406	382.426	0.00099592	0.00035176	0.00016955	1418.9	2.5339e-06	5.9081e-06	1410.8	372.31	3.3555e-06	4.9165e-06	421.37	138.01	119.82	40.569	9.5732e-06	50.301	0.00047024	0.00046045	0.00012744	1441.4	5.075e-06	4.9982e-06	1430	377.48	5.0514e-06	5.0081e-06	428.76	140.28	122.21	41.665	5.0305e-06	51.7	103.820	124.319	179.615	81.681	178.240	201.053	81.454	86.433	188.261	203.810	85.752	90.551	90.775	95.387	204.739	94.411	-8191	255	
8548.296	1	1	0	0	0.19919	0.043515	0.1286	0.33923	0.083153	0.20169	0.3493	0.18172	0.23745	0.1265	0.077042	0.28971	0.033712	0.159	0.070536	0.3417	-2.2958	-2.4125	-2.8021	-2.7313	-2.4396	-2.8688	-2.5896	-2.4167	-2.6542	-2.2771	-2.7083	-2.6104	-2.3896	-3.0104	-2.2812	-2.6646	177.816	99.277	146.871	405.232	249.433	147.889	366.090	366.273	356.654	280.255	257.387	388.666	230.064	413.650	425.372	336.916	0.0010936	0.00048707	0.00011602	1422	2.9152e-06	2.7666e-06	1410.9	370.45	1.7859e-06	3.783e-06	422.6	137.89	120.04	40.474	5.144e-06	50.186	0.00047601	0.00045996	0.00012811	1440.1	5.0052e-06	5.0572e-06	1429	377.01	4.9871e-06	5.0441e-06	429.73	139.91	122.26	41.613	5.0298e-06	51.59	93.550	98.869	198.092	81.512	206.631	174.282	81.541	86.315	203.612	177.364	85.436	90.478	90.683	95.437	198.192	94.586	-8191	255	
8548.392	1	1	0	0	0.24881	0.082539	0.16411	0.20878	0.019968	0.18071	0.47827	0.14818	0.14899	0.267	0.12576	0.051675	0.13098	0.31555	0.23313	0.18431	-2.1021	-2.2708	-2.6437	-2.9562	-2.2188	-2.9	-2.6729	-2.7083	-2.7708	-2.4125	-2.6708	-2.6458	-2.3312	-2.7854	-2.5	-2.6813	166.398	74.911	180.142	408.805	426.353	279.355	356.085	425.983	119.286	72.253	255.373	163.607	281.838	90.534	268.704	357.198	0.0010434	0.00077233	7.6926e-05	1415.7	4.7963e-06	2.8664e-06	1408	370.31	9.5734e-06	4.2439e-06	421.71	137.97	120.51	40.624	6.6457e-06	50.187	0.00047656	0.00045524	0.00012899	1437.7	4.986e-06	4.9763e-06	1427.7	377.03	5.0071e-06	5.0062e-06	428.38	140.17	122.34	41.636	5.0864e-06	51.62	97.385	121.033	120.318	81.582	203.531	147.046	81.620	86.172	205.133	223.536	85.675	90.290	90.799	95.338	187.463	94.386	-8191	255	
8548.511	1	1	0	0	0.2752	0.18947	0.090627	0.25214	0.27849	0.23155	0.29539	0.11528	0.2116	0.23928	0.22834	0.018634	0.30868	0.25476	0.10621	0.16709	-2.2771	-2.2104	-2.5583	-2.6979	-2.4313	-2.8354	-2.7417	-2.55	-2.7083	-2.5521	-2.6896	-2.7687	-2.5438	-2.8812	-2.5604	-2.6063	84.218	302.410	313.726	357.604	141.895	387.334	369.972	326.114	383.627	133.625	271.158	335.155	85.213	93.967	164.187	207.099	0.0010556	0.00072217	0.00012861	1423.3	2.6434e-06	4.7026e-06	1406.9	371.81	3.8869e-06	3.842e-06	419.54	137.84	120.21	40.605	5.7918e-06	50.028	0.00048232	0.00046553	0.00013064	1441.4	5.0597e-06	5.0534e-06	1429.8	377.25	5.0699e-06	5.0514e-06	428.59	140.18	122.3	41.638	5.0466e-06	51.608	94.111	151.767	138.469	81.562	243.645	168.540	81.403	86.332	208.507	229.063	85.775	90.474	90.831	95.338	220.086	94.620	-8191	255	
8548.607	1	1	0	0	0.26802	0.21326	0.074979	0.43522	0.11744	0.10243	0.46742	0.029366	0.093978	0.11249	0.1534	0.040151	0.18942	0.22861	0.11534	0.15005	-2.3792	-2.3146	-2.6813	-3.0187	-2.2604	-2.7313	-2.7146	-2.4604	-2.7854	-2.4208	-2.575	-2.8729	-2.4521	-2.7188	-2.5104	-2.3708	254.179	70.165	244.664	416.214	380.971	384.692	342.701	88.756	161.625	89.768	349.110	386.229	399.437	113.362	231.958	360.743	0.0010458	0.00058796	0.0001336	1420.2	4.0338e-06	4.3143e-06	1407.4	370.03	1.1921e-06	5.5624e-06	421.65	137.36	119.86	40.648	7.4239e-06	50.02	0.00047536	0.00046275	0.00012823	1439.6	5.0059e-06	5.1127e-06	1427.6	376.49	5.0454e-06	5.1517e-06	429.16	139.89	122.26	41.66	5.0329e-06	51.556	94.410	111.915	144.755	81.737	237.660	149.032	81.287	86.277	172.633	161.387	85.753	90.316	90.842	95.344	192.505	94.473	-8191	255	
8548.703	1	1	0	0	0.12857	0.16166	0.13334	0.3875	0.069193	0.19898	0.24502	0.20311	0.11554	0.044517	0.16466	0.2084	0.14585	0.14317	0.21926	0.24703	-2.2875	-2.3688	-2.4583	-3.0187	-2.3896	-2.5812	-2.8458	-2.5271	-2.7375	-2.4521	-2.5854	-2.925	-2.375	-2.7583	-2.6521	-2.5354	206.087	393.215	380.932	362.970	133.937	265.719	385.845	89.166	230.875	120.061	328.646	118.010	333.872	398.404	236.366	337.862	0.00090129	0.00065261	8.372e-05	1416	4.6241e-06	3.4998e-06	1413.3	370.47	6.8917e-06	5.4833e-06	420.46	137.42	120.34	40.532	5.8138e-06	50.106	0.00047848	0.00045792	0.00012909	1440.1	5.0951e-06	5.0535e-06	1429.3	377.16	5.0507e-06	5.0663e-06	428.67	139.88	122.17	41.637	5.0478e-06	51.625	100.173	68.530	224.951	81.454	155.519	229.443	81.613	86.313	206.548	281.351	85.758	90.163	90.818	95.375	202.166	94.401	-8191	255	
8548.775	1	1	0	0	0.17241	0.25203	0.28008	0.29582	0.10502	0.09833	0.2954	0.17553	0.15609	0.1996	0.065118	0.23771	0.25945	0.075614	0.23261	0.15434	-2.3167	-2.525	-2.2438	-3.0979	-2.2292	-2.8	-2.8563	-2.4813	-2.7979	-2.5687	-2.5	-3.0333	-2.3396	-2.6729	-2.6833	-2.4021	85.457	203.673	359.963	347.619	271.399	75.502	395.753	347.987	109.839	272.087	362.888	393.429	108.923	223.238	352.842	405.043	0.00097549	0.00073541	3.8539e-05	1412.6	4.4693e-06	4.8057e-06	1408.7	370.9	5.188e-06	4.0519e-06	423.41	137.67	120.72	40.521	2.757e-06	50.276	0.00047574	0.00045994	0.00012859	1439.1	5.0739e-06	4.9824e-06	1428.7	377.39	5.0631e-06	5.1042e-06	429.35	140.42	122.43	41.672	5.0694e-06	51.663	92.812	162.936	157.521	81.822	212.535	206.721	81.407	86.348	227.560	139.994	85.923	90.298	90.774	95.138	196.036	94.405	-8191	255	
8548.896	1	1	0	0	0.050332	0.1499	0.069038	0.065954	0.25468	0.33733	0.41058	0.32429	0.14327	0.17018	0.17946	0.20863	0.46088	0.3558	0.39764	0.22935	-2.225	-2.4313	-2.2729	-3.0854	-2.2354	-2.5229	-2.8958	-2.3083	-2.6646	-2.6063	-2.3917	-2.8396	-2.4396	-2.4771	-2.5312	-2.4021	326.010	75.520	76.338	228.428	257.028	256.781	375.608	400.319	393.501	165.350	291.943	382.399	404.895	336.835	137.240	365.521	0.0010314	0.0011039	0.00016337	1414.6	7.4464e-06	8.7441e-07	1407.5	370.88	1.0886e-05	4.2496e-06	420.12	137.95	120.05	40.498	3.0097e-06	50.138	0.00047536	0.0004662	0.00012915	1437.4	5.0949e-06	5.0589e-06	1427.1	376.65	5.0887e-06	5.0541e-06	427.94	140.4	122.25	41.666	5.041e-06	51.547	98.780	121.270	163.064	81.719	198.862	272.138	81.440	86.291	219.733	213.033	85.485	90.270	90.970	95.478	190.740	94.336	-8191	255	
8548.992	1	1	0	0	0.072906	0.10307	0.16615	0.32434	0.2209	0.13338	0.1366	0.43297	0.31653	0.14427	0.11711	0.13838	0.10883	0.31851	0.26082	0.090505	-2.2958	-2.3646	-2.3354	-2.8688	-2.5083	-2.4854	-3.0604	-2.4	-2.5667	-2.6292	-2.5104	-2.7104	-2.5271	-2.4792	-2.8229	-2.3917	394.367	168.485	370.167	385.493	127.540	187.863	334.177	354.668	226.528	269.399	83.600	348.929	267.406	369.601	406.613	394.768	0.0010595	0.00031992	0.00012741	1421.5	5.0816e-06	1.3521e-06	1405.8	370.34	6.6867e-06	4.0613e-06	422.02	137.33	120.03	40.354	2.5981e-06	50.221	0.00047849	0.00046129	0.0001282	1439.5	5.033e-06	5.0685e-06	1425.8	376.54	5.0618e-06	5.0211e-06	428.58	139.75	122.27	41.59	5.0472e-06	51.545	96.640	101.688	172.710	81.549	229.641	144.937	81.690	86.241	200.300	221.622	85.638	90.362	90.840	95.480	223.827	94.652	-8191	255	
8549.088	1	1	0	0	0.31838	0.13643	0.15633	0.34088	0.18553	0.16094	0.44081	0.29347	0.23163	0.077891	0.13721	0.22481	0.2205	0.32604	0.025921	0.24156	-2.0771	-2.6063	-2.2604	-2.9417	-2.4104	-2.4167	-3.0021	-2.6937	-2.5729	-2.7	-2.3854	-2.7812	-2.575	-2.3646	-2.7125	-2.4042	369.132	239.744	305.516	388.206	138.136	411.401	378.838	92.109	299.932	149.808	421.238	243.232	356.862	111.750	329.414	129.070	0.0010635	0.00037237	0.00012431	1416.5	1.412e-06	4.6052e-06	1412.9	370.33	5.8267e-06	4.2186e-07	422.34	137.28	119.67	40.551	5.0597e-06	50.02	0.00047557	0.00046215	0.00012848	1438.9	5.0712e-06	5.0637e-06	1428.3	376.65	5.1324e-06	5.1232e-06	428.98	139.94	122.17	41.615	5.0484e-06	51.462	90.294	142.173	164.639	81.689	179.494	206.763	81.396	86.433	166.443	309.864	85.781	90.244	90.809	95.301	170.624	94.427	-8191	255	
8549.184	1	1	0	0	0.1463	0.19768	0.274	0.17528	0.24045	0.14285	0.2884	0.44169	0.038447	0.081818	0.22601	0.20029	0.1106	0.072981	0.14081	0.20107	-2.1188	-2.5083	-2.2687	-2.6937	-2.7167	-2.2896	-3.1188	-2.6729	-2.5208	-2.8292	-2.3937	-2.8396	-2.7062	-2.4729	-2.7083	-2.5312	351.241	207.569	369.140	138.525	164.514	327.567	348.116	385.447	101.905	284.386	139.411	105.020	397.377	334.559	182.211	376.124	0.0010403	0.00041119	0.00016434	1416.6	4.5332e-06	2.7885e-06	1409.1	370.01	4.7029e-06	1.9402e-06	420.98	137.33	119.56	40.475	5.2004e-06	49.881	0.00047345	0.00046369	0.00012927	1437.5	5.0963e-06	5.0224e-06	1427.5	376.6	5.0735e-06	5.1272e-06	427.89	139.82	121.87	41.553	5.0489e-06	51.405	90.947	204.123	154.182	81.578	181.573	256.314	81.438	86.462	269.724	184.453	85.617	90.362	90.748	95.164	218.909	94.416	-8191	255	
8549.305	1	1	0	0	0.177	0.065779	0.13521	0.30081	0.13058	0.23299	0.2746	0.15325	0.044261	0.24178	0.16478	0.24063	0.16956	0.27817	0.15895	0.12669	-2.0542	-2.6937	-2.4667	-2.7812	-2.6229	-2.3167	-2.9146	-2.5771	-2.4729	-2.9521	-2.3792	-2.6167	-2.8396	-2.4167	-2.7792	-2.675	216.822	356.051	103.519	412.490	138.366	386.253	376.579	374.385	235.490	165.761	321.147	391.310	69.093	409.864	325.472	88.211	0.00098586	0.0009841	2.9099e-05	1417.4	3.7364e-06	6.0416e-06	1406.3	369.66	3.9173e-06	6.4458e-06	419.56	137.03	119.6	40.534	8.4786e-06	49.873	0.00047405	0.00045938	0.00012811	1438.4	5.0877e-06	5.0389e-06	1425.1	375.67	4.9522e-06	5.0448e-06	427.62	139.36	121.76	41.586	5.0542e-06	51.415	100.803	139.072	271.100	81.639	162.669	185.195	81.347	86.424	251.107	148.924	85.625	90.520	90.918	95.308	187.099	94.261	-8191	255	
8549.376	1	1	0	0	0.20335	0.23955	0.13089	0.37567	0.14824	0.26731	0.20834	0.18976	0.16883	0.21079	0.1736	0.10184	0.29252	0.2272	0.47472	0.27237	-2.0021	-2.7979	-2.4208	-2.6354	-2.6896	-2.2896	-3.0938	-2.9021	-2.375	-2.8187	-2.3896	-2.6792	-2.825	-2.4708	-2.725	-2.8083	390.675	378.708	423.973	362.747	313.843	355.265	388.648	373.845	230.627	215.932	360.333	250.553	413.302	348.117	210.751	326.757	0.0010641	0.00011903	0.00014641	1411.9	6.9128e-06	1.3837e-06	1404.9	367.81	1.0704e-05	4.8273e-06	420.61	136.97	118.56	40.449	5.7543e-06	49.724	0.00047694	0.00045909	0.00012662	1434.5	5.0629e-06	5.0077e-06	1422.7	374.52	5.0864e-06	5.071e-06	426.66	139.32	121.29	41.523	5.0393e-06	51.371	99.784	247.170	115.450	81.761	215.618	164.617	81.629	86.361	237.829	244.662	85.604	90.246	90.858	95.313	212.259	94.394	-8191	255	
8549.473	1	1	0	0	0.25226	0.17446	0.15705	0.29379	0.35211	0.17009	0.32266	0.42113	0.17137	0.11412	0.44611	0.28926	0.237	0.2042	0.16086	0.26211	-1.9333	-2.6542	-2.4688	-2.5312	-2.7417	-2.3104	-2.7938	-2.7896	-2.4188	-2.8896	-2.6104	-2.7208	-2.7125	-2.4729	-2.3833	-2.6417	384.300	407.975	357.448	399.843	273.888	198.735	336.185	338.280	374.794	415.217	393.087	373.005	417.719	351.935	426.574	391.372	0.0010333	0.00029223	0.00016207	1408.9	4.9297e-06	4.6787e-06	1398.9	366.71	1.0809e-05	5.308e-06	418.11	137.03	119.14	40.28	4.515e-06	49.88	0.00047649	0.00045965	0.00012796	1433.9	5.0218e-06	4.9751e-06	1419.9	373.61	5.0732e-06	5.067e-06	425.29	139.17	121.38	41.366	5.0555e-06	51.265	89.719	179.174	149.926	81.719	216.252	154.040	81.452	86.140	205.377	189.989	85.767	90.366	90.617	95.153	176.263	94.667	-8191	255	
8549.591	1	1	0	0	0.056966	0.087608	0.18078	0.18625	0.14373	0.22949	0.068609	0.063369	0.25524	0.21	0.22734	0.1483	0.33439	0.055768	0.27375	0.20047	-1.7125	-2.7458	-2.2104	-2.525	-2.6271	-2.4229	-2.8396	-2.7729	-2.3604	-2.7188	-2.6792	-2.4208	-2.8312	-2.5354	-2.6792	-2.875	189.627	344.834	207.761	404.927	377.139	72.171	384.487	386.969	378.259	321.672	290.440	88.480	382.932	225.880	84.803	408.673	0.001016	0.0005001	3.7284e-05	1408.7	5.1804e-06	9.6981e-06	1400.9	366.98	7.41e-06	7.5033e-06	415.57	136.53	119.37	40.267	6.9099e-06	50.038	0.0004704	0.00045649	0.00012782	1431.3	4.9801e-06	4.9971e-06	1416.9	373.45	4.9279e-06	4.95e-06	425.15	138.97	121.43	41.385	5.033e-06	51.26	99.660	139.884	204.178	81.681	225.310	224.047	81.462	86.315	255.733	208.241	85.641	90.549	90.709	95.491	214.509	94.516	-8191	255	
8549.688	1	1	0	0	0.15098	0.33296	0.23491	0.32691	0.24078	0.16493	0.17574	0.21466	0.19557	0.15309	0.14049	0.19762	0.12389	0.16754	0.080374	0.095485	-1.7812	-2.7396	-2.5708	-2.4646	-2.9521	-2.2979	-2.6271	-2.9375	-2.3875	-2.6042	-2.6437	-2.4792	-2.7729	-2.6875	-2.4562	-2.8771	411.201	118.953	337.908	347.224	288.303	151.012	346.595	398.839	97.124	154.003	341.912	385.501	147.036	305.996	346.727	82.276	0.0010726	0.00033985	9.3311e-05	1412.5	5.5774e-06	4.2627e-06	1399.5	367.52	5.5598e-06	5.2953e-06	418.9	137.44	119.56	40.373	7.0242e-06	49.912	0.00047305	0.00045353	0.00012711	1432.4	5.0116e-06	5.0289e-06	1419	373.89	5.019e-06	5.0042e-06	426.09	139.12	121.55	41.476	5.0272e-06	51.357	93.148	147.050	143.665	81.714	185.377	200.335	81.566	86.133	258.693	226.868	85.581	90.458	90.481	95.380	172.155	94.376	-8191	255	
8549.784	1	1	0	0	0.15049	0.096875	0.12708	0.50476	0.15028	0.038908	0.36586	0.051906	0.039671	0.056373	0.10898	0.15918	0.21268	0.21497	0.2505	0.1449	-1.9417	-2.5792	-2.6333	-2.5208	-2.825	-2.5146	-2.6354	-2.8563	-2.2729	-2.6292	-2.8063	-2.4417	-2.8187	-2.6104	-2.225	-2.8083	231.525	186.329	380.493	388.499	328.558	69.135	425.349	78.550	82.387	77.603	395.901	416.294	316.947	387.696	258.535	319.117	0.00093655	0.00081359	0.00016341	1413.7	4.2463e-06	2.9451e-06	1400.5	368.84	2.5351e-06	4.5402e-06	418.46	137.66	119.16	40.383	5.056e-06	49.772	0.00047114	0.00045651	0.00012819	1434	4.9556e-06	5.0001e-06	1419.8	374.21	5.0602e-06	4.9933e-06	425.65	139.53	121.51	41.4	5.0936e-06	51.278	90.203	173.572	158.703	81.730	221.924	201.306	81.547	86.281	251.238	203.005	85.790	90.341	90.847	95.215	175.365	94.551	-8191	255	
8549.904	1	1	0	0	0.16536	0.035624	0.36958	0.16541	0.22564	0.0063523	0.083475	0.44875	0.14289	0.15816	0.16149	0.20033	0.15767	0.086128	0.090614	0.054948	-2.05	-2.7167	-2.6437	-2.45	-2.6604	-2.6021	-2.5396	-2.9875	-2.2979	-2.6104	-2.8792	-2.4917	-2.825	-2.775	-2.3187	-2.8563	132.841	309.076	408.243	377.813	259.722	405.810	140.171	334.673	255.369	334.739	81.774	70.919	347.496	383.377	100.961	275.783	0.0010929	0.00074025	0.0002011	1415.1	6.732e-06	4.6432e-06	1405	368.47	9.1302e-06	5.7613e-06	419.61	136.72	119.34	40.276	5.5883e-06	49.999	0.00047272	0.00045908	0.00012722	1433.4	5.084e-06	5.0738e-06	1420.9	374.31	5.1439e-06	5.1767e-06	426.51	139.12	121.41	41.341	5.1046e-06	51.381	94.472	129.016	117.127	81.705	179.582	183.909	81.696	86.267	229.710	241.199	85.742	90.160	90.915	95.504	226.063	94.384	-8191	255	
8550.001	1	1	0	0	0.37146	0.14056	0.15284	0.51605	0.19723	0.14954	0.088518	0.17406	0.27672	0.12524	0.29738	0.12017	0.035066	0.16145	0.081338	0.037344	-1.9188	-2.3854	-2.6125	-2.3604	-2.725	-2.5396	-2.3438	-2.7854	-2.6292	-2.5167	-2.8208	-2.5604	-2.7146	-2.7333	-2.3604	-2.8063	231.179	183.871	316.168	367.272	326.803	71.355	336.658	309.496	79.404	120.200	395.159	160.556	384.376	405.569	107.224	209.430	0.0010097	0.00022753	4.4179e-05	1413.6	7.1521e-06	3.5181e-06	1400.2	368.08	1.1649e-05	6.0086e-06	420.27	136.93	119.79	40.296	3.0197e-06	50.167	0.0004743	0.0004655	0.00012961	1433.2	5.0435e-06	5.0749e-06	1421.9	375.07	5.098e-06	5.1084e-06	427.36	139.61	122	41.538	5.1118e-06	51.478	96.312	162.439	127.691	81.480	218.374	258.276	81.561	86.314	204.262	233.769	85.696	90.370	90.896	95.460	177.853	94.429	-8191	255	
8550.072	1	1	0	0	0.31626	0.26489	0.076469	0.40185	0.27167	0.14845	0.21327	0.24705	0.11722	0.11497	0.32072	0.13156	0.1595	0.23837	0.18226	0.10301	-2.0604	-2.3208	-2.6479	-2.3708	-2.4271	-2.5917	-2.6146	-2.9021	-2.5292	-2.4458	-2.8438	-2.2562	-2.5708	-2.8042	-2.15	-2.6833	218.641	128.516	104.918	420.190	154.066	161.491	365.731	372.406	252.390	391.007	411.031	329.882	395.336	424.667	106.086	339.461	0.0010658	0.00048196	0.00019141	1420.8	4.0306e-06	6.3416e-06	1404.5	368.52	1.5407e-06	4.7725e-06	419.95	138	120.15	40.392	7.0712e-06	50.171	0.00048163	0.00046884	0.00012799	1440	5.0454e-06	5.0605e-06	1427.6	375.63	5.0414e-06	5.0277e-06	427.77	139.86	122.06	41.577	5.013e-06	51.585	96.075	152.188	197.215	81.658	205.871	225.813	81.510	86.465	282.707	166.053	85.768	90.378	90.657	95.361	208.749	94.389	-8191	255	
8550.193	1	1	0	0	0.1179	0.15168	0.22609	0.19962	0.21408	0.28709	0.32624	0.23982	0.23025	0.37725	0.12062	0.1297	0.19031	0.15645	0.12416	0.037859	-2.0125	-2.275	-2.7271	-2.4583	-2.6729	-2.4979	-2.4	-2.7625	-2.4562	-2.3771	-2.8083	-2.6	-2.4479	-2.9646	-2.2938	-2.7125	299.976	176.762	263.620	310.224	168.769	328.514	370.985	413.928	317.004	295.249	334.964	416.512	140.333	70.235	412.152	415.741	0.00099374	0.00048374	0.00016889	1417.1	6.2146e-06	4.9796e-06	1409.6	370.45	9.3069e-06	1.2082e-05	421.37	138.18	120.42	40.557	7.4264e-06	50.411	0.00046846	0.00044902	0.00012589	1440.2	4.9247e-06	4.8773e-06	1428	376.7	4.9289e-06	4.8988e-06	428.28	140.41	122.52	41.666	4.8728e-06	51.68	93.376	197.285	137.043	81.681	189.390	212.692	81.574	86.318	220.291	173.090	85.451	90.369	90.845	95.325	177.872	94.530	-8191	255	
8550.289	1	1	0	0	0.28554	0.12739	0.025786	0.17689	0.30329	0.12704	0.27772	0.20531	0.11861	0.19779	0.12132	0.047241	0.21679	0.19431	0.1864	0.15748	-2.2625	-2.2875	-2.7708	-2.6292	-2.3563	-2.8771	-2.4562	-2.7812	-2.7229	-2.2583	-2.9938	-2.6875	-2.4208	-2.7146	-2.2521	-2.6979	400.186	358.319	150.364	350.895	402.119	102.344	269.385	400.766	243.311	325.662	405.801	112.318	343.809	296.549	387.350	382.840	0.0011331	0.00048903	0.00010578	1417	4.9882e-06	5.4295e-06	1407.8	368.08	7.2607e-06	5.2128e-06	420.96	137.44	119.74	40.637	5.4547e-06	50.04	0.00046249	0.00044248	0.00012265	1436.7	4.9236e-06	4.8755e-06	1423.9	374.8	4.9033e-06	4.928e-06	427.49	139.64	121.92	41.678	4.9013e-06	51.533	88.224	134.563	81.342	81.594	226.616	245.745	81.520	86.358	184.467	229.244	85.623	90.149	90.633	95.348	170.860	94.476	-8191	255	
8550.383	1	1	0	0	0.19822	0.14436	0.10838	0.17269	0.052614	0.022979	0.25061	0.13706	0.17608	0.19647	0.31921	0.26715	0.16391	0.23098	0.11548	0.30581	-2.2146	-2.1375	-2.6896	-2.6125	-2.3063	-2.7188	-2.4167	-2.9062	-2.7083	-2.3229	-2.9333	-2.8167	-2.3646	-2.9167	-2.4646	-2.5354	368.260	204.690	88.113	367.295	405.807	82.927	419.301	422.428	378.376	227.298	87.423	407.934	84.211	338.583	391.509	384.534	0.0011028	7.2923e-05	0.00014821	1418.3	3.2121e-06	4.9821e-06	1404.6	368.78	4.81e-06	6.4366e-06	418.67	138.12	119.79	40.515	2.2572e-06	50.028	0.00046441	0.00044184	0.00012452	1435.2	4.8671e-06	4.8206e-06	1423.4	375.73	4.7825e-06	4.838e-06	426.39	139.95	121.94	41.643	4.871e-06	51.508	98.020	167.813	167.856	81.574	181.507	267.820	81.562	86.483	203.820	180.371	85.661	90.294	90.756	95.364	182.284	94.354	-8191	255	
8550.480	1	1	0	0	0.12156	0.01054	0.1804	0.17678	0.12282	0.044511	0.11128	0.53786	0.18195	0.30213	0.30082	0.23453	0.10255	0.4128	0.13357	0.12883	-2.45	-2.3729	-2.6	-2.7729	-2.3125	-2.6875	-2.5187	-2.4167	-2.6583	-2.4437	-2.7313	-2.6604	-2.4271	-2.7479	-2.3229	-2.4833	215.691	403.233	351.169	336.680	239.598	348.802	312.209	366.694	277.192	278.890	364.217	409.699	72.990	392.574	329.202	217.839	0.0010664	0.00060455	7.8333e-05	1410.5	3.9156e-06	6.2843e-06	1401.1	369.1	7.8464e-06	4.8279e-06	420.63	136.52	120.07	40.571	3.8908e-06	50.339	0.00046018	0.00043888	0.0001226	1433.4	4.7639e-06	4.8056e-06	1421	375.43	4.807e-06	4.8676e-06	426.96	139.43	121.91	41.579	4.8139e-06	51.592	88.953	152.207	176.612	81.545	239.655	223.044	81.538	86.235	240.179	180.060	85.562	90.252	90.693	95.312	229.941	94.363	-8191	255	
8550.600	1	1	0	0	0.23062	0.080901	0.072352	0.24437	0.16592	0.26616	0.42935	0.38357	0.22048	0.011875	0.39538	0.18066	0.12877	0.26556	0.21938	0.16365	-2.1333	-2.2375	-2.425	-2.8792	-2.4021	-2.7354	-2.6979	-2.4146	-2.8271	-2.5042	-2.55	-2.6354	-2.4021	-2.8312	-2.5729	-2.4208	101.917	415.893	323.983	367.890	236.593	221.477	396.101	394.527	335.099	158.299	409.902	138.442	154.285	228.415	209.605	362.184	0.00098566	0.00041267	0.00020862	1416	6.1621e-06	4.5701e-06	1402.3	368.92	8.9188e-06	2.2534e-06	420.8	137.12	120.35	40.634	5.2428e-06	50.232	0.00045469	0.00043314	0.00012128	1434.1	4.7736e-06	4.7584e-06	1419.7	375.14	4.7491e-06	4.8083e-06	426.97	139.59	122.1	41.63	4.8346e-06	51.484	92.094	181.200	161.900	81.561	205.162	236.176	81.353	86.363	181.735	144.280	85.843	90.267	90.930	95.215	178.173	94.451	-8191	255	
8550.672	1	1	0	0	0.21782	0.10063	0.25383	0.20105	0.20895	0.11203	0.16642	0.24237	0.31026	0.22446	0.029965	0.12732	0.19165	0.24708	0.087794	0.1051	-2.2521	-2.2979	-2.5083	-2.8563	-2.0521	-2.8875	-2.7208	-2.4938	-2.8417	-2.3729	-2.6542	-2.8688	-2.525	-2.8937	-2.6021	-2.4313	137.483	95.603	278.069	125.818	306.759	172.505	395.053	415.885	263.972	365.249	289.865	84.940	364.879	79.602	398.283	408.410	0.0010782	0.00018936	3.8643e-05	1416.9	4.0516e-06	6.646e-06	1400.9	368.73	4.6562e-06	7.059e-06	421.05	137.92	120.09	40.625	3.3675e-06	50.087	0.00045318	0.00043536	0.00012271	1434	4.7476e-06	4.8363e-06	1420.3	375.46	4.8088e-06	4.8182e-06	427.39	140.02	121.94	41.64	4.8729e-06	51.479	94.982	151.060	407.008	81.491	157.236	164.058	81.892	86.338	218.369	190.399	85.752	90.230	90.583	95.405	222.702	94.106	-8191	255	
8550.768	1	1	0	0	0.12774	0.17751	0.26774	0.3458	0.15199	0.077198	0.2658	0.3079	0.33104	0.1324	0.19959	0.15975	0.16842	0.18572	0.22645	0.15762	-2.1917	-2.4667	-2.4604	-2.8083	-2.2562	-2.6417	-2.8271	-2.3625	-2.6708	-2.4208	-2.4292	-2.7417	-2.2896	-2.7021	-2.6729	-2.2375	417.170	354.902	196.859	369.656	169.226	300.643	388.695	396.344	243.204	85.146	338.176	324.599	134.847	400.685	135.352	420.456	0.0010366	0.00033073	0.00013699	1416.6	1.1651e-05	5.9636e-06	1404.3	368.57	3.4999e-06	5.979e-06	421.94	137.84	120.13	40.688	5.6736e-06	50.408	0.00045396	0.00044081	0.00012381	1435	4.7949e-06	4.7969e-06	1420	375.27	4.7694e-06	4.8184e-06	427.58	139.94	122.28	41.68	4.834e-06	51.645	93.579	159.756	194.985	81.812	220.955	187.913	81.335	86.320	229.293	228.736	85.910	90.573	90.723	95.401	213.858	94.607	-8191	255	
8550.864	1	1	0	0	0.087393	0.14974	0.15066	0.48324	0.14651	0.17057	0.03402	0.18724	0.26074	0.33668	0.12825	0.35305	0.30087	0.077591	0.21006	0.18301	-2.4354	-2.4667	-2.3896	-2.8604	-2.3354	-2.6979	-2.8	-2.4062	-2.5125	-2.4292	-2.3958	-2.8875	-2.5792	-2.6167	-2.6354	-2.5521	281.557	202.809	226.666	382.380	245.806	422.100	367.112	359.153	217.771	335.789	110.232	404.435	425.106	85.332	129.487	93.948	0.0011934	0.00071132	9.8866e-05	1416	4.1089e-06	3.4638e-06	1403.2	368.16	1.9842e-06	3.9592e-06	420.28	137.98	120.44	40.659	5.4149e-06	50.283	0.00045318	0.00044023	0.00012124	1436	4.7791e-06	4.7631e-06	1423.3	375.5	4.8053e-06	4.8519e-06	427.12	140.03	122.16	41.641	4.8455e-06	51.511	92.040	162.639	128.010	81.429	257.154	274.504	81.561	86.200	191.559	219.815	85.619	90.221	90.809	95.532	226.186	94.581	-8191	255	
8550.985	1	1	0	0	0.21696	0.17208	0.20657	0.4508	0.096588	0.019352	0.22443	0.16038	0.07314	0.17149	0.29529	0.023967	0.2983	0.082856	0.26005	0.1802	-2.2792	-2.3583	-2.3917	-2.9313	-2.3875	-2.425	-3.0542	-2.3937	-2.5833	-2.5146	-2.4354	-2.875	-2.7583	-2.7167	-2.7	-2.4396	371.490	319.398	281.742	392.271	298.887	391.863	302.574	78.582	286.841	161.458	335.819	348.170	406.533	148.233	219.256	188.554	0.001029	0.00074603	0.00019265	1413.2	5.0094e-06	5.7118e-06	1401.8	370.35	4.0617e-06	5.7198e-06	419.6	137.63	120.01	40.598	6.1394e-06	50.091	0.00045584	0.00044312	0.00012347	1433.8	4.8291e-06	4.8137e-06	1422	375.71	4.8612e-06	4.8222e-06	427.58	140.22	121.99	41.612	4.8035e-06	51.496	94.591	110.137	131.072	81.621	211.137	227.516	81.545	86.289	254.170	207.431	85.802	90.390	91.037	95.302	172.262	94.507	-8191	255	
8551.081	1	1	0	0	0.23482	0.34908	0.15827	0.32048	0.10157	0.011572	0.49892	0.38643	0.084496	0.28029	0.13609	0.24169	0.31857	0.19921	0.36302	0.40027	-2.2333	-2.7125	-2.2917	-2.8167	-2.6437	-2.4708	-3.0438	-2.4688	-2.5812	-2.6583	-2.4625	-2.7938	-2.5958	-2.4688	-2.8396	-2.5	239.000	422.151	70.437	387.575	200.666	331.204	363.614	395.954	332.773	315.244	376.011	350.799	323.661	139.675	169.914	333.845	0.0010247	0.00056512	8.2459e-05	1414.4	7.6876e-06	4.7218e-06	1403.3	369.95	7.9162e-06	6.7282e-06	419.94	137.49	119.92	40.561	3.5762e-06	50.375	0.00045471	0.00043418	0.00012254	1433.5	4.8128e-06	4.8554e-06	1422.3	375.48	4.8118e-06	4.7799e-06	427.05	139.91	121.96	41.678	4.77e-06	51.577	95.645	135.932	180.731	81.479	189.567	210.426	81.519	86.448	186.560	258.287	85.545	90.144	90.853	95.283	221.574	94.539	-8191	255	
8551.177	1	1	0	0	0.028657	0.18397	0.024165	0.16362	0.089406	0.14519	0.24619	0.50688	0.059584	0.384	0.35831	0.15316	0.076283	0.16975	0.15369	0.1875	-2.0438	-2.6146	-2.1833	-2.9104	-2.5271	-2.125	-2.9333	-2.6667	-2.5625	-2.7354	-2.4042	-2.6583	-2.8812	-2.4125	-2.8146	-2.7396	403.660	350.982	274.621	382.083	348.398	298.636	307.388	405.427	407.473	418.613	95.002	334.630	358.662	388.234	86.599	339.350	0.00096361	0.00073157	0.0001481	1415.9	6.7248e-06	7.2351e-06	1402.7	369.72	6.1875e-06	2.496e-06	420.08	137.29	119.83	40.49	5.3594e-06	50.031	0.00045251	0.00043586	0.00012111	1433.8	4.8151e-06	4.7655e-06	1421.4	375.67	4.8181e-06	4.7388e-06	427.11	139.86	121.94	41.637	4.8065e-06	51.454	93.946	144.257	134.202	81.676	198.922	239.206	81.553	86.315	253.177	133.577	85.751	90.216	90.539	95.349	140.125	94.758	-8191	255	
8551.273	1	1	0	0	0.077573	0.25509	0.084185	0.46114	0.12929	0.043779	0.21611	0.15999	0.18669	0.23817	0.20648	0.28633	0.24076	0.19486	0.14832	0.22484	-2.1042	-2.6875	-2.2188	-2.7104	-2.6375	-2.3563	-2.9917	-2.5812	-2.2625	-2.7938	-2.2833	-2.7792	-2.8021	-2.2792	-2.7313	-2.5958	75.201	283.259	228.983	401.138	110.113	231.473	355.187	387.894	173.900	379.123	88.238	354.363	100.615	394.774	209.944	76.064	0.00091762	0.00081691	0.00018205	1412.6	4.8437e-06	3.8262e-06	1404	369.23	6.7674e-06	7.445e-06	419.32	138.01	120.17	40.482	5.6311e-06	50.116	0.00045428	0.0004352	0.00012226	1434.1	4.8326e-06	4.7862e-06	1420.1	375.39	4.8775e-06	4.8152e-06	427	140.03	122.09	41.586	4.787e-06	51.409	99.661	181.079	117.548	81.558	229.026	230.187	81.450	86.353	223.075	208.684	85.852	90.545	90.798	95.511	174.229	94.382	-8191	255	
8551.369	1	1	0	0	0.12507	0.042537	0.36099	0.20161	0.2745	0.31854	0.31826	0.28307	0.14631	0.13908	0.14947	0.093195	0.063176	0.18388	0.20743	0.031355	-1.7417	-2.6688	-2.2938	-2.8375	-2.5312	-2.3292	-3.0854	-2.7458	-2.5458	-2.6146	-2.3563	-2.6542	-2.8187	-2.3063	-2.425	-2.6729	405.182	247.866	196.485	407.769	177.427	206.456	400.448	317.974	229.154	304.199	390.701	156.935	115.367	110.501	292.149	112.646	0.0011288	0.00071847	0.00012424	1413.7	3.715e-06	6.4417e-06	1405.3	369.32	7.5828e-06	5.4084e-06	419.57	137.5	120.1	40.302	6.0823e-06	50.274	0.00045554	0.00043974	0.00012246	1433.6	4.7902e-06	4.7957e-06	1422.1	375.18	4.8163e-06	4.7801e-06	426.73	140.03	121.92	41.557	4.817e-06	51.549	101.257	131.089	163.777	81.568	196.857	214.307	81.543	86.373	206.997	247.431	85.715	90.323	90.706	95.440	244.856	94.440	-8191	255	
8551.466	1	1	0	0	0.12041	0.17126	0.098177	0.31643	0.18329	0.10736	0.22828	0.14527	0.31212	0.18961	0.28014	0.12829	0.16384	0.12801	0.22682	0.021698	-2.0062	-2.6875	-2.2104	-2.7562	-2.5771	-2.2792	-2.9167	-2.7917	-2.4688	-2.7958	-2.6229	-2.6625	-2.8417	-2.3	-2.8146	-2.7938	267.371	81.963	128.306	354.490	92.503	271.120	415.020	374.187	76.707	83.671	83.073	367.110	141.023	115.423	425.047	213.498	0.0010703	0.00047656	0.00013021	1415	6.6048e-06	2.9754e-06	1405.5	369.56	4.6509e-06	7.1694e-06	420.17	137.47	119.99	40.618	4.7124e-06	50.211	0.00045785	0.00043595	0.00012175	1434.9	4.7833e-06	4.7418e-06	1421.1	375.54	4.8107e-06	4.7994e-06	426.67	139.93	121.83	41.604	4.7941e-06	51.574	98.997	133.939	197.872	81.596	209.625	153.224	81.577	86.415	254.148	168.699	85.649	90.362	90.675	95.255	197.272	94.832	-8191	255	
8551.584	1	1	0	0	0.075916	0.38687	0.09861	0.071022	0.084618	0.30852	0.30382	0.33714	0.36138	0.079015	0.25923	0.12328	0.2243	0.22499	0.21272	0.49296	-1.9458	-2.6667	-2.2917	-2.6542	-2.7896	-2.35	-2.7562	-2.8958	-2.3708	-2.7604	-2.6688	-2.5542	-2.5771	-2.475	-2.7167	-2.6375	364.385	274.681	168.703	349.395	122.384	174.662	375.607	395.963	372.909	264.370	115.611	339.675	361.255	373.155	122.843	370.505	0.0010486	0.0002693	0.00016093	1408.2	8.4744e-06	4.2106e-06	1406.9	369.5	4.3193e-06	3.2923e-06	420.01	137.61	120	40.568	6.2863e-06	50.244	0.00045643	0.00043748	0.00012201	1433	4.8283e-06	4.7171e-06	1422.7	375.07	4.784e-06	4.8257e-06	427.28	139.71	121.91	41.572	4.8594e-06	51.591	102.157	169.086	184.786	81.608	201.829	215.306	81.621	86.229	248.837	197.554	85.755	90.263	90.894	95.297	172.629	94.553	-8191	255	
8551.681	1	1	0	0	0.20234	0.043517	0.10316	0.49834	0.33993	0.14205	0.14601	0.25192	0.17035	0.17301	0.43245	0.14002	0.16141	0.31754	0.14223	0.20489	-1.8396	-2.6646	-2.4958	-2.5563	-2.6562	-2.1854	-2.7521	-2.8167	-2.2646	-2.5458	-2.6729	-2.3479	-2.8438	-2.4604	-2.4667	-2.7396	114.990	175.739	396.104	422.489	213.570	391.896	397.998	393.462	383.037	208.030	94.013	75.695	402.262	84.021	189.506	245.816	0.0009894	0.00049734	0.00012833	1411.2	8.4215e-06	8.4222e-06	1404	370.34	5.8688e-06	5.0759e-06	416.84	137.85	119.13	40.4	3.0219e-06	50.323	0.00045128	0.00044003	0.00012163	1434.2	4.8005e-06	4.8132e-06	1421.4	375.21	4.8514e-06	4.7695e-06	425.46	139.71	121.69	41.604	4.8323e-06	51.521	100.878	166.961	144.428	81.589	199.370	194.508	81.504	86.433	221.633	210.460	85.613	90.362	90.797	95.388	214.528	94.518	-8191	255	
8551.777	1	1	0	0	0.15854	0.20561	0.2601	0.4717	0.19321	0.39941	0.20546	0.11173	0.29221	0.15132	0.088515	0.071868	0.069432	0.14406	0.25448	0.20793	-1.6146	-2.6646	-2.6042	-2.5687	-2.6937	-2.4875	-2.7375	-2.9292	-2.1896	-2.7812	-2.5604	-2.3937	-2.7458	-2.5542	-2.2146	-2.7729	424.695	351.535	370.541	389.560	241.353	78.068	409.978	332.917	178.636	195.344	239.609	369.916	158.253	423.029	93.563	380.271	0.0010627	0.00040943	2.5067e-05	1409.6	1.5815e-06	3.5395e-06	1400.3	369.86	4.8653e-06	5.8264e-06	419.75	137.34	120.04	40.111	3.7393e-06	50.117	0.00045407	0.00043569	0.00012173	1431.2	4.7771e-06	4.7409e-06	1422.1	375.49	4.7974e-06	4.8902e-06	426.46	139.75	121.64	41.414	4.8672e-06	51.343	93.092	144.400	122.486	81.606	161.813	270.854	81.357	86.436	214.248	183.125	85.612	90.073	90.862	95.482	230.342	94.270	-8191	255	
8551.873	1	1	0	0	0.18086	0.13003	0.17672	0.25465	0.11103	0.21534	0.1345	0.37753	0.25907	0.25145	0.096716	0.26839	0.22179	0.31645	0.18009	0.28941	-1.7083	-2.6333	-2.4562	-2.5729	-2.5396	-2.3979	-2.5604	-2.8083	-2.2792	-2.5021	-2.7292	-2.5083	-2.775	-2.5438	-2.2729	-2.8354	348.960	233.170	313.015	417.730	377.519	71.495	332.512	387.438	341.247	343.449	258.984	391.326	419.888	378.218	70.950	324.392	0.0011268	0.00023547	0.00011534	1411	2.7846e-06	6.4161e-06	1401.8	369.81	5.8222e-06	3.6851e-06	420.03	137.8	119.28	40.453	3.1207e-06	49.998	0.00045447	0.00044057	0.00012275	1434.2	4.8455e-06	4.847e-06	1420.1	375.1	4.8294e-06	4.8408e-06	425.93	139.71	121.78	41.59	4.8074e-06	51.449	98.474	140.784	172.659	81.719	196.842	213.725	81.416	86.360	222.203	213.864	85.910	90.249	90.649	95.269	137.853	94.335	-8191	255	
8551.969	1	1	0	0	0.07621	0.2216	0.13863	0.21456	0.35216	0.16525	0.22551	0.19949	0.05657	0.21764	0.17011	0.19787	0.26595	0.10831	0.15675	0.39954	-1.9208	-2.4021	-2.5771	-2.4417	-2.5687	-2.4688	-2.5458	-2.7417	-2.2646	-2.5896	-2.7229	-2.2896	-2.5854	-2.5583	-2.0896	-2.875	194.744	273.391	88.309	325.479	423.041	419.799	95.638	403.248	317.062	349.315	307.989	80.780	382.197	248.520	306.711	304.756	0.00098657	0.00075655	9.2186e-05	1409.1	5.6276e-06	4.3835e-06	1406.3	369.67	4.6922e-06	2.9254e-06	417.7	137.37	119.81	40.343	5.3423e-06	49.97	0.00045653	0.00044036	0.00012213	1432.8	4.9041e-06	4.8102e-06	1421.2	375.08	4.8418e-06	4.8873e-06	425.81	139.71	121.7	41.368	4.812e-06	51.423	106.631	139.492	285.330	81.669	222.030	245.134	81.467	86.577	215.893	178.568	85.649	90.311	90.961	95.300	197.938	94.499	-8191	255	
8552.065	1	1	0	0	0.14465	0.12996	0.17264	0.40541	0.15172	0.18659	0.28127	0.23772	0.28221	0.059465	0.063048	0.2266	0.12519	0.078333	0.18107	0.34055	-1.9667	-2.4188	-2.5583	-2.4708	-2.4667	-2.5062	-2.325	-2.7188	-2.3958	-2.3292	-2.7646	-2.3	-2.6875	-2.6271	-2.3792	-2.6875	371.427	95.105	324.691	380.955	248.071	210.978	353.609	397.145	416.872	416.380	405.446	340.491	151.767	113.302	396.135	400.050	0.0011649	0.00029135	2.7645e-05	1410.3	6.4467e-06	4.9813e-06	1402.7	369.42	7.1621e-06	4.9897e-06	422.29	137.52	120.11	40.411	2.9864e-06	50.17	0.0004556	0.00044048	0.00012014	1433.7	4.8459e-06	4.8201e-06	1421.1	375.33	4.8763e-06	4.8516e-06	426.78	139.57	121.95	41.521	4.874e-06	51.392	102.031	89.074	428.170	81.677	173.156	196.061	81.638	86.164	226.534	191.526	85.609	90.347	90.842	95.383	197.870	94.424	-8191	255	
8552.161	1	1	0	0	0.15757	0.10105	0.097623	0.22654	0.15254	0.10308	0.30388	0.27354	0.064567	0.18016	0.27985	0.2818	0.30702	0.11854	0.16104	0.042913	-2.0563	-2.3021	-2.7062	-2.3729	-2.5708	-2.7083	-2.4771	-2.9	-2.5	-2.5	-2.9167	-2.5271	-2.6437	-2.8208	-2.325	-2.8771	81.210	400.130	115.123	355.296	232.587	426.337	405.838	356.973	319.527	337.126	366.402	386.274	326.604	290.730	91.382	142.650	0.0010085	0.00052949	0.00014525	1414.4	3.4282e-06	4.1743e-06	1407.1	369.68	9.5073e-06	3.2692e-06	417.56	137.18	119.74	40.387	5.2057e-06	49.883	0.00045956	0.00044605	0.00012219	1433.8	4.8653e-06	4.8548e-06	1421.3	375.09	4.839e-06	4.8731e-06	425.96	139.65	121.65	41.478	4.839e-06	51.32	96.021	158.832	164.532	81.440	180.183	151.447	81.573	86.230	214.075	186.758	85.728	90.408	90.804	95.371	167.277	94.533	-8191	255	
8552.257	1	1	0	0	0.12842	0.25649	0.11986	0.39869	0.079505	0.15216	0.49051	0.096559	0.17384	0.080612	0.26076	0.20589	0.24933	0.23067	0.15846	0.24996	-2.1792	-2.3375	-2.8187	-2.6562	-2.3896	-2.7125	-2.575	-2.9146	-2.5312	-2.3771	-2.7667	-2.6479	-2.3083	-2.9021	-2.5875	-2.6937	326.815	427.246	297.422	382.396	337.583	407.648	354.994	370.947	212.292	267.359	414.378	297.741	355.563	412.482	381.843	252.573	0.0011694	0.00027251	8.1799e-05	1412.2	7.3923e-06	7.6482e-07	1399.3	370	4.2389e-06	3.49e-06	419.7	137.27	119.53	40.373	4.78e-06	49.91	0.00046064	0.00044	0.00012266	1432	4.8543e-06	4.736e-06	1420.3	374.72	4.8466e-06	4.886e-06	426.3	139.45	121.46	41.411	4.8055e-06	51.256	91.074	127.602	153.166	81.783	213.414	398.799	81.552	86.345	150.296	241.124	85.547	90.522	90.550	95.317	205.997	94.492	-8191	255	
8552.376	1	1	0	0	0.33137	0.10469	0.2028	0.32903	0.14317	0.030935	0.2603	0.42122	0.038048	0.14698	0.273	0.17973	0.051615	0.095479	0.11571	0.29704	-2.2479	-2.3208	-2.6979	-2.8063	-2.4979	-2.6896	-2.6667	-2.7125	-2.5708	-2.3104	-2.9833	-2.6312	-2.675	-2.9125	-2.3667	-2.6708	105.302	310.651	142.486	374.525	293.846	359.603	335.320	393.593	361.930	243.336	367.675	420.071	269.177	85.726	315.741	351.015	0.0011037	0.00079881	0.00012895	1414.2	1.6293e-06	6.0184e-06	1406.5	367.75	4.4084e-06	7.2917e-06	418.78	136.84	119.05	40.241	5.2066e-06	49.818	0.00045887	0.00044437	0.00012196	1431.2	4.8562e-06	4.8323e-06	1419.7	373.97	4.8836e-06	4.8254e-06	426.08	139.32	121.46	41.404	4.8193e-06	51.282	90.478	157.912	138.197	81.588	163.634	231.674	81.333	86.464	220.532	210.711	85.732	90.444	90.713	95.457	213.672	94.394	-8191	255	
8552.472	1	1	0	0	0.12349	0.11664	0.040505	0.26258	0.11943	0.25271	0.30406	0.35418	0.30297	0.11572	0.059027	0.12093	0.11872	0.20511	0.21369	0.15221	-2.1688	-2.3708	-2.7208	-2.7854	-2.5062	-2.9021	-2.6417	-2.7667	-2.6125	-2.4917	-2.675	-2.7333	-2.5667	-3.0292	-2.7021	-2.5354	97.457	216.264	88.105	76.916	294.770	413.390	357.351	360.921	403.630	274.085	109.412	421.350	379.815	406.077	331.851	169.694	0.0011326	0.00059145	0.00013805	1410.1	5.6526e-06	9.7079e-07	1398.6	367.79	3.5227e-06	8.7238e-06	417.63	136.22	119.52	40.313	9.7247e-06	49.856	0.00045981	0.00044052	0.0001232	1430.3	4.8868e-06	4.8238e-06	1417.2	373.79	4.9237e-06	4.8517e-06	425.4	138.74	121.29	41.348	4.8678e-06	51.186	89.449	168.152	152.995	81.743	210.931	379.288	81.767	86.279	229.653	183.286	85.463	90.156	90.904	95.461	184.858	94.563	-8191	255	
8552.546	1	1	0	0	0.12516	0.14175	0.10045	0.23928	0.070969	0.12666	0.14556	0.35522	0.42156	0.098509	0.091309	0.12323	0.16338	0.28277	0.18638	0.1358	-2.3042	-2.3833	-2.6146	-2.6521	-2.5	-2.9042	-2.7562	-2.6542	-2.7458	-2.3	-2.7208	-2.8646	-2.3	-2.9146	-2.325	-2.575	404.287	90.650	142.297	420.504	146.567	382.034	363.607	350.635	406.925	350.451	385.060	102.416	281.911	412.237	297.026	261.152	0.00099868	0.00076514	0.00010016	1409.6	5.7421e-06	8.6238e-06	1393.5	366.96	8.1903e-06	2.9233e-06	417.89	137.07	119.04	40.19	4.3033e-06	49.909	0.00045378	0.00044057	0.00012206	1428.4	4.855e-06	4.7756e-06	1414	373.48	4.7659e-06	4.7792e-06	425.55	139.15	121.07	41.313	4.8442e-06	51.228	97.900	102.539	158.380	81.633	167.840	249.359	81.557	86.345	240.868	136.787	85.733	90.235	90.944	95.368	112.863	94.579	-8191	255	
8552.665	1	1	0	0	0.14975	0.17882	0.13648	0.35765	0.13689	0.19202	0.16194	0.56015	0.25616	0.19261	0.25663	0.14604	0.11257	0.059271	0.13823	0.18619	-2.3937	-2.3063	-2.7896	-2.8417	-2.3833	-2.6937	-2.6771	-2.5625	-2.8521	-2.4167	-2.7979	-2.9938	-2.3688	-2.9042	-2.5604	-2.5042	201.498	403.915	285.036	376.049	200.668	208.363	297.182	354.650	165.491	359.403	398.150	76.209	417.691	105.258	230.533	394.572	0.00088707	0.00039096	0.00015783	1403.9	4.3936e-06	4.1759e-06	1396.4	366.81	8.8952e-06	8.1107e-06	418.19	136.6	118.91	40.273	4.0752e-06	49.839	0.00045095	0.00043644	0.00012356	1426.4	4.8117e-06	4.7812e-06	1413.2	372.75	4.8338e-06	4.7929e-06	424.98	138.88	121.28	41.309	4.8406e-06	51.118	98.747	180.765	165.098	81.882	199.923	174.232	81.656	86.399	185.840	173.257	85.803	90.393	90.822	95.561	143.415	94.709	-8191	255	
8552.761	1	1	0	0	0.026802	0.19874	0.11521	0.29598	0.1255	0.18178	0.2597	0.32248	0.11514	0.2168	0.17093	0.11168	0.023194	0.20497	0.29854	0.15258	-2.3271	-2.3542	-2.3729	-2.9437	-2.1375	-2.7292	-2.7875	-2.6063	-3.0167	-2.5021	-2.6417	-2.825	-2.6125	-2.9604	-2.6437	-2.4896	408.861	292.213	234.242	380.251	317.864	309.380	367.863	337.982	347.171	153.554	318.610	419.001	172.009	358.709	247.875	236.169	0.0011203	0.00060305	9.9866e-05	1404.9	6.496e-06	3.406e-06	1390.8	367.19	8.1656e-06	8.7966e-06	417.14	136.2	119.04	40.033	5.0193e-06	49.86	0.0004542	0.00043568	0.00012408	1425.1	4.8349e-06	4.8282e-06	1411.5	372.7	4.8841e-06	4.835e-06	424.42	138.85	121.17	41.213	4.907e-06	51.152	90.847	111.534	179.983	81.577	217.361	240.931	81.579	86.345	199.798	190.993	85.815	90.336	90.676	95.391	221.314	94.518	-8191	255	
8552.857	1	1	0	0	0.20432	0.13434	0.20827	0.33353	0.19057	0.042371	0.21905	0.060692	0.078904	0.16099	0.13684	0.10961	0.0472	0.23128	0.19235	0.14413	-2.3979	-2.7104	-2.35	-3.0167	-2.3458	-2.6958	-2.7604	-2.6167	-2.9292	-2.6354	-2.6354	-2.9062	-2.4813	-2.825	-2.6312	-2.3354	117.149	248.780	97.163	341.228	368.634	423.326	404.919	360.088	338.779	355.231	377.384	303.028	342.518	408.594	153.908	424.076	0.0011677	0.0005975	0.00011521	1404.8	4.4479e-06	7.2903e-06	1391.3	365.98	4.8958e-06	6.3862e-06	416.14	136.24	118.93	40.182	5.2162e-06	49.744	0.00045596	0.00043551	0.00012262	1424.5	4.8234e-06	4.8295e-06	1411.2	372.21	4.8216e-06	4.7735e-06	424.1	138.74	121.08	41.219	4.9061e-06	51.185	92.228	167.450	160.978	81.549	231.751	200.097	81.617	86.416	229.880	226.569	85.995	90.425	90.985	95.416	207.088	94.573	-8191	255	
8552.953	1	1	0	0	0.14417	0.11065	0.22235	0.35738	0.18025	0.23304	0.27484	0.11012	0.072796	0.20867	0.25507	0.17144	0.052469	0.051469	0.1716	0.039665	-2.0708	-2.5104	-2.4625	-3.0208	-2.2667	-2.55	-2.8187	-2.5479	-2.9313	-2.5667	-2.3833	-2.9646	-2.6896	-2.6083	-2.8458	-2.3354	174.633	137.531	397.522	401.891	236.554	225.057	375.862	68.582	413.174	236.822	384.700	90.611	223.820	101.843	265.795	420.808	0.00095121	0.00046893	0.00015365	1408	6.227e-06	7.497e-06	1395.4	365.51	7.0091e-06	3.0959e-06	417.12	136.72	119.39	40.094	4.7963e-06	49.732	0.00046126	0.00044957	0.00012438	1425.6	4.9065e-06	4.9519e-06	1413	372.11	4.9486e-06	4.961e-06	424.4	138.81	121.31	41.223	4.964e-06	51.103	98.680	215.714	134.055	81.519	202.799	229.437	81.676	86.349	164.888	210.235	85.722	90.519	90.757	95.408	192.604	94.565	-8191	255	
8553.074	1	1	0	0	0.09424	0.26825	0.25224	0.38338	0.15808	0.30174	0.19514	0.16571	0.0080386	0.15249	0.17456	0.17754	0.27264	0.14082	0.091087	0.12623	-2.0479	-2.7125	-2.3479	-3.0625	-2.4458	-2.5979	-2.9646	-2.5083	-2.6771	-2.5812	-2.4354	-3.0021	-2.6063	-2.5292	-2.7729	-2.4813	162.895	123.220	175.292	403.083	354.009	319.878	307.396	391.767	302.391	308.392	174.651	202.570	411.135	144.949	121.104	258.069	0.0011058	0.00022116	0.00011247	1399.7	6.4729e-06	4.3999e-06	1396.2	365.59	5.6957e-06	8.1509e-06	417.4	137.18	118.88	40.149	4.8312e-06	49.854	0.00046714	0.00045831	0.00012676	1425.8	4.9945e-06	4.9717e-06	1414.4	372.98	4.9515e-06	5.0081e-06	425.21	139.12	121.27	41.306	5.0018e-06	51.217	96.393	82.919	182.272	81.707	218.961	236.848	81.369	86.405	195.650	198.237	85.731	90.517	90.656	95.312	224.437	94.491	-8191	255	
8553.170	1	1	0	0	0.23825	0.31422	0.25191	0.16688	0.10712	0.23989	0.28922	0.10227	0.020139	0.1715	0.19604	0.059708	0.11608	0.081896	0.21768	0.11215	-2.1271	-2.6417	-2.4625	-2.9521	-2.55	-2.5167	-2.9229	-2.3542	-2.7292	-2.6146	-2.4917	-2.8396	-2.4625	-2.5333	-2.8063	-2.5042	264.642	344.781	375.876	372.516	243.341	364.123	371.367	382.480	239.089	278.360	86.158	108.849	76.440	83.844	382.364	280.839	0.0010628	0.00082698	0.00016796	1412.5	2.2814e-06	5.457e-06	1395.9	367.16	6.8967e-06	4.269e-06	418.72	137.07	119.14	40.254	1.4778e-06	49.933	0.00047228	0.00045939	0.00012547	1430.3	5.0337e-06	4.9787e-06	1418.9	374.09	5.0202e-06	5.04e-06	426.35	139.3	121.38	41.376	5.0324e-06	51.306	98.006	119.123	188.790	81.521	157.748	242.701	81.502	86.500	267.808	205.955	85.623	90.409	90.628	95.395	286.322	94.580	-8191	255	
8553.266	1	1	0	0	0.1922	0.33089	0.10303	0.17786	0.2466	0.33261	0.26799	0.11181	0.18678	0.065297	0.13862	0.37831	0.34408	0.11081	0.093061	0.13819	-1.9917	-2.5896	-2.2833	-2.9271	-2.6958	-2.3042	-3.0417	-2.6104	-2.7083	-2.8688	-2.4854	-2.8208	-2.6833	-2.3563	-2.675	-2.6375	108.886	125.751	314.629	373.662	262.479	233.278	398.999	403.653	392.321	247.286	426.172	378.251	97.988	396.833	158.496	149.398	0.0010106	0.00052568	0.00010766	1411.4	5.8887e-06	2.8182e-06	1401.8	367.88	4.0432e-06	4.2107e-06	419.56	137.5	119.05	40.464	5.6359e-06	49.895	0.00047383	0.00045366	0.00012663	1432.4	5.0048e-06	4.9735e-06	1420.1	374.47	5.0063e-06	4.9816e-06	426.81	139.44	121.59	41.475	4.9259e-06	51.334	96.023	180.755	170.732	81.730	169.774	283.262	81.473	86.355	221.254	175.928	85.623	90.451	90.656	95.429	228.706	94.440	-8191	255	
8553.362	1	1	0	0	0.0072316	0.077908	0.36872	0.20978	0.20242	0.12364	0.31305	0.28372	0.18472	0.082992	0.19314	0.16487	0.099005	0.28363	0.039335	0.064683	-1.9604	-2.5438	-2.3604	-3.0167	-2.6875	-2.3854	-3.0583	-2.5167	-2.4708	-2.7583	-2.4062	-2.6688	-2.7208	-2.2771	-2.6917	-2.5542	313.316	327.231	104.533	313.802	79.751	170.484	333.147	406.927	345.435	208.023	335.959	340.454	96.718	394.552	79.767	364.480	0.0010975	0.000572	0.00011793	1410.7	4.1341e-06	4.4377e-06	1402.8	368.49	1.045e-05	6.3941e-06	418.08	136.79	119.89	40.328	6.0232e-06	50.047	0.00047299	0.00045139	0.00012601	1434	5.0067e-06	4.9236e-06	1421.8	374.85	5.0174e-06	4.9109e-06	426.06	139.25	121.92	41.39	4.9728e-06	51.455	99.863	135.324	153.993	81.651	204.428	241.292	81.563	86.261	197.833	258.125	85.814	90.284	90.829	95.321	222.870	94.292	-8191	255	
8553.457	1	1	0	0	0.29846	0.029025	0.030632	0.44589	0.0067619	0.2303	0.32195	0.25557	0.11258	0.05276	0.14354	0.079307	0.13529	0.12714	0.16832	0.016067	-1.9521	-3.0438	-2.4521	-2.7667	-2.8333	-2.1708	-3.0667	-2.8729	-2.3	-2.8042	-2.5104	-2.6958	-2.6937	-2.3396	-2.5875	-2.675	350.559	207.667	356.197	84.563	110.955	182.623	420.414	404.563	158.103	213.619	393.051	123.175	281.744	427.691	278.377	381.230	0.0010572	0.00053524	0.00013363	1418.6	3.6327e-06	4.4328e-06	1404.3	369.15	7.1848e-06	7.8349e-06	419.61	137.04	119.2	40.338	2.3154e-06	50.189	0.00047173	0.00044721	0.00012534	1436.8	4.983e-06	4.9384e-06	1423.9	375.19	4.9857e-06	4.9098e-06	427.28	139.52	121.62	41.483	4.9441e-06	51.407	96.292	155.444	245.741	81.611	269.865	155.774	81.556	86.404	213.211	183.644	85.865	90.164	90.603	95.632	246.237	94.568	-8191	255	
8553.555	1	1	0	0	0.14826	0.15874	0.088637	0.34766	0.13047	0.1085	0.13128	0.2478	0.17194	0.091865	0.29489	0.028653	0.28247	0.075	0.043559	0.29058	-1.7375	-2.7896	-2.1917	-2.7062	-2.5521	-2.2396	-2.8417	-2.7917	-2.2792	-2.7479	-2.5271	-2.5958	-2.9875	-2.3667	-2.7313	-2.9125	373.849	272.650	253.447	396.540	365.945	91.042	330.891	334.538	151.577	140.844	394.216	149.530	350.135	366.364	421.744	382.349	0.00093898	0.00024923	0.00012908	1414	6.1888e-06	7.9731e-06	1405.8	366.78	9.4802e-06	6.5982e-06	421.27	137.56	119.74	40.644	7.5392e-06	49.799	0.00046289	0.00044896	0.00012472	1437.6	4.8996e-06	4.9205e-06	1425.1	374.4	4.9361e-06	4.8985e-06	427.96	139.77	121.85	41.592	4.9323e-06	51.382	99.880	209.769	152.636	81.667	193.180	209.219	81.437	86.212	221.892	178.498	85.896	90.256	90.683	95.306	175.197	94.598	-8191	255	
8553.673	1	1	0	0	0.11254	0.02349	0.077473	0.22494	0.24085	0.20213	0.19698	0.090617	0.25712	0.18028	0.24299	0.31898	0.25118	0.1123	0.059438	0.11311	-1.8917	-2.7062	-2.5604	-2.7104	-2.6958	-2.575	-2.8583	-2.8979	-2.3604	-2.8625	-2.55	-2.6458	-2.9271	-2.4354	-2.6813	-2.8375	376.367	388.075	377.788	388.228	357.026	163.342	379.597	410.241	268.917	269.954	384.703	360.083	361.001	87.214	148.561	71.022	0.00092911	0.0004048	0.00011035	1407.6	5.4155e-06	6.9003e-06	1402.4	369.13	7.6444e-06	7.7709e-06	420.13	137.23	119.99	40.365	4.1278e-07	50.013	0.00045815	0.00044534	0.00012432	1434.3	4.8926e-06	4.816e-06	1422.6	375.63	4.887e-06	4.9007e-06	426.73	139.65	122.15	41.444	4.8873e-06	51.469	95.721	172.883	182.043	81.534	226.262	222.739	81.602	86.441	203.585	188.579	85.615	90.395	90.698	95.367	403.300	94.489	-8191	255	
8553.770	1	1	0	0	0.2791	0.23514	0.12942	0.19794	0.21782	0.26403	0.092366	0.076063	0.15336	0.12129	0.22316	0.12561	0.17261	0.24799	0.055507	0.11727	-1.7313	-2.9125	-2.6896	-2.6854	-2.8937	-2.6271	-2.9792	-2.9479	-2.4104	-2.7979	-2.7854	-2.5646	-3.1312	-2.6917	-2.5021	-3.0083	336.900	93.345	181.965	390.631	76.727	144.370	351.246	378.168	121.642	390.453	154.829	342.039	216.656	310.748	202.389	83.850	0.001003	0.00042435	0.00019927	1412.5	6.3826e-06	5.6263e-06	1401.8	368.8	8.3766e-06	4.619e-06	420.62	137.5	120.07	40.513	7.4756e-06	49.99	0.00045554	0.00044543	0.00012317	1437.1	4.7774e-06	4.8097e-06	1423	375.39	4.7609e-06	4.8145e-06	427.83	139.83	122.08	41.505	4.796e-06	51.359	93.457	167.948	161.171	81.684	187.789	260.956	81.281	86.421	246.577	259.419	85.567	90.035	91.000	95.449	184.775	94.388	-8191	255	
8553.841	1	1	0	0	0.086892	0.33656	0.24629	0.054428	0.20116	0.13893	0.16577	0.092394	0.15575	0.27566	0.13304	0.23219	0.17282	0.173	0.088732	0.15791	-1.9958	-2.7354	-2.7521	-2.5646	-2.8646	-2.5292	-2.7229	-3.0417	-2.3646	-2.675	-2.8021	-2.4938	-2.8542	-2.6271	-2.5333	-2.9625	320.922	299.704	370.112	297.252	168.967	329.567	381.491	367.770	242.044	119.256	322.210	406.278	378.919	129.008	248.404	251.581	0.0011468	0.00057656	0.00011793	1416.3	3.7668e-06	5.7295e-06	1399.1	370.26	4.9991e-06	3.3228e-06	420.31	137.51	119.6	40.332	1.5185e-06	50.073	0.00045118	0.00044299	0.00012166	1435.3	4.7503e-06	4.855e-06	1420.8	375.42	4.8153e-06	4.8113e-06	426.7	139.61	121.57	41.445	4.8642e-06	51.453	96.735	119.008	148.380	81.654	249.650	243.239	81.556	86.092	234.676	207.284	85.806	90.500	90.833	95.128	304.537	94.314	-8191	255	
8553.937	1	1	0	0	0.081985	0.31505	0.25812	0.29017	0.18021	0.19269	0.19188	0.21565	0.17092	0.09709	0.19943	0.050365	0.19413	0.42684	0.14996	0.33537	-2.0125	-2.5687	-2.7062	-2.4875	-2.8625	-2.7729	-2.75	-3.1562	-2.4375	-2.7229	-2.7667	-2.5812	-3.0333	-2.8187	-2.4583	-2.9417	337.184	98.740	193.708	384.339	205.691	257.741	362.272	418.654	217.781	426.980	378.755	69.012	357.016	417.771	229.934	68.869	0.0011171	0.00062343	0.00012017	1415.7	5.5126e-06	2.2827e-06	1405.5	369.07	8.1646e-06	2.6185e-06	419.52	137.78	119.79	40.48	5.3576e-06	49.932	0.00045991	0.00043947	0.0001231	1434	4.8078e-06	4.808e-06	1422.4	375.14	4.7644e-06	4.7876e-06	427.01	139.64	121.77	41.536	4.7899e-06	51.394	95.763	142.885	212.372	81.672	174.102	237.231	81.589	86.281	201.483	235.242	85.944	90.449	90.828	95.340	173.406	94.362	-8191	255	
#DATA ENDS
