BOXY.EXE: ISS Imagent and Oximeter Data Acquisition Program Version 0.80
Ascii Record File

#ACQ INFORMATION
2  Detector Channels 
16  External MUX Channels 
1  Auxiliary Channels 
5000  Waveform (CCF) Frequency (Hz)
1  Waveforms Skipped 
30  Waveforms Averaged 
1  Cycles Averaged 
16  Acquisitions per Waveform 
10.0806  Updata Rate (Hz) 

#FILE INFORMATION
TRUE -- External MUX Channel results are PARSED.
FALSE -- AC DC and Phase are NOT grouped.
TRUE -- Companion Program Settings File CREATED.
FALSE -- AC data not excluded
FALSE -- DC data not excluded
FALSE -- Phase data not excluded
FALSE -- Auxillary Chn. data not excluded
Tab delimiters

#CALIBRATION STATE
TRUE -- Waveform Calibration Values APPLIED.


#AUX CALIBRATION VALUES
Val Type	aux-1	

Term	1.0000e+00	
Factor	0.0000e+00	


#WF CALIBRATION VALUES
A = Detector Channel
Val Type	A-AC1	A-AC2	A-AC3	A-AC4	A-AC5	A-AC6	A-AC7	A-AC8	A-AC9	A-AC10	A-AC11	A-AC12	A-AC13	A-AC14	A-AC15	A-AC16	A-DC1	A-DC2	A-DC3	A-DC4	A-DC5	A-DC6	A-DC7	A-DC8	A-DC9	A-DC10	A-DC11	A-DC12	A-DC13	A-DC14	A-DC15	A-DC16	A-Ph1	A-Ph2	A-Ph3	A-Ph4	A-Ph5	A-Ph6	A-Ph7	A-Ph8	A-Ph9	A-Ph10	A-Ph11	A-Ph12	A-Ph13	A-Ph14	A-Ph15	A-Ph16	

Term	0.00000e+00	0.00000e+00	0.00000e+00	0.00000e+00	0.00000e+00	0.00000e+00	0.00000e+00	0.00000e+00	0.00000e+00	0.00000e+00	0.00000e+00	0.00000e+00	0.00000e+00	0.00000e+00	0.00000e+00	0.00000e+00	0.00000e+00	0.00000e+00	0.00000e+00	0.00000e+00	0.00000e+00	0.00000e+00	0.00000e+00	0.00000e+00	0.00000e+00	0.00000e+00	0.00000e+00	0.00000e+00	0.00000e+00	0.00000e+00	0.00000e+00	0.00000e+00	0.00000e+00	0.00000e+00	0.00000e+00	0.00000e+00	0.00000e+00	0.00000e+00	0.00000e+00	0.00000e+00	0.00000e+00	0.00000e+00	0.00000e+00	0.00000e+00	0.00000e+00	0.00000e+00	0.00000e+00	0.00000e+00	
Factor	1.00000e+00	1.00000e+00	1.00000e+00	1.00000e+00	1.00000e+00	1.00000e+00	1.00000e+00	1.00000e+00	1.00000e+00	1.00000e+00	1.00000e+00	1.00000e+00	1.00000e+00	1.00000e+00	1.00000e+00	1.00000e+00	1.00000e+00	1.00000e+00	1.00000e+00	1.00000e+00	1.00000e+00	1.00000e+00	1.00000e+00	1.00000e+00	1.00000e+00	1.00000e+00	1.00000e+00	1.00000e+00	1.00000e+00	1.00000e+00	1.00000e+00	1.00000e+00	X	X	X	X	X	X	X	X	X	X	X	X	X	X	X	X	

B = Detector Channel
Val Type	B-AC1	B-AC2	B-AC3	B-AC4	B-AC5	B-AC6	B-AC7	B-AC8	B-AC9	B-AC10	B-AC11	B-AC12	B-AC13	B-AC14	B-AC15	B-AC16	B-DC1	B-DC2	B-DC3	B-DC4	B-DC5	B-DC6	B-DC7	B-DC8	B-DC9	B-DC10	B-DC11	B-DC12	B-DC13	B-DC14	B-DC15	B-DC16	B-Ph1	B-Ph2	B-Ph3	B-Ph4	B-Ph5	B-Ph6	B-Ph7	B-Ph8	B-Ph9	B-Ph10	B-Ph11	B-Ph12	B-Ph13	B-Ph14	B-Ph15	B-Ph16	

Term	0.00000e+00	0.00000e+00	0.00000e+00	0.00000e+00	0.00000e+00	0.00000e+00	0.00000e+00	0.00000e+00	0.00000e+00	0.00000e+00	0.00000e+00	0.00000e+00	0.00000e+00	0.00000e+00	0.00000e+00	0.00000e+00	0.00000e+00	0.00000e+00	0.00000e+00	0.00000e+00	0.00000e+00	0.00000e+00	0.00000e+00	0.00000e+00	0.00000e+00	0.00000e+00	0.00000e+00	0.00000e+00	0.00000e+00	0.00000e+00	0.00000e+00	0.00000e+00	-9.73976e+01	-1.30849e+02	-1.20817e+02	-1.83215e+02	-5.41678e+01	-7.09084e+01	-1.60645e+02	-1.62015e+02	-5.77483e+01	-6.73109e+01	-1.72614e+02	-1.72392e+02	-1.82625e+02	-1.77464e+02	-6.51920e+01	-1.50396e+02	
Factor	1.53672e-05	1.55372e-04	4.49486e-05	1.55281e-01	1.27500e-06	1.63856e-06	1.77095e-01	5.59097e-02	1.17167e-06	1.81651e-06	8.77361e-02	2.76348e-02	2.61606e-02	8.30710e-03	1.34094e-06	1.23201e-02	5.68249e-06	7.41094e-06	2.07059e-06	7.96841e-02	7.84201e-08	8.14664e-08	8.56640e-02	2.88410e-02	7.84201e-08	8.17892e-08	4.38204e-02	1.39077e-02	1.36851e-02	4.31291e-03	8.00245e-08	6.19896e-03	X	X	X	X	X	X	X	X	X	X	X	X	X	X	X	X	



#DISTANCE SETTINGS
A = Detector Channel
A-1	A-2	A-3	A-4	A-5	A-6	A-7	A-8	A-9	A-10	A-11	A-12	A-13	A-14	A-15	A-16	

2.5000e+00	3.0000e+00	2.5000e+00	3.0000e+00	2.0000e+00	3.0000e+00	1.5000e+00	3.0000e+00	3.0000e+00	3.0000e+00	3.0000e+00	3.0000e+00	3.0000e+00	3.0000e+00	1.5000e+00	3.0000e+00	

B = Detector Channel
B-1	B-2	B-3	B-4	B-5	B-6	B-7	B-8	B-9	B-10	B-11	B-12	B-13	B-14	B-15	B-16	

1.0000e+01	1.0000e+01	1.0000e+01	1.4400e+00	1.0000e+01	1.0000e+01	1.5100e+00	1.9400e+00	1.0000e+01	1.0000e+01	1.9900e+00	2.4900e+00	2.4100e+00	2.9000e+00	1.0000e+01	2.9800e+00	




#DATA BEGINS
time	group	step	mark	flag	A-AC1	A-AC2	A-AC3	A-AC4	A-AC5	A-AC6	A-AC7	A-AC8	A-AC9	A-AC10	A-AC11	A-AC12	A-AC13	A-AC14	A-AC15	A-AC16	A-DC1	A-DC2	A-DC3	A-DC4	A-DC5	A-DC6	A-DC7	A-DC8	A-DC9	A-DC10	A-DC11	A-DC12	A-DC13	A-DC14	A-DC15	A-DC16	A-Ph1	A-Ph2	A-Ph3	A-Ph4	A-Ph5	A-Ph6	A-Ph7	A-Ph8	A-Ph9	A-Ph10	A-Ph11	A-Ph12	A-Ph13	A-Ph14	A-Ph15	A-Ph16	B-AC1	B-AC2	B-AC3	B-AC4	B-AC5	B-AC6	B-AC7	B-AC8	B-AC9	B-AC10	B-AC11	B-AC12	B-AC13	B-AC14	B-AC15	B-AC16	B-DC1	B-DC2	B-DC3	B-DC4	B-DC5	B-DC6	B-DC7	B-DC8	B-DC9	B-DC10	B-DC11	B-DC12	B-DC13	B-DC14	B-DC15	B-DC16	B-Ph1	B-Ph2	B-Ph3	B-Ph4	B-Ph5	B-Ph6	B-Ph7	B-Ph8	B-Ph9	B-Ph10	B-Ph11	B-Ph12	B-Ph13	B-Ph14	B-Ph15	B-Ph16	aux-1	digaux	

673.428	1	1	0	256	0.31187	0.1026	0.24258	0.067001	0.1244	0.12996	0.26931	0.20403	0.088703	0.19244	0.079693	0.21514	0.29416	0.085107	0.21352	0.078533	-2.0896	-2.3854	-2.7438	-2.6167	-2.6229	-2.8104	-2.4	-2.8229	-2.6146	-2.6125	-2.8729	-2.5125	-2.525	-2.8458	-2.3479	-3.1354	272.338	299.642	78.363	333.766	240.451	372.734	379.465	349.248	264.589	132.498	414.297	410.410	77.289	81.413	367.730	380.735	0.00021879	0.00012231	0.00014106	1160.1	3.5235e-06	3.4302e-06	1260.6	251.29	4.156e-06	2.6758e-06	316.1	85.17	67.433	19.819	8.6867e-07	27.395	0.00038738	0.00042599	0.00011646	1143.2	4.7875e-06	4.6045e-06	1244	251.56	4.5882e-06	4.5601e-06	314.83	86.03	68.213	20.17	4.5699e-06	27.89	199.362	186.093	201.400	73.079	250.707	211.387	73.521	80.774	216.279	258.730	80.147	87.457	87.175	93.843	227.002	93.724	-8191	255	
673.499	1	1	0	0	0.13096	0.25049	0.075745	0.13819	0.011412	0.21681	0.26126	0.19044	0.23102	0.1604	0.0060948	0.033799	0.30711	0.34382	0.09362	0.077212	-2.1792	-2.3583	-2.85	-2.4938	-2.5021	-2.7562	-2.625	-2.8792	-2.5417	-2.5375	-2.9729	-2.6479	-2.5312	-2.8625	-2.3792	-2.975	127.194	165.964	399.305	70.990	186.739	395.994	132.424	199.721	383.289	381.089	415.991	122.213	147.580	341.326	148.699	377.279	0.0002354	0.00024126	6.245e-05	1161.6	7.2965e-06	3.9225e-06	1259.1	252.69	3.5236e-06	2.4268e-06	314.98	85.596	67.16	19.694	3.3598e-06	27.333	0.00038071	0.0004187	0.00011518	1144.8	4.544e-06	4.5244e-06	1242.4	251.24	4.5649e-06	4.5086e-06	313.9	86.287	68.071	20.136	4.4935e-06	27.844	191.858	107.630	95.315	73.278	252.586	200.549	73.579	80.644	227.147	234.474	80.144	86.956	87.571	93.823	258.605	93.617	-8191	255	
673.620	1	1	0	0	0.098097	0.18924	0.13919	0.30593	0.151	0.14029	0.30597	0.25814	0.17017	0.24864	0.18871	0.56031	0.16194	0.15098	0.078957	0.22192	-2.1688	-2.3417	-2.8937	-2.7188	-2.5667	-2.9688	-2.7104	-2.8104	-2.5333	-2.2646	-2.975	-2.7833	-2.2854	-2.9813	-2.5979	-2.5875	317.453	162.818	261.014	377.782	330.745	162.994	417.112	352.007	355.090	334.619	149.560	243.059	320.818	389.787	262.731	339.789	0.00021135	0.00022719	0.00010699	1156.4	3.9645e-06	1.419e-06	1261.3	252.11	2.7326e-06	2.1122e-06	316.64	85.181	67.871	19.819	2.5248e-06	27.354	0.00036916	0.00041151	0.00011143	1142.2	4.5315e-06	4.4499e-06	1242.3	251.55	4.3624e-06	4.5149e-06	314.06	86.009	68.271	20.15	4.3238e-06	27.849	192.620	153.249	142.066	73.227	259.986	234.368	73.336	80.470	277.160	234.851	80.406	87.231	87.795	93.957	248.537	94.048	-8191	255	
673.716	1	1	0	0	0.11881	0.095115	0.24185	0.17399	0.21865	0.15672	0.13241	0.34366	0.179	0.23571	0.16418	0.12093	0.057557	0.20337	0.31857	0.095746	-2.4167	-2.4354	-2.8625	-2.6917	-2.3521	-2.8563	-2.5875	-2.7625	-2.8542	-2.4188	-2.7479	-2.7562	-2.325	-3.0938	-2.5542	-2.7396	300.711	174.639	188.985	328.676	106.297	141.299	377.079	325.873	416.784	410.526	69.969	277.405	280.468	396.014	229.344	366.887	0.00027043	0.00033338	9.6155e-05	1156.3	2.8128e-06	1.7279e-06	1254.9	252.18	2.4643e-06	2.9462e-06	315.86	85.532	67.632	19.704	2.2647e-06	27.242	0.00037136	0.00040115	0.00011048	1141.5	4.4069e-06	4.4591e-06	1241.3	250.89	4.2646e-06	4.4062e-06	313.29	85.976	68.159	20.174	4.3415e-06	27.791	191.343	177.673	193.922	73.302	246.315	174.427	73.731	80.559	228.771	183.047	80.200	87.167	87.518	93.984	210.837	93.238	-8191	255	
673.812	1	1	0	0	0.063997	0.072257	0.22662	0.23331	0.23461	0.10413	0.42385	0.12532	0.14507	0.14031	0.075952	0.12364	0.090653	0.22938	0.25458	0.19863	-2.4042	-2.4104	-2.5667	-2.7875	-2.2812	-2.7271	-2.7979	-2.575	-2.8	-2.4083	-2.7854	-2.7021	-2.3083	-2.775	-2.4917	-2.6208	376.053	164.316	251.655	374.160	223.923	206.814	342.564	370.677	186.920	97.387	233.278	291.775	340.411	84.952	325.428	367.878	0.00020549	0.00041508	1.5076e-05	1154	3.3591e-06	4.4446e-06	1253.6	250.48	5.1348e-06	5.0613e-06	314.86	85.05	67.111	19.59	1.3064e-06	27.262	0.0003649	0.00040232	0.00011176	1139.7	4.3206e-06	4.3087e-06	1239.5	250.61	4.287e-06	4.3146e-06	313.81	85.691	67.792	20.019	4.3582e-06	27.802	191.759	157.526	173.541	73.200	281.960	207.795	73.681	80.300	237.730	202.686	80.338	87.179	87.596	93.748	213.634	93.492	-8191	255	
673.933	1	1	0	0	0.020597	0.21678	0.15229	0.42421	0.33285	0.088191	0.15372	0.11969	0.28074	0.20305	0.27395	0.095236	0.10487	0.28446	0.068243	0.22416	-2.2687	-2.2938	-2.7188	-2.9792	-2.4313	-2.9271	-2.5187	-2.6292	-3.1375	-2.3958	-2.7417	-2.7938	-2.3896	-2.6792	-2.7542	-2.3646	288.317	228.842	214.297	356.489	352.855	209.007	360.808	366.883	180.509	288.966	347.467	408.200	379.779	263.718	215.497	238.539	0.00020634	0.00038285	5.9551e-05	1157.9	4.4408e-06	2.9547e-06	1257.4	249.6	5.4168e-06	4.4501e-06	313.84	85.047	67.23	19.539	2.4432e-06	27.006	0.00036342	0.00039332	0.00010875	1139.2	4.3223e-06	4.2079e-06	1239.5	250.04	4.3446e-06	4.3733e-06	312.73	85.702	67.741	19.973	4.3845e-06	27.616	192.295	139.384	140.027	73.193	212.931	158.344	73.555	80.379	263.831	252.748	79.877	87.177	87.340	93.721	232.342	93.587	-8191	255	
674.029	1	1	0	0	0.07367	0.224	0.1627	0.095311	0.18185	0.22721	0.17685	0.1724	0.03028	0.07167	0.2197	0.37477	0.24828	0.077274	0.20346	0.24294	-2.3792	-2.4729	-2.4729	-2.7833	-2.5146	-2.85	-2.8458	-2.5271	-2.925	-2.5625	-2.5979	-3.0208	-2.2271	-2.7542	-2.7521	-2.3854	253.729	236.250	267.858	115.289	228.867	320.333	378.959	336.960	72.002	92.914	414.328	64.980	405.030	125.483	313.297	303.585	0.00020793	0.0003566	9.6892e-05	1156.8	3.0543e-06	3.9411e-06	1257.1	250.26	2.7685e-06	4.6055e-06	313.96	84.514	67.322	19.523	4.5926e-06	27.358	0.00036178	0.00039068	0.00010983	1138.9	4.3655e-06	4.2865e-06	1238.8	249.86	4.2677e-06	4.3227e-06	313	85.415	67.865	19.961	4.2625e-06	27.753	204.974	139.686	148.064	73.122	216.608	211.623	73.446	80.637	213.650	226.173	80.268	87.577	87.599	93.847	184.141	93.969	-8191	255	
674.101	1	1	0	0	0.15107	0.11008	0.07357	0.2336	0.16155	0.2217	0.2428	0.12668	0.14843	0.2034	0.14454	0.11425	0.14257	0.078709	0.26407	0.14339	-2.5521	-2.675	-2.5312	-2.9708	-2.4875	-2.6229	-2.6125	-2.4583	-2.7333	-2.7333	-2.4729	-2.9771	-2.6146	-2.7938	-2.7292	-2.4437	151.390	253.348	184.800	352.093	289.589	77.792	371.390	134.733	381.971	405.992	373.741	292.693	236.578	413.680	155.779	374.729	0.00025282	7.0872e-05	0.00012437	1158.8	4.7848e-06	2.3362e-06	1255.4	251.72	2.4257e-06	4.2767e-06	314.95	84.797	66.696	19.545	5.1536e-07	26.998	0.0003663	0.00040735	0.00011099	1138.8	4.4093e-06	4.3831e-06	1238.2	249.68	4.3144e-06	4.4304e-06	312.47	85.534	67.457	20.004	4.3572e-06	27.571	194.595	151.079	171.983	73.174	236.443	230.046	73.490	80.496	219.037	227.460	79.870	86.786	87.266	94.012	185.529	94.043	-8191	255	
674.219	1	1	0	0	0.031265	0.25513	0.16613	0.24733	0.17415	0.090496	0.18738	0.11695	0.2575	0.051862	0.094101	0.22255	0.14039	0.16748	0.18555	0.060136	-2.3604	-2.5938	-2.4604	-2.9167	-2.5396	-2.5958	-3.0521	-2.3542	-2.7646	-2.8354	-2.5708	-2.9688	-2.5604	-2.5729	-2.7625	-2.3063	182.036	401.182	346.627	353.130	284.314	267.824	142.566	344.209	215.216	254.116	371.479	77.151	84.644	317.994	240.798	358.266	0.00022301	0.00027885	5.588e-05	1154	1.8654e-06	4.3938e-06	1253	249.62	1.6724e-06	3.6085e-06	313.49	85.002	67.282	19.653	2.6363e-06	27.177	0.0003622	0.00040249	0.00010833	1138.2	4.3e-06	4.2897e-06	1236.8	249.62	4.2435e-06	4.2014e-06	312.51	85.547	67.734	20.008	4.2371e-06	27.63	196.397	136.818	158.834	73.280	237.665	228.828	73.614	80.529	280.523	194.554	80.142	87.115	87.429	93.740	225.655	93.693	-8191	255	
674.316	1	1	0	0	0.20714	0.16509	0.10293	0.14	0.070288	0.13987	0.23042	0.14493	0.14782	0.065273	0.032984	0.14043	0.10388	0.18569	0.22694	0.23606	-2.2313	-2.5417	-2.3917	-2.9437	-2.4979	-2.6104	-3.1021	-2.6437	-2.7375	-2.7729	-2.4625	-2.7333	-2.7083	-2.5354	-2.9646	-2.4042	324.717	367.065	216.334	215.968	334.302	258.755	365.092	280.515	105.588	330.234	319.031	309.576	350.780	285.515	332.030	357.889	0.0002254	0.00053125	0.00012396	1156.3	3.2207e-06	1.2074e-06	1256	250.55	2.258e-06	1.7415e-06	313.93	85.278	67.359	19.817	2.0245e-06	27.222	0.00036087	0.00038521	0.00010806	1139.5	4.2819e-06	4.1531e-06	1238.1	249.61	4.2788e-06	4.2909e-06	312.5	85.551	67.879	20.087	4.34e-06	27.695	197.996	159.989	194.423	73.374	235.003	165.687	73.749	80.722	288.534	280.673	80.193	87.242	87.242	94.051	225.616	93.534	-8191	255	
674.412	1	1	0	0	0.20044	0.19122	0.21094	0.1619	0.086516	0.26879	0.21081	0.21845	0.10246	0.11028	0.27605	0.10857	0.21471	0.096123	0.17061	0.30664	-2.2625	-2.9167	-2.275	-3.0542	-2.5208	-2.5583	-3.1417	-2.6354	-2.6937	-2.6958	-2.4958	-2.8458	-2.6167	-2.55	-2.9917	-2.7021	345.725	236.615	254.992	333.594	354.938	350.749	361.916	194.130	365.811	128.072	344.603	378.278	280.905	410.256	272.354	147.741	0.00023868	0.00051719	0.00010462	1153.6	2.0315e-06	2.6996e-06	1253.8	251.16	3.4248e-06	6.1185e-06	315	84.763	66.913	19.699	4.7324e-06	27.122	0.0003653	0.00039141	0.00011118	1138.1	4.3489e-06	4.2303e-06	1237.5	250.32	4.2806e-06	4.3067e-06	313.46	85.562	67.88	20.068	4.3007e-06	27.711	189.734	160.892	181.122	73.408	230.535	216.209	73.482	80.593	206.380	203.170	80.547	87.313	87.563	93.996	210.724	93.669	-8191	255	
674.508	1	1	0	0	0.12246	0.12426	0.28574	0.15969	0.20025	0.24802	0.29443	0.1827	0.10704	0.094585	0.15995	0.15432	0.21671	0.37081	0.19336	0.34072	-2.2396	-2.8042	-2.4146	-2.925	-2.6479	-2.4562	-2.9688	-2.5667	-2.5875	-2.8667	-2.5062	-2.9875	-2.5542	-2.5667	-2.8979	-2.6833	108.552	280.207	102.295	370.991	65.150	188.972	421.760	362.528	402.376	233.789	345.830	106.797	390.492	358.277	421.447	340.923	0.00023693	0.0003672	6.0582e-05	1158.3	3.3874e-06	2.6255e-06	1250.7	250.62	4.1616e-06	3.2694e-06	313.95	85.309	67.254	19.514	3.4285e-06	27.393	0.00036596	0.00040013	0.00010893	1139.7	4.3615e-06	4.405e-06	1238.1	250.25	4.42e-06	4.4819e-06	312.54	85.584	67.852	19.987	4.487e-06	27.794	193.094	140.415	162.733	73.214	233.212	224.828	73.454	80.266	233.446	199.824	80.230	87.195	87.741	93.982	239.009	94.027	-8191	255	
674.629	1	1	0	0	0.12558	0.26867	0.10498	0.35116	0.036309	0.16359	0.22279	0.18592	0.16891	0.28683	0.094512	0.10536	0.091213	0.21418	0.17868	0.18875	-2.1792	-2.7062	-2.3458	-2.8375	-2.5708	-2.2208	-2.9167	-2.8104	-2.4771	-2.9167	-2.4208	-2.7521	-2.9521	-2.3458	-2.6312	-2.6208	385.295	354.016	112.109	397.421	311.207	416.184	377.955	342.668	66.467	419.461	149.215	307.552	76.867	285.515	219.770	116.966	0.00021393	0.00025533	6.3855e-05	1155	4.4749e-06	1.5405e-06	1251.3	251.4	3.04e-06	2.4698e-06	313.31	84.77	66.696	19.518	3.9327e-06	27.188	0.00037776	0.00040433	0.0001168	1139.6	4.5917e-06	4.5154e-06	1236.4	249.83	4.4253e-06	4.5587e-06	312.22	85.389	67.595	19.954	4.4787e-06	27.697	198.879	190.714	155.540	73.182	243.962	213.509	73.563	80.576	183.280	225.053	80.618	87.416	87.629	93.824	180.934	94.095	-8191	255	
674.725	1	1	0	0	0.073938	0.040641	0.12143	0.11378	0.17238	0.12613	0.26493	0.096605	0.28816	0.083824	0.23878	0.12883	0.088507	0.2398	0.047958	0.14296	-2.0979	-2.7021	-2.3667	-2.8312	-2.8688	-2.3688	-2.9188	-2.7	-2.4646	-2.9854	-2.575	-2.7021	-2.725	-2.2438	-2.7188	-2.6542	317.051	64.496	355.608	272.099	114.033	195.542	373.756	287.787	179.720	388.343	199.894	383.620	260.463	350.669	93.836	131.025	0.00021788	0.00028792	8.4333e-05	1155.3	3.1054e-06	4.2324e-06	1247.7	251.31	3.1977e-06	1.8806e-06	312.45	84.62	67.125	19.711	2.2903e-06	27.321	0.00037195	0.00039976	0.00011392	1139.4	4.5493e-06	4.4085e-06	1235	249.86	4.4605e-06	4.6095e-06	312.18	85.508	67.703	20.022	4.5434e-06	27.73	204.181	104.339	152.215	73.134	230.048	183.894	73.597	80.729	229.060	148.816	80.232	87.167	87.252	94.185	242.123	93.693	-8191	255	
674.796	1	1	0	0	0.18837	0.21948	0.13212	0.19439	0.069367	0.31188	0.23805	0.084248	0.058924	0.082659	0.24226	0.16029	0.25077	0.087071	0.18645	0.12278	-1.9208	-2.7188	-2.4729	-2.8333	-2.8521	-2.4625	-2.9771	-2.775	-2.3083	-3.0479	-2.6604	-2.475	-2.9271	-2.3187	-2.7125	-2.6854	346.158	313.639	172.203	370.393	134.298	217.024	363.980	422.294	152.726	352.493	417.424	353.089	331.179	395.959	341.293	327.936	0.00022057	0.00028795	0.00013512	1151.7	4.7817e-06	5.6096e-06	1251.1	250.94	4.8017e-06	4.3442e-06	313.7	84.536	67.026	19.553	2.9906e-06	27.081	0.00038771	0.00040589	0.00011512	1137.1	4.4224e-06	4.4316e-06	1237	249.87	4.4025e-06	4.3382e-06	312.62	85.636	67.662	20.031	4.5259e-06	27.706	194.513	169.953	169.156	73.285	216.261	185.100	73.726	80.452	211.773	192.258	80.266	87.137	87.270	93.769	274.199	94.016	-8191	255	
674.892	1	1	0	0	0.22002	0.19709	0.067002	0.14883	0.1767	0.13554	0.40022	0.18749	0.13621	0.16128	0.10009	0.084508	0.18564	0.13922	0.089459	0.17572	-2.0146	-2.8396	-2.4542	-2.7375	-2.8625	-2.6229	-2.9104	-2.9896	-2.3063	-2.8146	-2.8917	-2.6	-2.9417	-2.5771	-2.6604	-2.9667	132.981	365.103	89.557	385.232	191.274	160.218	342.440	327.353	307.469	238.411	364.590	69.130	69.608	80.424	180.610	148.430	0.0002128	0.00043535	0.00011552	1157	5.5871e-06	5.3777e-06	1249.6	251.22	3.2297e-06	4.5383e-06	312.33	84.168	67.403	19.469	5.0331e-06	27.049	0.00037791	0.00040336	0.00011226	1139.3	4.4811e-06	4.5263e-06	1237.7	250.4	4.5268e-06	4.432e-06	312.45	85.379	67.761	19.941	4.417e-06	27.649	191.509	164.402	152.883	73.350	234.349	194.700	73.553	80.578	215.115	235.022	80.244	86.837	87.517	94.386	194.107	93.584	-8191	255	
675.013	1	1	0	0	0.17442	0.27525	0.074223	0.17242	0.047447	0.25093	0.28332	0.15961	0.15802	0.12127	0.080665	0.066095	0.21871	0.23899	0.075637	0.12394	-1.8813	-2.8563	-2.6229	-2.8542	-2.8563	-2.5104	-2.6708	-2.9604	-2.3917	-2.8063	-2.9146	-2.3729	-2.8458	-2.4	-2.6104	-3.0563	279.124	312.045	395.436	359.948	153.337	194.895	339.367	87.968	329.472	147.379	307.777	349.165	404.712	412.478	150.792	280.120	0.00022439	0.0005091	3.8091e-05	1153.6	1.8433e-06	1.9568e-06	1252.5	250.7	5.5931e-06	3.5586e-06	312.67	84.976	66.933	19.637	3.1169e-06	27.088	0.00037815	0.00040674	0.0001125	1137.5	4.4013e-06	4.4616e-06	1237	250.17	4.3409e-06	4.4473e-06	312.2	85.529	67.551	20.025	4.4199e-06	27.584	202.270	176.501	173.962	73.132	234.931	222.188	73.455	80.373	223.866	143.003	80.351	87.339	87.900	94.002	207.188	93.876	-8191	255	
675.108	1	1	0	0	0.30804	0.057164	0.043547	0.37252	0.18475	0.078984	0.33816	0.14928	0.17752	0.084934	0.071159	0.24642	0.1195	0.16852	0.20699	0.062605	-1.9042	-2.7438	-2.7229	-2.7042	-2.9042	-2.6833	-2.85	-3.0479	-2.3417	-2.6979	-2.7542	-2.3312	-3.0271	-2.7125	-2.4437	-2.9708	174.633	301.133	134.915	368.737	279.288	253.999	365.660	149.920	335.015	139.742	233.715	321.454	349.821	135.254	75.319	319.756	0.00021612	0.00038256	0.00013871	1157.2	3.1712e-06	4.1812e-06	1256.1	250.65	5.0839e-06	4.3049e-06	313.74	84.936	66.967	19.746	2.3131e-06	27.25	0.00036428	0.00039778	0.00011157	1140.2	4.3889e-06	4.5866e-06	1238.1	249.81	4.7709e-06	4.6974e-06	312.96	85.734	67.8	20.08	4.7243e-06	27.687	197.520	134.733	165.066	73.268	239.499	236.226	73.540	80.484	197.549	165.092	80.054	87.333	87.797	93.977	189.638	93.985	-8191	255	
675.204	1	1	0	0	0.15268	0.16927	0.096688	0.2462	0.18048	0.25482	0.052778	0.25013	0.13423	0.11504	0.17991	0.088154	0.11399	0.18822	0.15734	0.14546	-2.1104	-2.6583	-2.6708	-2.5458	-2.8563	-2.8167	-2.5333	-2.9062	-2.5292	-2.7646	-2.9625	-2.3104	-2.7313	-2.7	-2.4646	-2.9104	159.487	103.000	328.815	402.191	380.610	409.086	282.402	381.889	282.758	333.062	356.836	267.399	65.037	172.736	122.976	409.972	0.00022964	0.00029591	8.9614e-05	1151.1	2.43e-06	2.5477e-06	1257.8	249.91	2.3345e-06	5.235e-06	313.55	84.548	67.307	19.567	6.555e-07	27.054	0.00038318	0.00041707	0.00011606	1137.7	4.5645e-06	4.5093e-06	1237.9	249.31	4.2411e-06	4.3399e-06	311.9	85.433	67.651	19.961	4.2055e-06	27.59	198.270	143.957	144.255	73.273	252.350	232.709	73.621	80.709	196.773	202.808	80.234	87.301	87.618	94.169	287.915	93.896	-8191	255	
675.300	1	1	0	0	0.22008	0.089206	0.28749	0.18107	0.075459	0.22803	0.13311	0.060032	0.16223	0.2452	0.16861	0.075563	0.11635	0.21937	0.27965	0.013419	-2	-2.5021	-2.8583	-2.5604	-2.8187	-2.6917	-2.45	-3.1021	-2.6708	-2.625	-2.8479	-2.4729	-2.8708	-2.8	-2.4417	-2.8438	314.075	101.475	84.251	130.933	392.306	296.562	303.027	398.604	70.886	401.386	399.412	399.802	67.085	150.051	122.271	313.850	0.00022695	0.00034199	3.1281e-05	1153.7	3.8867e-06	2.934e-06	1251	249.49	3.7526e-06	3.8913e-06	311.23	84.009	66.317	19.486	2.033e-06	26.809	0.00035323	0.00038311	0.00010666	1135.9	4.1793e-06	4.0995e-06	1235	248.38	4.1788e-06	4.0743e-06	310.87	84.963	67.183	19.912	4.2431e-06	27.549	194.557	193.807	188.719	73.231	250.862	203.096	73.643	80.712	235.319	191.943	80.310	87.315	87.642	94.099	174.220	93.836	-8191	255	
675.396	1	1	0	0	0.12923	0.23362	0.15554	0.17644	0.16886	0.13351	0.11421	0.19013	0.035225	0.20576	0.11228	0.20544	0.37021	0.20205	0.10656	0.24964	-2.1979	-2.5187	-2.7604	-2.7229	-2.5792	-2.75	-2.5458	-2.7271	-2.4562	-2.4854	-2.9375	-2.3854	-2.625	-2.8729	-2.5417	-2.9688	370.073	298.865	357.890	131.558	398.723	332.630	302.702	356.682	300.565	147.826	329.010	387.334	336.936	416.384	151.703	222.299	0.00020572	0.00038266	0.00011471	1147.6	3.7058e-06	7.1653e-07	1249.5	251.55	3.0576e-06	3.1869e-06	313.57	84.421	66.543	19.518	3.0116e-06	27.142	0.00035376	0.0003908	0.00010739	1135.7	4.2198e-06	4.11e-06	1234.7	249.02	4.0925e-06	4.2176e-06	311.41	85.222	67.202	19.863	4.1353e-06	27.558	192.955	141.938	163.988	73.252	243.007	85.647	73.581	80.783	221.057	229.880	80.416	87.357	87.819	94.170	222.163	94.203	-8191	255	
675.492	1	1	0	0	0.2859	0.16535	0.056673	0.3179	0.025057	0.28733	0.38511	0.13417	0.18356	0.12246	0.18637	0.081617	0.33004	0.33055	0.06233	0.11907	-2.1104	-2.4146	-2.9042	-2.55	-2.6625	-2.8812	-2.5062	-2.9396	-2.7042	-2.4354	-2.8542	-2.6458	-2.5646	-2.9333	-2.3083	-2.6417	309.368	235.609	65.100	398.700	130.063	216.323	383.898	363.278	415.408	297.812	69.929	289.435	203.750	137.030	356.364	349.252	0.00021741	0.00050636	0.00014004	1148.5	2.7438e-06	5.4591e-06	1251	249.77	4.7843e-06	1.2647e-06	313.17	84.226	66.243	19.306	4.6095e-06	26.753	0.0003485	0.00035713	0.00010118	1133.7	3.953e-06	3.841e-06	1233.6	248.28	3.7942e-06	4.0136e-06	310.53	84.835	67.003	19.735	3.947e-06	27.401	196.869	156.634	184.182	73.415	205.800	202.753	73.551	80.701	212.685	254.748	80.249	87.601	87.714	94.341	238.060	94.089	-8191	255	
675.613	1	1	0	0	0.1938	0.15303	0.24463	0.33096	0.085283	0.16049	0.19859	0.08018	0.1778	0.092885	0.13178	0.15106	0.093064	0.17201	0.21425	0.30499	-2.3937	-2.4104	-2.8375	-2.7896	-2.5896	-2.8354	-2.7042	-2.8667	-2.725	-2.5042	-2.8292	-2.5229	-2.3896	-2.8187	-2.525	-2.7271	180.249	367.295	311.832	370.645	291.412	248.482	134.687	371.883	99.587	226.914	284.802	400.122	389.968	133.565	293.633	154.057	0.00021921	0.00027104	0.00010255	1147.9	5.4425e-06	2.4633e-06	1247	249.9	4.4213e-06	2.4198e-06	310.65	83.894	66.84	19.354	3.6588e-06	26.988	0.00034017	0.00037218	9.9902e-05	1132.1	4.0661e-06	3.962e-06	1231	248.29	3.8101e-06	3.8652e-06	309.44	84.65	67.108	19.761	3.782e-06	27.43	195.673	157.068	143.605	73.253	222.165	195.619	73.497	80.641	221.404	134.546	80.449	87.228	87.588	93.684	221.765	93.978	-8191	255	
675.709	1	1	0	0	0.05512	0.21593	0.14833	0.45307	0.046499	0.087063	0.14782	0.068762	0.1023	0.07435	0.17023	0.13277	0.26227	0.035872	0.1653	0.2019	-2.3646	-2.3583	-2.8812	-2.6708	-2.5833	-3.0479	-2.65	-3.0312	-2.9396	-2.375	-2.9104	-2.6479	-2.3521	-2.9437	-2.4458	-2.725	387.665	380.021	289.020	69.692	321.872	339.215	80.224	350.262	338.344	335.244	376.972	391.612	256.406	84.261	107.710	385.544	0.00020082	0.00048862	6.7195e-05	1145.8	4.1175e-06	2.2895e-06	1243.2	250.23	4.1175e-06	3.9843e-06	311.07	84.149	66.398	19.358	3.015e-06	27.193	0.00032419	0.00035671	9.787e-05	1130.3	3.8976e-06	3.6925e-06	1228.3	248.03	3.8235e-06	3.9121e-06	309.78	84.666	66.961	19.734	3.8945e-06	27.432	197.531	139.101	119.732	73.357	214.283	226.034	73.544	80.808	221.381	200.338	80.216	87.189	87.632	93.903	227.401	94.075	-8191	255	
675.805	1	1	0	0	0.23294	0.35162	0.096986	0.11627	0.24261	0.20832	0.052326	0.089321	0.112	0.071825	0.21118	0.024469	0.083409	0.16355	0.15008	0.073291	-2.4479	-2.3604	-2.6937	-2.8812	-2.4062	-2.9375	-2.825	-2.6	-2.8625	-2.4375	-2.7854	-2.8063	-2.4813	-2.8896	-2.4354	-2.5146	359.961	374.169	404.400	342.810	79.924	211.661	326.059	395.523	153.689	132.611	121.585	127.940	393.803	91.158	381.611	91.749	0.00020173	0.00031336	5.6753e-05	1142.7	5.654e-06	3.1528e-06	1242.1	248.72	3.5788e-06	2.9928e-06	310.37	83.555	66.117	19.304	2.8951e-06	26.828	0.00033728	0.00036863	0.00010339	1128.9	4.1282e-06	4.0441e-06	1229.4	247.09	3.8241e-06	3.8698e-06	309.14	84.376	66.749	19.694	3.92e-06	27.344	193.530	156.076	122.845	73.262	240.368	205.349	73.563	80.785	205.541	235.189	80.496	87.243	87.576	93.948	193.265	93.861	-8191	255	
675.901	1	1	0	0	0.13354	0.10277	0.26474	0.29925	0.20184	0.087979	0.15393	0.35365	0.019052	0.34686	0.081149	0.15915	0.24489	0.074848	0.16542	0.21806	-2.2854	-2.3583	-2.5479	-2.8354	-2.2917	-2.7479	-2.7667	-2.5646	-2.9229	-2.4479	-2.8229	-2.7562	-2.3688	-2.8625	-2.8167	-2.3729	349.051	263.847	157.775	389.173	212.670	394.028	318.557	97.141	247.752	415.637	388.371	362.907	350.592	149.826	230.563	369.891	0.00023402	0.00027753	4.4004e-05	1148	4.2525e-06	4.2429e-06	1244.8	247.87	2.3494e-06	5.4938e-06	311	83.257	66.722	19.247	2.5619e-06	26.893	0.00034241	0.00036168	0.00010037	1130	3.948e-06	3.943e-06	1229.9	246.79	3.8014e-06	3.922e-06	309.62	84.231	66.87	19.655	3.898e-06	27.354	194.659	127.599	192.027	73.380	246.532	199.433	73.843	80.731	273.177	221.771	80.179	87.466	87.953	94.481	254.277	94.160	-8191	255	
676.020	1	1	0	0	0.16697	0.19567	0.095715	0.21966	0.18297	0.098417	0.14698	0.090685	0.22918	0.043269	0.10383	0.21977	0.12055	0.13234	0.14442	0.05185	-2.4875	-2.4042	-2.5958	-3.0854	-2.2687	-2.8667	-2.725	-2.4958	-3.0021	-2.4833	-2.6646	-2.8875	-2.525	-2.9958	-2.6417	-2.4792	128.866	160.872	109.033	386.116	188.544	413.974	383.431	159.272	342.838	113.332	82.689	380.128	88.497	128.427	249.968	295.336	0.00022138	0.00045945	6.4173e-05	1147.3	2.7807e-06	2.7373e-06	1247	246.99	2.4812e-06	3.1862e-06	310.46	83.657	66.146	19.333	4.5741e-06	26.672	0.00033122	0.00036221	9.9578e-05	1132.1	4.0179e-06	3.9238e-06	1228.2	247.05	3.7674e-06	3.8357e-06	308.7	84.381	66.819	19.725	3.6941e-06	27.297	196.507	151.215	114.861	73.337	225.118	252.486	73.467	80.753	237.497	208.879	80.493	87.546	87.466	94.078	215.713	93.845	-8191	255	
676.092	1	1	0	0	0.32992	0.31918	0.23375	0.40952	0.1059	0.10673	0.11698	0.20029	0.26729	0.16065	0.1993	0.25348	0.18647	0.20341	0.1367	0.17988	-2.5687	-2.6646	-2.6792	-2.8854	-2.4229	-2.5854	-2.8333	-2.3125	-2.8354	-2.3917	-2.4833	-2.9896	-2.425	-2.8271	-2.625	-2.3312	330.701	209.266	266.113	366.282	173.227	72.708	308.147	362.708	259.130	363.867	359.162	361.382	402.154	218.631	405.502	334.765	0.00020598	0.00025065	4.511e-05	1149.9	3.1715e-06	2.6817e-06	1244.1	248.38	2.8337e-06	3.8518e-06	310.25	83.657	66.982	19.395	1.2851e-06	26.674	0.0003273	0.00033636	9.2314e-05	1132.3	3.8052e-06	3.7293e-06	1229.5	247.27	3.8266e-06	3.704e-06	309.05	84.422	66.97	19.764	3.789e-06	27.391	201.745	115.829	159.074	73.490	242.832	202.622	73.595	80.653	240.586	183.635	80.280	87.347	87.781	94.265	200.728	94.155	-8191	255	
676.188	1	1	0	0	0.15385	0.065081	0.26358	0.16564	0.092679	0.17049	0.33799	0.267	0.038814	0.0063457	0.059701	0.19592	0.17257	0.14498	0.41572	0.12088	-2.4354	-2.6146	-2.3937	-3.0458	-2.4354	-2.8208	-2.8812	-2.3875	-2.8521	-2.5354	-2.6042	-2.9208	-2.4562	-2.5333	-2.7667	-2.3729	202.419	260.763	365.441	392.930	70.175	177.859	348.498	320.232	199.068	79.878	402.939	336.059	388.750	115.519	91.986	149.607	0.00022448	0.00044993	6.7868e-05	1149.9	3.5533e-06	5.5294e-06	1246.6	247.91	3.9717e-06	5.5626e-06	310.12	83.837	65.966	19.418	9.2281e-07	26.863	0.00032629	0.00034459	9.8642e-05	1133	3.8112e-06	3.7797e-06	1229.4	247.23	3.874e-06	3.6633e-06	309.66	84.623	66.724	19.763	3.6961e-06	27.333	187.780	99.116	232.987	73.192	225.030	205.925	73.527	80.820	209.585	247.354	80.464	87.691	87.782	94.112	334.348	93.774	-8191	255	
676.284	1	1	0	0	0.23063	0.068993	0.065009	0.40527	0.20135	0.063742	0.27312	0.13789	0.07669	0.19945	0.18243	0.10582	0.073153	0.084155	0.14474	0.20352	-2.1875	-2.6125	-2.4188	-3.0604	-2.7	-2.5854	-2.9604	-2.4979	-2.7146	-2.7104	-2.6208	-2.9437	-2.7396	-2.5729	-2.7229	-2.5604	250.536	178.931	281.570	346.949	264.673	111.121	345.713	166.177	79.528	76.013	93.670	185.512	309.627	294.388	149.546	297.730	0.00022914	0.00026012	9.7924e-05	1150.1	4.0281e-06	2.5558e-06	1247.1	247.34	5.5251e-07	3.6942e-06	310.3	83.618	65.696	19.305	3.3433e-06	26.941	0.00031583	0.00033159	9.1322e-05	1133	3.7263e-06	3.6653e-06	1231.7	246.32	3.6325e-06	3.5984e-06	309.29	84.495	66.632	19.726	3.5184e-06	27.34	193.730	131.613	177.392	73.406	239.985	264.414	73.561	80.765	319.476	240.847	80.110	87.209	87.922	93.752	236.693	93.835	-8191	255	
676.405	1	1	0	0	0.13816	0.24767	0.1008	0.25072	0.084321	0.16239	0.1956	0.17177	0.14299	0.32453	0.10304	0.095553	0.21083	0.075318	0.36105	0.13854	-2.175	-2.7104	-2.4375	-2.9396	-2.6292	-2.5729	-2.8896	-2.4104	-2.7604	-2.7479	-2.4062	-2.7979	-2.6708	-2.55	-2.8312	-2.5917	71.633	420.434	413.853	352.454	370.264	209.948	310.601	71.326	355.922	220.058	326.882	206.163	140.490	374.583	301.140	420.315	0.00023319	0.00035578	8.279e-05	1144	3.7843e-06	9.4568e-07	1244.7	247.67	3.3525e-06	1.0287e-06	312.17	83.281	66.317	19.486	3.286e-06	26.842	0.00031895	0.00032284	9.0946e-05	1129.7	3.638e-06	3.5618e-06	1228.7	246.78	3.5508e-06	3.526e-06	309.1	84.277	66.773	19.75	3.4844e-06	27.283	198.380	116.227	196.790	73.456	222.698	203.919	73.628	80.793	219.295	217.573	80.299	87.335	87.650	94.171	232.073	93.728	-8191	255	
676.501	1	1	0	0	0.0066164	0.14892	0.018787	0.11201	0.21813	0.026941	0.28237	0.10823	0.11499	0.094936	0.16132	0.12367	0.13845	0.10098	0.1621	0.057131	-2.2542	-2.6958	-2.4458	-2.9813	-2.5708	-2.4417	-3.1333	-2.5958	-2.5583	-2.7521	-2.4146	-2.8854	-2.6771	-2.4396	-2.8146	-2.5229	388.452	361.050	382.098	422.453	321.391	278.317	360.591	63.128	327.690	177.094	89.380	360.100	306.197	162.931	294.776	343.010	0.00020052	0.00041129	0.00010623	1146.6	4.672e-06	6.0787e-06	1243.8	246.22	5.6265e-07	3.1782e-06	309.63	84.258	65.966	19.413	1.8868e-06	26.823	0.00030859	0.000326	9.0636e-05	1129.8	3.7134e-06	3.5879e-06	1228.5	246.46	3.655e-06	3.5781e-06	307.99	84.48	66.632	19.701	3.5636e-06	27.272	200.552	149.889	125.338	73.421	244.600	222.895	73.458	80.709	156.019	212.487	80.526	87.243	87.382	94.297	234.267	94.114	-8191	255	
676.597	1	1	0	0	0.27265	0.11697	0.22715	0.23862	0.17335	0.043175	0.27488	0.25009	0.29433	0.053801	0.22704	0.12071	0.26499	0.16753	0.051688	0.21139	-2.3021	-2.7958	-2.2792	-2.95	-2.7458	-2.4292	-2.9208	-2.4688	-2.5875	-2.9417	-2.4542	-2.7062	-2.8083	-2.4708	-2.7208	-2.7625	335.473	244.662	409.105	355.357	409.666	226.032	64.470	374.439	125.893	309.242	405.862	293.162	358.692	362.463	230.160	105.633	0.00022632	0.00017691	9.8539e-05	1143.7	5.4765e-06	4.879e-06	1242.5	248.2	4.1618e-06	2.4077e-06	310.26	83.686	65.749	19.211	3.8309e-06	26.514	0.0003165	0.00032573	9.1908e-05	1128.7	3.638e-06	3.7245e-06	1227.4	246.59	3.6511e-06	3.6757e-06	308.8	84.298	66.617	19.649	3.6233e-06	27.192	196.770	147.599	186.238	73.380	263.006	221.287	73.429	80.714	259.990	211.604	80.231	87.660	87.441	94.308	234.073	94.043	-8191	255	
676.693	1	1	0	0	0.031977	0.23544	0.03625	0.11701	0.088605	0.124	0.2046	0.082995	0.15501	0.10234	0.22725	0.22871	0.12326	0.13533	0.049997	0.20009	-1.9688	-2.9125	-2.3083	-2.7958	-2.8042	-2.3646	-2.9417	-2.6333	-2.5042	-2.7313	-2.5625	-2.6542	-2.9042	-2.4104	-3.0208	-2.7604	266.729	275.757	123.574	344.840	352.901	161.433	332.672	372.029	158.527	72.131	344.853	75.902	134.762	242.663	278.506	363.078	0.00021175	0.00055568	6.2355e-05	1147.4	3.5877e-06	2.4961e-06	1240.5	247.81	4.0223e-06	2.9156e-06	310.21	83.513	66.54	19.224	3.7619e-06	26.715	0.00032079	0.00032892	9.1611e-05	1127.3	3.6674e-06	3.4937e-06	1225.7	246.22	3.6523e-06	3.6049e-06	307.9	84.114	66.789	19.606	3.6184e-06	27.206	198.121	159.010	139.759	73.316	220.460	192.605	73.568	80.705	191.032	229.386	80.438	87.704	87.936	93.978	258.976	94.003	-8191	255	
676.789	1	1	0	0	0.12283	0.16373	0.21079	0.33394	0.1971	0.22397	0.16101	0.067547	0.22023	0.041319	0.072837	0.091286	0.20971	0.26586	0.11404	0.34001	-1.975	-2.8021	-2.4417	-2.7542	-2.8083	-2.3146	-2.7708	-2.6396	-2.3042	-2.8458	-2.6792	-2.6125	-2.9854	-2.1146	-2.8354	-2.7458	301.422	75.811	258.080	342.686	244.388	325.337	350.925	349.967	373.721	395.363	143.990	204.310	349.241	358.739	127.881	266.590	0.00023062	0.00032727	8.9087e-05	1143	2.3972e-06	1.7114e-06	1244.9	246.33	2.9946e-06	2.7329e-06	310.08	83.268	65.732	19.327	2.9453e-06	26.851	0.00031878	0.00032826	9.356e-05	1126.7	3.6006e-06	3.6344e-06	1227.5	245.84	3.6212e-06	3.559e-06	308.41	84.09	66.48	19.635	3.6593e-06	27.319	192.866	150.249	126.219	73.367	240.863	185.483	73.621	80.692	205.284	209.743	80.565	87.632	87.284	94.033	230.853	93.858	-8191	255	
676.885	1	1	0	0	0.24071	0.09569	0.19498	0.38044	0.22447	0.14672	0.088807	0.18428	0.071006	0.039897	0.23633	0.2453	0.19447	0.20279	0.081368	0.10673	-1.8146	-2.7083	-2.4792	-2.6583	-2.8625	-2.3604	-2.9271	-2.9938	-2.5021	-2.8896	-2.825	-2.5521	-2.8646	-2.5042	-2.7	-2.6813	164.789	289.408	396.991	72.125	401.972	266.829	350.465	398.023	380.688	104.998	375.947	339.638	415.985	153.127	293.262	320.799	0.00021029	0.00023766	0.00010162	1143.2	3.2869e-06	3.314e-06	1243.9	247.04	3.4295e-06	3.3496e-06	309.4	83.364	66.377	19.433	2.5458e-06	26.791	0.0003205	0.00032407	9.344e-05	1127.3	3.6673e-06	3.6263e-06	1226	246.02	3.6246e-06	3.4123e-06	308.29	84.108	66.705	19.681	3.6388e-06	27.235	196.056	212.984	185.415	73.185	227.493	239.333	73.715	80.852	240.322	192.294	80.348	87.387	87.649	94.364	236.270	93.706	-8191	255	
676.982	1	1	0	0	0.044915	0.056693	0.17938	0.30084	0.11664	0.33137	0.087432	0.13443	0.092633	0.11829	0.12476	0.11077	0.085942	0.24145	0.19336	0.088704	-1.9875	-2.8458	-2.5646	-2.6292	-2.9604	-2.375	-2.7562	-2.8708	-2.4417	-2.8146	-2.7958	-2.4354	-3.0354	-2.4667	-2.7188	-2.8104	236.986	351.965	334.658	98.497	283.588	369.398	324.725	329.615	97.344	124.531	392.950	313.105	305.992	277.338	114.904	154.674	0.00023501	0.00028737	8.9861e-05	1145.3	1.4203e-06	3.4663e-06	1237.7	245.46	3.2731e-06	1.9129e-06	308.03	82.934	66.145	19.148	2.4196e-06	26.731	0.00032114	0.00032505	9.366e-05	1127	3.7223e-06	3.6799e-06	1223.5	245.43	3.6581e-06	3.6311e-06	307.22	83.837	66.276	19.625	3.7068e-06	27.184	193.442	203.147	185.335	73.300	213.842	256.658	73.813	80.384	210.745	226.496	80.303	87.288	87.486	94.049	229.350	93.957	-8191	255	
677.100	1	1	0	0	0.25546	0.09321	0.21067	0.16687	0.38483	0.030332	0.48755	0.1712	0.13503	0.13305	0.25892	0.39026	0.084866	0.15103	0.13561	0.19667	-1.8375	-2.8021	-2.5333	-2.6667	-2.9042	-2.6208	-2.8583	-2.7687	-2.5208	-2.6562	-2.8833	-2.4875	-2.8833	-2.375	-2.5938	-2.9521	269.889	154.000	233.155	374.681	264.572	134.625	410.548	347.325	299.573	114.972	396.119	328.773	233.938	202.875	130.968	154.844	0.00022239	0.00030672	0.00011338	1139.4	3.1819e-06	2.1274e-06	1235.3	246.89	4.2945e-06	1.6741e-06	309.98	83.103	66.119	19.205	2.8264e-06	26.695	0.00031766	0.00034336	9.4294e-05	1124.7	3.8073e-06	3.6736e-06	1221.3	245.72	3.6513e-06	3.6498e-06	307.08	83.793	66.404	19.57	3.7473e-06	27.163	192.165	155.460	165.638	73.327	215.532	236.242	73.661	80.565	244.374	202.777	80.095	87.459	87.855	94.295	206.347	94.104	-8191	255	
677.197	1	1	0	0	0.27977	0.21554	0.10265	0.17482	0.32615	0.28615	0.168	0.09828	0.33458	0.069718	0.24406	0.073557	0.10613	0.29814	0.13836	0.15707	-2.0792	-2.8	-2.8812	-2.3875	-2.8458	-2.5125	-2.5146	-2.8854	-2.4146	-2.725	-2.8354	-2.4042	-2.825	-2.6333	-2.4396	-2.9917	249.025	376.229	278.170	280.210	261.837	218.012	389.998	180.894	337.428	206.619	410.729	378.209	403.111	352.285	295.595	336.487	0.00024089	0.0002039	8.5744e-05	1142.1	3.3544e-06	1.5575e-06	1233.7	245.15	2.7299e-06	2.8176e-06	307.75	83.172	65.913	19.216	2.5276e-06	26.701	0.00032846	0.00033578	9.3004e-05	1126.4	3.6524e-06	3.6765e-06	1220.8	244.75	3.6722e-06	3.6889e-06	306.38	83.701	66.129	19.537	3.8155e-06	27.167	193.831	186.395	193.815	73.426	228.337	154.221	73.620	80.660	225.501	224.866	80.214	87.629	87.612	93.661	231.236	93.991	-8191	255	
677.293	1	1	0	0	0.26372	0.20697	0.062403	0.21587	0.25941	0.16467	0.14991	0.25024	0.033678	0.27886	0.10489	0.035412	0.06931	0.19955	0.14593	0.3746	-1.9292	-2.5708	-2.8479	-2.5146	-2.8937	-2.5708	-2.5292	-2.9208	-2.4146	-2.5729	-3.0667	-2.6167	-2.9833	-2.8688	-2.4062	-2.8187	400.796	120.383	189.530	295.426	248.006	234.622	348.351	107.963	265.045	334.280	399.080	180.623	352.262	328.520	331.829	384.169	0.00022578	0.00032505	9.1239e-05	1140.2	3.6092e-06	5.5477e-06	1242.7	245.72	2.3337e-06	4.044e-06	306.8	82.866	65.818	19.295	1.6167e-06	26.762	0.00031998	0.00033518	9.1149e-05	1123.5	3.639e-06	3.5974e-06	1222.2	244.85	3.615e-06	3.6812e-06	305.92	83.893	66.139	19.574	3.5666e-06	27.23	198.007	142.296	176.260	73.427	248.631	216.012	73.607	81.005	193.019	157.339	80.411	88.216	87.813	94.246	231.684	94.118	-8191	255	
677.389	1	1	0	0	0.18822	0.062662	0.090708	0.097266	0.20181	0.14005	0.2969	0.24756	0.18785	0.078758	0.10048	0.051406	0.34328	0.3528	0.38714	0.15917	-2.2333	-2.5917	-2.6646	-2.4667	-2.8104	-2.7354	-2.5167	-2.85	-2.5312	-2.5292	-2.9792	-2.35	-2.725	-2.7167	-2.4333	-2.8458	420.636	272.897	348.612	372.775	405.973	90.328	361.940	397.999	161.630	185.480	309.854	313.039	375.209	93.051	233.396	311.926	0.00021382	0.00059896	8.0309e-05	1145.7	4.5226e-06	3.3681e-06	1244.7	246.12	2.7287e-06	4.0525e-06	308.36	82.952	65.264	19.158	3.8722e-06	26.819	0.00031444	0.00032752	9.0843e-05	1124.9	3.6261e-06	3.6575e-06	1223.6	245.17	3.6748e-06	3.5384e-06	306.77	83.69	66.067	19.529	3.6154e-06	27.197	193.137	148.802	150.356	73.406	238.707	176.171	73.646	80.617	230.082	228.186	80.392	87.269	87.887	94.269	219.874	93.993	-8191	255	
677.485	1	1	0	0	0.17004	0.16683	0.076604	0.42378	0.19516	0.1574	0.22842	0.12564	0.057076	0.068668	0.11133	0.23926	0.10917	0.21715	0.10622	0.13011	-2.1437	-2.5333	-2.8833	-2.5687	-2.5146	-2.8292	-2.4792	-2.8271	-2.5271	-2.4542	-3.0625	-2.5979	-2.6375	-2.8958	-2.4375	-3.025	352.000	81.999	68.603	360.915	150.526	370.069	78.103	186.999	244.184	199.536	215.441	333.376	316.888	207.508	310.118	235.178	0.0002288	0.00028889	9.4208e-05	1140.2	4.0639e-06	4.3356e-06	1236.9	244.42	2.9752e-06	2.8032e-06	308.33	82.933	65.975	19.192	6.1353e-06	26.827	0.00032011	0.00033635	8.9976e-05	1123.4	3.6269e-06	3.5165e-06	1221.6	244.65	3.6387e-06	3.6608e-06	307.29	84.002	66.219	19.609	3.6194e-06	27.214	190.649	108.875	172.635	73.222	217.751	234.533	73.496	81.052	225.038	232.667	79.998	87.357	87.449	94.243	211.200	94.001	-8191	255	
677.581	1	1	0	0	0.23817	0.10164	0.12386	0.27804	0.091582	0.37885	0.2982	0.053506	0.21477	0.20723	0.21375	0.32521	0.21724	0.050396	0.2558	0.08315	-2.4208	-2.5042	-2.8792	-2.5771	-2.5917	-2.9958	-2.6854	-2.8438	-2.5812	-2.5521	-2.8625	-2.5604	-2.7042	-2.9208	-2.4896	-2.8375	296.570	358.251	417.467	399.763	343.316	93.135	349.974	220.808	390.900	137.664	368.568	73.967	345.361	291.022	405.643	297.738	0.00021064	0.00013091	0.00012975	1144.5	4.2382e-06	1.717e-06	1245.2	245.83	2.711e-06	1.8524e-06	308.03	83.219	65.903	19.397	2.3815e-06	26.809	0.00030921	0.00033241	9.0463e-05	1127.3	3.6274e-06	3.6124e-06	1223.5	245.09	3.6178e-06	3.5853e-06	306.7	83.941	66.427	19.685	3.6356e-06	27.151	203.151	180.127	183.402	73.334	251.708	221.188	73.609	80.818	237.147	288.189	80.592	87.245	87.754	94.390	223.743	93.667	-8191	255	
677.702	1	1	0	0	0.042269	0.12562	0.055466	0.15595	0.15099	0.37246	0.10248	0.20156	0.1476	0.078326	0.13493	0.0433	0.17466	0.13159	0.16454	0.14027	-2.3083	-2.4792	-2.6521	-2.7958	-2.575	-2.7521	-2.475	-2.7938	-2.6625	-2.2229	-2.9562	-2.7875	-2.6021	-2.975	-2.4417	-2.7354	363.195	252.893	73.056	94.156	298.921	390.335	364.349	93.087	303.639	212.300	362.758	364.549	386.239	75.132	155.456	356.959	0.00019745	0.00030418	0.00012936	1145.4	4.5964e-06	1.6677e-06	1239.7	245.33	2.6229e-06	4.7454e-06	308.32	83.775	65.968	19.274	4.8453e-06	26.668	0.00031389	0.00032843	9.2693e-05	1126.6	3.7277e-06	3.6677e-06	1222.8	244.85	3.6139e-06	3.5728e-06	307.08	84.09	66.297	19.625	3.6208e-06	27.159	197.858	140.795	144.259	73.140	210.216	104.148	73.435	80.693	214.361	212.050	80.242	87.195	87.569	94.405	220.819	93.985	-8191	255	
677.798	1	1	0	0	0.09799	0.13854	0.16599	0.17124	0.091883	0.20784	0.16859	0.15412	0.14804	0.1452	0.093447	0.061431	0.15451	0.13996	0.16579	0.094645	-2.0583	-2.3063	-2.8875	-2.7	-2.6604	-3.0438	-2.6	-2.7687	-2.8479	-2.4896	-2.7917	-2.6562	-2.4979	-2.9021	-2.3729	-2.6562	346.050	412.210	249.155	326.703	350.884	308.626	374.446	152.250	274.777	416.351	391.914	263.060	409.156	72.563	357.206	268.013	0.00022766	0.00022938	0.0001088	1139.8	3.1386e-06	2.3152e-07	1237	246.54	3.5371e-06	5.2235e-06	307.43	82.933	65.621	19.252	3.5777e-06	26.92	0.00031168	0.00033054	9.3409e-05	1122.9	3.7107e-06	3.5538e-06	1222	244.77	3.6712e-06	3.6686e-06	306.34	83.856	66.155	19.563	3.7045e-06	27.217	192.497	134.109	184.022	73.482	210.012	198.617	73.695	80.648	234.563	180.209	80.279	87.703	87.624	94.039	220.124	94.250	-8191	255	
677.892	1	1	0	0	0.098203	0.093565	0.067448	0.44664	0.064955	0.076615	0.14056	0.3339	0.20638	0.086191	0.0581	0.17738	0.20206	0.20748	0.11585	0.12776	-2.3646	-2.3771	-2.7833	-2.9729	-2.6063	-2.9646	-2.9125	-2.7979	-2.9458	-2.5125	-2.8396	-2.7333	-2.4604	-2.8063	-2.6229	-2.5542	220.033	408.528	127.434	373.276	219.657	196.115	80.733	239.912	284.849	154.301	409.024	324.399	175.901	397.418	250.917	99.921	0.00021083	0.00047875	0.00011258	1139.8	2.3779e-06	3.5924e-06	1238.7	245.48	2.4929e-06	5.2896e-06	307.38	83.074	65.983	19.257	3.4109e-06	26.852	0.00031889	0.00033565	9.2862e-05	1122.8	3.7049e-06	3.6232e-06	1220.2	244.76	3.5706e-06	3.6838e-06	305.64	83.579	66.201	19.567	3.5646e-06	27.17	189.010	152.314	178.431	73.360	270.792	257.675	73.441	80.560	210.594	238.698	80.455	87.592	87.675	94.127	220.898	94.425	-8191	255	
677.966	1	1	0	0	0.091403	0.098453	0.28161	0.26	0.089127	0.21541	0.48408	0.28516	0.062824	0.13737	0.25993	0.080493	0.10169	0.071713	0.19433	0.064	-2.4771	-2.3312	-2.7771	-2.8937	-2.3833	-2.8187	-2.7938	-2.5708	-2.8271	-2.5354	-2.7	-2.8417	-2.2271	-2.8458	-2.5958	-2.4625	171.243	143.427	419.100	378.735	189.016	133.100	357.179	355.020	241.340	364.585	330.553	261.726	314.689	67.182	277.037	302.995	0.00019467	0.00051081	0.00012008	1138.3	2.8271e-06	5.3036e-06	1240.5	246.01	1.5002e-06	3.1041e-06	307.35	83.197	66.04	19.263	1.0061e-06	26.835	0.00031044	0.00032884	9.1391e-05	1121.2	3.7027e-06	3.7103e-06	1222.5	244.65	3.609e-06	3.6926e-06	306.46	83.933	66.294	19.592	3.6953e-06	27.153	200.012	159.540	192.467	73.336	241.753	214.336	73.607	80.735	219.401	247.589	80.737	87.606	87.784	94.701	171.244	94.259	-8191	255	
678.085	1	1	0	0	0.12158	0.12312	0.25824	0.068266	0.077459	0.15093	0.2533	0.00433	0.25239	0.054454	0.18651	0.20278	0.37822	0.14259	0.13914	0.025507	-2.3792	-2.3625	-2.4271	-3.0812	-2.2667	-2.6979	-2.8604	-2.6625	-2.7833	-2.7354	-2.8333	-2.9292	-2.5021	-2.9688	-2.6396	-2.5167	374.524	193.094	338.210	389.576	304.322	88.965	392.430	269.820	412.111	189.343	163.304	110.081	122.707	161.448	289.152	97.740	0.00023342	0.00061681	8.1466e-05	1139.2	4.2494e-06	5.4656e-06	1235.1	245.83	1.4519e-06	4.0058e-06	308.78	82.486	65.452	19.147	2.2736e-06	26.645	0.0003224	0.00033311	9.1934e-05	1121.4	3.8137e-06	3.7332e-06	1219	244.83	3.7297e-06	3.8448e-06	306.67	83.529	65.983	19.523	3.9244e-06	27.097	195.761	174.956	147.872	73.291	229.989	224.349	73.397	80.838	258.662	216.390	80.345	87.694	87.666	94.296	209.456	94.289	-8191	255	
678.181	1	1	0	0	0.23343	0.15385	0.2802	0.38144	0.16904	0.24304	0.12301	0.17305	0.11636	0.3123	0.30589	0.12611	0.062428	0.11684	0.18207	0.13772	-2.4729	-2.55	-2.4729	-2.975	-2.525	-2.9083	-2.95	-2.4313	-2.7229	-2.5625	-2.5292	-3.0021	-2.5333	-2.6083	-2.8396	-2.6125	205.392	343.867	308.434	73.087	337.764	380.836	326.121	318.898	312.974	325.884	369.461	151.519	71.592	96.376	260.906	312.324	0.00022907	0.00025605	7.8979e-05	1138.9	4.1631e-06	2.7766e-06	1239.3	246	5.5097e-06	4.147e-06	308.75	82.588	65.218	19.143	2.9678e-06	26.584	0.00032532	0.00035284	9.6783e-05	1121.8	3.9452e-06	3.7529e-06	1221.2	244.99	3.7849e-06	3.7695e-06	306.62	83.604	66.065	19.527	3.7803e-06	27.11	196.870	176.696	191.615	73.351	244.177	219.654	73.646	80.575	239.696	227.626	80.127	87.545	87.464	94.454	231.201	93.960	-8191	255	
678.277	1	1	0	0	0.28785	0.17326	0.15213	0.057496	0.071729	0.24728	0.31911	0.13525	0.069374	0.10802	0.12587	0.23202	0.19239	0.16692	0.114	0.24669	-2.2958	-2.5521	-2.475	-3.0396	-2.3937	-2.7125	-3.0042	-2.5292	-3.1021	-2.5458	-2.6042	-2.9062	-2.4792	-2.7188	-2.9771	-2.4938	391.137	186.347	319.237	343.423	113.994	137.101	350.386	169.580	143.649	231.162	347.068	254.586	318.321	401.338	161.522	80.005	0.00022606	0.00032473	7.3611e-05	1137.6	2.8006e-06	4.1978e-06	1233.4	244.75	5.2223e-06	3.5247e-06	306.61	82.788	65.814	19.102	1.5722e-06	26.514	0.00032316	0.0003357	9.5597e-05	1123.1	3.8919e-06	3.8274e-06	1219.6	244.27	3.7936e-06	3.8196e-06	306.4	83.772	66.004	19.504	3.8915e-06	26.997	187.881	148.203	112.109	73.268	241.860	179.740	73.505	80.575	231.137	228.634	80.238	87.342	87.508	94.380	221.893	93.943	-8191	255	
678.373	1	1	0	0	0.12385	0.19857	0.12728	0.22227	0.048757	0.11462	0.1651	0.40169	0.097201	0.21487	0.16649	0.18952	0.11395	0.07285	0.084511	0.043462	-2.3042	-2.6083	-2.2646	-3.0187	-2.4208	-2.7333	-3.1	-2.5333	-2.6083	-2.675	-2.3354	-2.9021	-2.5917	-2.5792	-3.0833	-2.5729	242.152	227.965	406.536	399.181	404.475	341.707	362.239	79.705	375.923	303.299	375.592	261.938	262.645	381.368	170.683	136.355	0.00021333	0.00037965	6.2216e-05	1139.7	3.7319e-06	2.7515e-06	1239.3	246.29	2.0898e-06	5.1852e-06	307.96	82.979	65.626	19.115	3.5639e-06	26.598	0.00034222	0.00037257	0.00010126	1121.3	4.0656e-06	3.8902e-06	1219.1	244.18	3.828e-06	3.7095e-06	306.12	83.736	65.965	19.455	3.7391e-06	27.052	199.177	190.122	114.629	73.283	211.871	232.429	73.598	80.915	251.632	188.457	80.415	87.323	87.549	94.250	254.469	93.749	-8191	255	
678.494	1	1	0	0	0.12779	0.15341	0.22812	0.18477	0.22427	0.065038	0.23502	0.21531	0.10434	0.30773	0.14049	0.11984	0.10299	0.18106	0.058932	0.18592	-2.3625	-2.7146	-2.4	-3.0271	-2.5021	-2.5521	-2.8354	-2.4792	-2.5167	-2.8563	-2.4979	-2.9229	-2.7562	-2.5938	-2.9979	-2.3479	201.794	407.001	335.400	385.214	171.418	98.446	79.186	66.528	164.573	156.693	331.587	309.680	422.008	355.572	202.455	201.804	0.00023227	0.00027	0.00011687	1137.7	3.1974e-06	5.6117e-06	1234.7	246.35	3.5236e-06	3.7448e-06	305.15	83.109	65.476	19.144	4.5097e-06	26.657	0.00031971	0.00035512	9.9186e-05	1121.1	3.8648e-06	3.9243e-06	1219	244.44	3.8483e-06	3.787e-06	305.72	83.688	65.831	19.476	3.855e-06	27.028	196.115	180.431	143.686	73.282	232.371	261.951	73.496	80.695	248.254	182.650	80.273	87.554	87.410	94.273	242.972	94.216	-8191	255	
678.565	1	1	0	0	0.1965	0.2336	0.22325	0.1746	0.038625	0.12744	0.26932	0.15207	0.28949	0.10991	0.11368	0.39074	0.14221	0.10717	0.28683	0.12761	-2.0333	-2.6792	-2.5604	-3.075	-2.7083	-2.2979	-3.0458	-2.5104	-2.4104	-2.925	-2.3521	-2.7146	-2.6896	-2.5271	-3.0479	-2.5083	84.133	212.033	410.084	66.801	62.956	370.554	390.098	269.240	78.330	401.639	65.253	219.041	311.798	187.916	224.294	335.335	0.00021265	0.00041544	0.00012048	1139	5.1473e-06	3.0014e-06	1237.8	245.9	2.0184e-06	4.3085e-06	307.67	82.841	65.04	19.14	2.6691e-06	26.659	0.00032353	0.00034377	9.6835e-05	1121.4	3.8377e-06	3.7592e-06	1219.6	244.38	3.7658e-06	3.6974e-06	306.2	83.395	65.834	19.501	3.785e-06	27.115	192.841	191.438	145.930	73.460	227.056	252.623	73.662	80.598	232.290	220.835	80.521	87.389	87.089	93.933	217.786	93.754	-8191	255	
678.662	1	1	0	0	0.38703	0.32186	0.098479	0.17325	0.15179	0.13431	0.25152	0.22187	0.22371	0.0524	0.15944	0.19626	0.04164	0.092166	0.20523	0.2589	-2.2479	-2.7625	-2.5	-3.0083	-2.6458	-2.5542	-2.9646	-2.7146	-2.7812	-2.8396	-2.4583	-2.7292	-2.7354	-2.5062	-2.7812	-2.6479	268.305	288.144	362.849	363.743	84.781	158.515	362.424	400.066	287.815	187.274	129.936	369.515	304.074	401.107	310.310	147.300	0.00022688	0.00044978	0.00014426	1140.6	3.3777e-06	2.1329e-06	1241.4	247.75	3.2447e-06	5.1045e-06	308.31	83.082	65.899	19.21	4.1313e-06	26.867	0.00032891	0.00034486	9.6895e-05	1122.5	3.8592e-06	3.8033e-06	1222	245.53	3.7712e-06	3.6672e-06	306.75	83.733	66.357	19.576	3.783e-06	27.182	191.725	152.463	173.837	73.400	267.320	179.749	73.724	80.965	234.786	215.083	80.363	87.531	87.658	94.435	240.334	93.842	-8191	255	
678.782	1	1	0	0	0.31008	0.27556	0.32199	0.11906	0.028273	0.10575	0.072419	0.16522	0.19327	0.30429	0.051484	0.064461	0.18881	0.13208	0.073316	0.15554	-2.0792	-2.9521	-2.3312	-2.9188	-2.7667	-2.4958	-3.0854	-2.7583	-2.3333	-3.0354	-2.5625	-2.8125	-2.8271	-2.4417	-2.75	-2.8229	229.364	371.859	271.725	341.914	190.236	338.434	365.909	349.632	159.118	315.346	359.853	366.731	324.936	407.773	328.625	410.467	0.00024554	0.00024528	2.1891e-05	1137.8	2.8258e-06	1.9433e-06	1235.2	246.01	5.3416e-06	2.8214e-06	307.99	83.245	65.555	19.047	1.61e-06	26.469	0.00032081	0.00033476	9.5631e-05	1122.1	3.8053e-06	3.7223e-06	1220.8	244.59	3.8426e-06	3.6885e-06	306.61	84.003	66.172	19.544	3.6993e-06	27.121	192.692	176.697	225.920	73.424	224.126	237.919	73.728	80.532	262.088	193.348	80.420	87.680	87.573	94.564	194.934	94.057	-8191	255	
678.878	1	1	0	0	0.026732	0.062152	0.34766	0.1885	0.1034	0.063918	0.04793	0.23072	0.18997	0.061182	0.061693	0.28177	0.15554	0.13226	0.038639	0.34026	-2.1083	-2.9708	-2.4292	-2.7125	-2.8771	-2.3083	-2.8354	-2.8333	-2.4354	-2.8354	-2.8354	-2.6875	-2.9271	-2.4854	-2.8937	-2.9271	218.871	98.948	367.088	369.614	115.078	407.568	400.810	65.722	366.063	394.250	382.022	109.807	121.817	401.990	94.815	109.798	0.00020543	0.00040432	0.0001048	1140.5	1.7286e-06	3.9717e-06	1235.5	245.38	2.7375e-06	3.3089e-06	305.97	82.958	65.696	19.221	2.7031e-06	26.81	0.00032318	0.00034473	9.6274e-05	1123.4	3.7519e-06	3.6875e-06	1220.9	244.49	3.6844e-06	3.6889e-06	306.18	83.787	66.232	19.61	3.78e-06	27.25	204.604	184.842	185.154	73.439	250.314	232.483	73.507	80.589	257.777	208.212	80.343	87.094	87.283	94.230	244.745	94.110	-8191	255	
678.974	1	1	0	0	0.10744	0.30879	0.024014	0.26639	0.051851	0.11123	0.088311	0.14337	0.1995	0.15105	0.079625	0.15708	0.1093	0.16841	0.12883	0.25628	-2.0083	-2.7938	-2.4792	-2.6854	-2.8125	-2.6063	-3.0292	-2.8458	-2.3833	-2.8958	-2.5583	-2.6063	-2.8604	-2.5	-2.4771	-2.9021	321.439	345.720	147.489	338.692	345.111	286.373	400.720	101.068	249.936	257.578	270.742	387.249	336.885	411.178	193.154	416.970	0.00023631	0.00042292	0.00012395	1139	4.0528e-06	3.4029e-06	1234.3	246.71	3.2061e-06	3.1987e-07	307.72	83.197	65.7	19.207	1.355e-06	26.649	0.00032388	0.00034015	9.5484e-05	1121.7	3.7748e-06	3.7868e-06	1220	244.83	3.8908e-06	3.8139e-06	306.25	83.756	66.003	19.562	3.7526e-06	27.117	194.080	146.094	122.754	73.361	248.684	217.876	73.479	80.891	241.140	89.470	80.367	87.245	87.566	94.401	222.674	93.847	-8191	255	
679.093	1	1	0	0	0.18662	0.019899	0.038026	0.2672	0.11112	0.22963	0.37326	0.10225	0.073763	0.16572	0.14991	0.078317	0.07254	0.27089	0.23313	0.30868	-2.0479	-2.7042	-2.6063	-2.5	-3.0062	-2.5104	-2.9292	-2.9958	-2.3021	-2.9771	-2.95	-2.4583	-2.9583	-2.5708	-2.6729	-2.9604	327.138	269.349	95.394	412.193	404.977	230.184	411.250	207.186	76.223	388.358	127.428	227.945	87.203	408.320	266.311	147.386	0.00024939	0.0003822	5.3614e-05	1137.7	4.8813e-06	3.3516e-06	1240.2	245.23	4.3409e-06	2.7294e-06	307.93	82.775	65.87	19.129	3.3793e-06	26.621	0.00032976	0.00034686	9.6563e-05	1122.1	3.7557e-06	3.7693e-06	1222.5	244.47	3.6946e-06	3.6809e-06	306.12	83.58	66.158	19.522	3.6616e-06	27.076	194.290	118.631	145.083	73.413	239.228	235.538	73.563	80.773	199.394	192.369	80.325	87.554	87.822	94.439	225.870	93.636	-8191	255	
679.190	1	1	0	0	0.11345	0.21064	0.038858	0.21559	0.13649	0.27643	0.10061	0.28724	0.17124	0.20355	0.18194	0.034492	0.17237	0.084089	0.052043	0.11181	-1.9083	-2.8521	-2.6208	-2.6104	-2.9479	-2.675	-2.7542	-3.0396	-2.5479	-2.6875	-2.9333	-2.5917	-2.9375	-2.5771	-2.4021	-2.9	185.330	419.974	149.801	119.644	274.164	228.976	422.602	302.153	134.322	360.519	83.889	302.828	373.501	406.281	125.226	345.979	0.00024739	0.00031493	7.9919e-05	1136	2.9356e-06	2.8234e-06	1233.6	244.56	3.168e-06	3.6895e-06	307.8	82.714	65.577	19.148	3.3661e-06	26.68	0.00032345	0.00034296	9.6291e-05	1122	3.6923e-06	3.6867e-06	1218.3	243.43	3.6872e-06	3.8143e-06	305.92	83.565	65.985	19.528	3.6454e-06	27.15	198.586	186.763	163.683	73.550	232.937	294.683	73.694	81.060	227.906	239.118	80.142	87.605	87.559	94.348	246.071	93.981	-8191	255	
679.261	1	1	0	0	0.062184	0.099032	0.1513	0.045251	0.20073	0.31009	0.20839	0.29008	0.17081	0.14057	0.27953	0.057725	0.12587	0.16835	0.35719	0.037507	-2.0417	-2.8104	-2.7979	-2.6104	-2.7354	-2.5563	-2.8896	-2.8979	-2.4125	-2.7625	-2.8563	-2.3979	-2.8375	-2.5792	-2.4104	-3.0979	130.932	410.335	343.686	132.253	104.992	93.864	393.670	420.533	63.173	144.025	389.621	311.324	175.401	92.805	137.805	81.346	0.00022576	0.00055022	8.943e-05	1137.6	3.0855e-06	1.8929e-06	1236.5	245.15	1.9127e-06	3.5173e-06	307.93	82.979	65.425	19.278	3.9826e-06	26.654	0.00031963	0.00033215	9.6632e-05	1121	3.7124e-06	3.6943e-06	1220.8	244.12	3.7303e-06	3.6492e-06	306.18	83.639	66.077	19.534	3.7025e-06	27.138	192.749	131.419	188.571	73.256	212.640	230.467	73.552	80.894	264.613	230.339	80.626	87.448	87.544	94.217	252.957	93.838	-8191	255	
679.382	1	1	0	0	0.13939	0.076284	0.28549	0.47534	0.051806	0.066884	0.34659	0.30714	0.16346	0.16845	0.17631	0.13246	0.17545	0.26443	0.12201	0.1937	-2.15	-2.5104	-2.7625	-2.5479	-2.6833	-2.6646	-2.5187	-3.1021	-2.5542	-2.6979	-2.8354	-2.5104	-2.7854	-2.7729	-2.4104	-3.075	235.305	395.509	329.653	394.843	169.535	402.360	334.878	370.178	131.927	330.024	393.172	114.511	69.113	408.826	174.953	261.582	0.000228	0.00041927	0.00016423	1139.2	4.114e-06	2.4282e-06	1233.3	244.58	3.9132e-06	1.6522e-06	308.99	83.356	65.277	19.15	1.3058e-06	26.679	0.00031701	0.00032909	9.2154e-05	1120.4	3.5719e-06	3.6278e-06	1216.5	243.75	3.6975e-06	3.6713e-06	306.23	83.648	65.95	19.501	3.6533e-06	27.065	195.551	141.791	147.847	73.312	244.770	221.508	73.595	80.383	232.081	183.488	80.227	87.301	87.839	94.359	404.744	93.723	-8191	255	
679.478	1	1	0	0	0.12272	0.077545	0.21373	0.52512	0.12923	0.43128	0.19326	0.15897	0.30633	0.14677	0.27198	0.072367	0.1588	0.13766	0.18594	0.2237	-2.4333	-2.3917	-2.9917	-2.5938	-2.6667	-2.9688	-2.3917	-2.9958	-2.5292	-2.5542	-2.9313	-2.3833	-2.7292	-2.9021	-2.4521	-2.9188	96.988	131.469	123.892	78.349	119.612	69.514	339.409	139.171	130.763	408.499	299.908	123.941	309.378	416.719	390.458	381.150	0.00019047	0.00043428	6.4384e-05	1141	2.994e-06	3.1934e-06	1237.5	245.52	2.5974e-06	6.1304e-06	306.72	82.972	65.361	19.061	2.5016e-06	26.503	0.000322	0.0003342	9.2883e-05	1122	3.6955e-06	3.63e-06	1218.2	244.22	3.7627e-06	3.7051e-06	305.47	83.6	65.96	19.46	3.5926e-06	27.066	196.564	148.188	124.696	73.452	249.907	261.066	73.314	81.039	225.282	207.831	80.438	87.322	87.864	94.279	214.176	94.246	-8191	255	
679.574	1	1	0	0	0.1144	0.24468	0.21236	0.20151	0.14906	0.065333	0.3909	0.13949	0.17137	0.17716	0.094025	0.16656	0.24817	0.23798	0.10457	0.15175	-2.0687	-2.3708	-2.9729	-2.4354	-2.6937	-2.9062	-2.5	-2.9938	-2.7438	-2.5271	-2.9604	-2.6	-2.6625	-2.8646	-2.3854	-2.8729	418.297	401.897	369.276	372.547	250.857	251.943	346.823	186.966	365.708	353.201	316.419	218.448	398.272	382.390	126.807	262.833	0.00022292	0.00048597	0.00010691	1137.2	2.868e-06	2.5638e-06	1233.9	243.98	2.6955e-06	3.1659e-06	303.81	82.375	65.179	18.907	2.2835e-06	26.587	0.00031405	0.00032306	9.171e-05	1117.6	3.6826e-06	3.5243e-06	1215.9	242.96	3.5299e-06	3.5316e-06	303.71	83.315	65.784	19.385	3.4711e-06	26.984	199.644	153.582	194.474	73.409	206.276	205.787	73.502	80.486	240.219	212.128	80.354	87.441	87.527	94.258	236.576	94.027	-8191	255	
679.670	1	1	0	0	0.30618	0.13817	0.27901	0.14061	0.18845	0.044342	0.24168	0.12343	0.1136	0.048438	0.29266	0.13025	0.32388	0.28275	0.095076	0.14374	-2.25	-2.4271	-2.9396	-2.9021	-2.5958	-2.8417	-2.3292	-2.9125	-2.8417	-2.4271	-2.9542	-2.5292	-2.475	-3.025	-2.2708	-2.7625	264.208	395.992	140.398	388.044	157.874	246.671	402.668	412.345	140.716	347.315	76.452	67.886	250.940	216.860	355.544	247.047	0.00023504	0.00041823	9.6328e-05	1136	3.642e-06	3.3214e-06	1232.8	244.66	2.9226e-06	4.8867e-06	306.67	82.715	65.208	19.174	2.8253e-06	26.552	0.00030128	0.0003099	8.4929e-05	1116.3	3.3636e-06	3.1711e-06	1211.7	242.67	3.159e-06	3.1472e-06	303.77	83.239	65.75	19.527	3.0828e-06	27	199.932	135.133	151.053	73.170	215.136	249.673	73.518	80.770	228.367	227.685	80.576	87.230	87.752	93.898	209.883	93.904	-8191	255	
679.791	1	1	0	0	0.14205	0.34893	0.12671	0.2632	0.14037	0.059628	0.28988	0.16307	0.17161	0.11943	0.15136	0.27458	0.13075	0.046788	0.12415	0.20455	-2.2938	-2.5438	-2.8875	-2.7625	-2.55	-2.9	-2.5438	-2.6479	-2.8667	-2.3312	-3.1063	-2.7938	-2.6125	-2.8354	-2.425	-2.7062	305.617	337.064	68.014	64.519	176.684	109.701	379.833	381.374	389.589	108.798	225.577	395.307	195.097	296.800	123.574	309.963	0.00020417	0.00023929	0.00011492	1130.4	1.4529e-06	5.4588e-06	1229.6	243.99	3.8174e-06	4.9934e-06	306.3	82.593	64.961	19.021	3.006e-06	26.845	0.00027394	0.00027663	7.5671e-05	1113.5	3.1152e-06	3.0297e-06	1211.6	242.7	3.1082e-06	3.1952e-06	303.8	83.307	65.65	19.467	3.1523e-06	27.065	195.542	192.403	126.591	73.380	179.334	209.997	73.542	80.923	222.912	185.405	80.446	87.347	87.887	94.100	254.557	93.710	-8191	255	
679.863	1	1	0	0	0.12481	0.12006	0.18666	0.35365	0.15527	0.11425	0.31504	0.082405	0.19559	0.085616	0.23566	0.10763	0.11728	0.19663	0.23416	0.13225	-2.4313	-2.6354	-2.6729	-2.6417	-2.5333	-3.0812	-2.6146	-2.525	-2.75	-2.5521	-2.8833	-2.7458	-2.5271	-2.9813	-2.5563	-2.6188	398.754	165.701	251.931	68.864	118.566	422.097	330.850	254.985	153.546	402.167	389.754	106.468	71.213	105.548	200.958	194.312	0.00023371	0.00022322	0.00014651	1131.1	2.4543e-06	3.0056e-06	1228.8	243.72	2.2601e-06	2.8468e-06	304.45	82.903	64.925	19.211	4.5301e-06	26.513	0.00027972	0.00029343	7.9826e-05	1111.2	3.326e-06	3.0119e-06	1209.7	242.36	3.2252e-06	3.1518e-06	303.29	83.274	65.52	19.499	3.2542e-06	27.04	199.200	190.855	143.073	73.363	230.524	213.032	73.706	80.782	291.750	222.359	80.639	87.569	87.789	94.317	201.403	93.873	-8191	255	
679.959	1	1	0	0	0.25954	0.21521	0.14041	0.18387	0.40911	0.48204	0.18052	0.21363	0.095379	0.30443	0.21525	0.18177	0.21697	0.19126	0.20426	0.046729	-2.4479	-2.4208	-2.6917	-2.925	-2.5208	-3.0104	-2.7875	-2.6937	-2.7354	-2.6125	-2.9417	-3.0979	-2.5104	-3.0729	-2.5833	-2.4688	169.328	337.132	215.058	406.821	217.673	356.791	354.784	230.187	317.464	122.696	402.385	127.173	78.366	384.371	420.509	381.179	0.00020662	0.0003363	0.00011986	1131.8	3.7928e-06	3.868e-06	1228.1	245.25	4.326e-06	5.5203e-06	304.87	82.502	65.158	19.068	3.2871e-06	26.51	0.00027767	0.00029341	8.2763e-05	1113	3.4412e-06	3.2103e-06	1210.1	242.7	3.2829e-06	3.3385e-06	303.88	83.131	65.633	19.404	3.3765e-06	26.998	194.341	134.075	173.708	73.345	229.313	194.749	73.449	80.780	253.099	180.069	80.440	87.659	88.037	94.138	177.171	94.295	-8191	255	
680.055	1	1	0	0	0.23184	0.17121	0.095059	0.073845	0.19198	0.12858	0.15698	0.24905	0.13517	0.26017	0.24112	0.26273	0.14934	0.069894	0.17447	0.14308	-2.425	-2.4437	-2.5896	-2.7542	-2.2604	-2.8125	-2.6937	-2.5521	-2.9021	-2.3479	-2.5354	-2.8146	-2.4458	-2.8438	-2.6729	-2.4417	416.646	232.852	235.084	134.953	244.426	135.885	390.262	352.923	370.657	197.336	396.442	110.316	213.910	135.133	183.473	316.056	0.00020797	0.00031125	5.6613e-05	1134.6	1.5498e-06	4.5852e-06	1231.2	244.61	2.7644e-06	3.4407e-06	305.65	82.133	64.929	19.043	2.5114e-06	26.394	0.00029768	0.00030982	8.7633e-05	1114.2	3.4627e-06	3.3627e-06	1211.3	242.24	3.3275e-06	3.4478e-06	303.71	83.094	65.588	19.382	3.4027e-06	26.93	194.763	139.702	178.397	73.343	214.341	235.580	73.547	80.811	267.205	240.655	80.243	87.686	87.618	94.277	197.533	94.370	-8191	255	
680.174	1	1	0	0	0.18579	0.10636	0.14132	0.22082	0.29475	0.14841	0.037543	0.21168	0.20708	0.12093	0.17489	0.33068	0.25217	0.0999	0.2694	0.21275	-2.3146	-2.45	-2.4417	-2.9521	-2.3396	-2.7208	-2.7708	-2.3479	-2.925	-2.6083	-2.6708	-2.9813	-2.5438	-2.7604	-2.7479	-2.3812	252.099	352.453	177.192	100.729	201.105	89.157	304.338	70.615	350.761	362.016	347.065	255.939	420.036	393.904	169.187	334.655	0.00024514	0.00031367	8.6294e-05	1129.9	1.9836e-06	3.1136e-06	1231.4	243.53	3.4734e-06	5.8588e-06	304.09	82.595	65.24	19.166	3.2515e-06	26.438	0.00029136	0.00031052	8.8841e-05	1114.7	3.4923e-06	3.4348e-06	1211.9	242.43	3.4773e-06	3.5716e-06	303.95	83.131	65.619	19.452	3.5596e-06	26.866	198.876	116.230	207.025	73.349	240.030	233.142	73.569	80.829	252.245	210.550	80.548	87.714	87.669	94.347	253.119	94.030	-8191	255	
680.270	1	1	0	0	0.076882	0.076877	0.096596	0.1051	0.20785	0.15542	0.10466	0.31791	0.082766	0.17623	0.14928	0.086064	0.23886	0.095181	0.10404	0.1143	-2.5583	-2.4354	-2.4042	-2.9583	-2.5187	-2.6688	-2.9521	-2.45	-2.8312	-2.6729	-2.5833	-2.9813	-2.525	-2.6625	-2.8063	-2.5229	291.493	149.501	267.028	406.084	379.985	274.189	356.369	419.525	363.351	100.997	140.727	62.542	145.615	311.397	240.453	421.061	0.00022288	0.00079115	0.00014872	1131.5	4.112e-06	2.949e-06	1228.5	244.44	6.7016e-07	1.5387e-06	306.2	82.198	65.67	18.974	1.7805e-06	26.719	0.0003072	0.00032812	8.8781e-05	1114.1	3.5462e-06	3.484e-06	1211.4	242.95	3.3998e-06	3.5304e-06	304.3	83.092	65.62	19.39	3.4067e-06	27.001	193.668	181.119	150.794	73.522	218.778	166.126	73.542	80.370	199.560	186.492	80.531	87.448	87.749	94.303	231.706	93.776	-8191	255	
680.366	1	1	0	0	0.03135	0.11198	0.10104	0.17205	0.091791	0.19386	0.24841	0.062091	0.037247	0.18044	0.12433	0.10145	0.15292	0.12569	0.19684	0.26289	-2.4208	-2.6979	-2.4521	-2.8917	-2.5125	-2.5812	-3.0812	-2.3667	-2.6146	-2.5875	-2.6375	-3.0438	-2.4562	-2.6542	-2.9479	-2.5417	194.777	79.017	384.444	88.518	250.947	299.426	367.238	293.250	402.325	70.315	350.373	165.879	72.328	364.938	415.596	401.700	0.00023667	0.00040343	0.00010124	1129	3.0582e-06	1.2074e-06	1228.1	243.2	1.2431e-06	1.7092e-06	306.35	82.497	65.058	19.143	3.9528e-06	26.466	0.00030507	0.00030874	8.8246e-05	1115.5	3.5104e-06	3.4734e-06	1211.5	242.84	3.5358e-06	3.558e-06	303.93	82.915	65.518	19.411	3.4661e-06	26.881	191.860	144.188	177.207	73.192	280.229	208.673	73.639	80.826	233.257	197.856	80.310	87.253	87.777	94.207	197.745	94.316	-8191	255	
680.462	1	1	0	0	0.22155	0.14866	0.25348	0.30224	0.09324	0.24031	0.37091	0.020477	0.099455	0.11684	0.25482	0.038562	0.20593	0.27784	0.11673	0.2742	-2.3812	-2.7792	-2.4396	-2.925	-2.6125	-2.5917	-3.0312	-2.5208	-2.9437	-2.6208	-2.5854	-2.9062	-2.6063	-2.3812	-2.9833	-2.4833	253.445	191.645	115.210	401.074	121.064	156.733	240.340	331.683	285.528	301.050	416.044	155.791	96.164	406.380	398.014	85.677	0.00020512	0.00025626	8.6671e-05	1131	4.3401e-06	2.7769e-06	1228.4	242.32	2.462e-06	1.6967e-06	305.8	82.127	64.794	19.114	2.9439e-06	26.328	0.00030456	0.000312	8.9963e-05	1113.1	3.7323e-06	3.5392e-06	1210.2	242.17	3.5823e-06	3.6449e-06	304.16	82.957	65.392	19.366	3.4702e-06	26.835	195.477	168.181	185.556	73.484	209.454	243.898	73.617	80.602	263.764	161.366	80.402	87.502	88.167	94.583	270.932	94.320	-8191	255	
680.558	1	1	0	0	0.4261	0.035321	0.19146	0.33277	0.15877	0.05441	0.21376	0.01938	0.15927	0.14419	0.14772	0.10806	0.3477	0.075923	0.19162	0.35767	-2.1354	-2.7979	-2.4521	-3.1354	-2.4604	-2.5375	-3.0292	-2.6333	-2.7458	-2.775	-2.3958	-2.8354	-2.6813	-2.4479	-2.9604	-2.6208	83.050	399.561	278.375	352.363	205.168	148.630	360.298	345.039	81.732	296.719	406.880	337.677	379.004	359.880	299.198	394.221	0.00021966	0.000292	3.3381e-05	1130.2	3.147e-06	5.1004e-06	1231.4	243.86	2.7607e-06	4.4014e-06	304.79	82.514	65.314	19.18	3.0735e-06	26.476	0.00031521	0.0003202	9.2616e-05	1113.7	3.55e-06	3.5283e-06	1212.7	242.59	3.4985e-06	3.3917e-06	303.99	83.132	65.504	19.424	3.5059e-06	26.936	196.095	88.690	158.855	73.373	253.394	211.464	73.617	80.782	234.506	210.069	80.318	87.935	87.605	94.249	241.365	94.372	-8191	255	
680.655	1	1	0	0	0.14163	0.084438	0.16809	0.31546	0.24032	0.1997	0.35605	0.2674	0.31735	0.18126	0.14085	0.25055	0.21941	0.25129	0.088474	0.083487	-2.275	-2.7521	-2.45	-2.8583	-2.7812	-2.4437	-3.1333	-2.5125	-2.6875	-2.8479	-2.5229	-2.9333	-2.7313	-2.2479	-2.925	-2.4354	126.061	372.318	302.718	63.670	196.790	210.542	306.212	87.958	114.947	83.564	395.096	80.353	312.024	288.454	167.362	283.754	0.0001992	0.00045458	0.00012345	1126.8	3.0372e-06	5.9167e-06	1224.1	243.1	5.1137e-06	4.1115e-06	306.52	82.35	64.809	19.083	1.7301e-06	26.728	0.00030281	0.00032248	9.1706e-05	1111.8	3.6313e-06	3.4976e-06	1210.2	242.32	3.7475e-06	3.5691e-06	304.13	83.051	65.452	19.45	3.5696e-06	27.02	194.880	141.480	189.261	73.308	254.167	206.082	73.740	80.675	244.864	255.958	80.031	87.513	87.747	94.515	266.948	94.196	-8191	255	
680.775	1	1	0	0	0.16607	0.19552	0.19116	0.29	0.15837	0.13934	0.07846	0.27207	0.049032	0.3104	0.16272	0.10016	0.17705	0.17935	0.16582	0.018217	-1.8854	-2.8063	-2.225	-2.7833	-2.7208	-2.4917	-2.9313	-2.6021	-2.3979	-2.8875	-2.4646	-2.8458	-3.1458	-2.3146	-2.8542	-2.8083	230.482	237.117	122.972	378.537	416.851	95.259	159.918	346.591	224.880	82.794	413.057	217.701	378.436	380.763	102.379	387.225	0.00021519	0.00048585	0.00012567	1132	4.8559e-06	3.8729e-06	1222.7	243.61	3.696e-06	4.5445e-06	304.66	82.519	64.94	19.041	2.9819e-06	26.659	0.00031007	0.00032117	8.9135e-05	1115.8	3.5516e-06	3.4915e-06	1210.6	242.45	3.6573e-06	3.4766e-06	303.33	82.988	65.522	19.411	3.6259e-06	26.936	201.233	146.151	150.547	73.472	219.772	224.423	73.631	80.742	236.770	237.799	80.343	87.746	87.943	94.249	231.370	94.232	-8191	255	
680.871	1	1	0	0	0.13804	0.18319	0.064106	0.16493	0.12416	0.079467	0.19079	0.27863	0.065175	0.18221	0.16755	0.29293	0.30641	0.11778	0.34352	0.098552	-2.0458	-2.7562	-2.4604	-2.8521	-2.9292	-2.4604	-2.9562	-2.8937	-2.4646	-2.95	-2.55	-2.6937	-2.8896	-2.4708	-2.7896	-2.8083	205.950	313.603	341.007	410.953	394.936	198.792	393.730	81.564	71.062	104.361	349.054	390.273	68.909	405.347	395.424	126.617	0.00023561	0.00029786	6.4394e-05	1129	4.4765e-06	4.65e-06	1224.7	243.37	3.3763e-06	2.183e-06	304.97	82.38	65.212	18.965	3.0937e-06	26.484	0.00031829	0.00033653	9.4367e-05	1113.7	3.7444e-06	3.6899e-06	1208.1	242.44	3.7431e-06	3.6812e-06	303.73	82.989	65.715	19.349	3.7021e-06	26.902	189.833	180.964	146.819	73.543	227.195	221.288	73.746	80.752	243.939	259.837	80.382	87.622	87.700	94.167	207.163	93.821	-8191	255	
680.966	1	1	0	0	0.18076	0.34198	0.21322	0.16205	0.069625	0.17503	0.040537	0.19199	0.040171	0.14962	0.3288	0.22727	0.2058	0.09354	0.12322	0.26605	-1.975	-2.7646	-2.5375	-2.7188	-2.8396	-2.3396	-2.9125	-2.7917	-2.3604	-2.8375	-2.7792	-2.4792	-2.9604	-2.4917	-2.8375	-2.9396	109.365	169.916	199.502	334.013	333.788	156.900	160.149	414.541	331.582	245.731	400.823	99.150	402.185	278.877	122.252	339.384	0.00021611	0.00027425	8.8712e-05	1127.8	1.8784e-06	3.005e-06	1223.1	243.45	1.0651e-06	2.4555e-06	304.25	82.469	65.036	19.102	3.5313e-06	26.671	0.0003146	0.00033551	9.18e-05	1113.4	3.4363e-06	3.6135e-06	1209.8	242.36	3.5719e-06	3.6285e-06	303.48	82.916	65.658	19.358	3.5821e-06	27.005	194.849	184.990	133.723	73.257	194.608	167.097	73.779	80.820	186.190	128.858	80.493	87.303	87.789	94.388	217.799	93.827	-8191	255	
681.064	1	1	0	0	0.27476	0.12868	0.14301	0.19569	0.12117	0.19087	0.20067	0.20691	0.19706	0.10427	0.20404	0.049618	0.2016	0.18671	0.12836	0.14225	-1.8188	-2.7167	-2.5667	-2.7667	-2.8271	-2.4354	-2.9708	-2.8146	-2.4125	-2.7729	-2.8937	-2.35	-2.9271	-2.4938	-2.7292	-2.8937	182.451	283.088	164.648	355.376	332.704	355.830	316.556	373.442	335.498	94.421	63.785	209.010	291.772	141.580	247.508	329.543	0.000244	0.0005175	0.00010127	1126.3	3.887e-06	2.2259e-06	1230	244.11	2.6089e-06	2.3345e-06	304.28	81.829	65.107	18.973	3.9894e-06	26.551	0.00031829	0.00033792	9.218e-05	1112.8	3.7096e-06	3.5845e-06	1211.9	242.65	3.6854e-06	3.6536e-06	303.3	82.851	65.402	19.278	3.6304e-06	26.906	195.403	169.032	171.381	73.414	210.503	242.918	73.748	80.784	277.994	168.384	80.281	87.669	87.845	94.449	270.290	94.185	-8191	255	
681.158	1	1	0	0	0.053892	0.098273	0.095397	0.40698	0.10484	0.23745	0.16257	0.35045	0.16948	0.073033	0.082933	0.17551	0.17979	0.081633	0.13077	0.23105	-1.8854	-2.8083	-2.7417	-2.5625	-2.9521	-2.4542	-2.7958	-2.9042	-2.5333	-2.8646	-2.8625	-2.4521	-2.9708	-2.5708	-2.6562	-2.8729	138.734	304.601	417.036	345.404	307.520	166.870	351.058	348.399	207.874	97.781	184.059	94.249	356.572	389.270	176.694	349.161	0.00022864	0.00026398	9.0085e-05	1130.3	2.188e-06	4.3032e-06	1224.2	243.11	3.2886e-06	2.6633e-06	302.91	82.15	65.094	19.207	5.0809e-06	26.358	0.00030901	0.00033283	8.8729e-05	1114.6	3.6568e-06	3.6597e-06	1209.2	242.17	3.6358e-06	3.5284e-06	302.87	82.859	65.511	19.349	3.5678e-06	26.917	201.118	132.405	188.364	73.368	217.697	244.338	73.616	80.858	241.888	265.984	80.591	87.569	87.614	94.383	208.253	94.032	-8191	255	
681.254	1	1	0	0	0.18362	0.14448	0.32583	0.19255	0.27443	0.1086	0.1062	0.13527	0.055217	0.20582	0.10361	0.24296	0.085508	0.11757	0.17711	0.047669	-1.85	-2.675	-2.8354	-2.6271	-2.8146	-2.7146	-2.6854	-2.9813	-2.7042	-2.7979	-2.9	-2.5083	-2.9583	-2.7271	-2.6271	-3.0667	236.701	380.825	164.986	372.689	126.440	120.121	341.048	347.567	245.518	74.860	416.697	398.385	99.429	279.976	250.844	414.631	0.00022566	0.0003145	8.0891e-05	1125.5	3.8407e-06	4.0082e-06	1231.2	241.7	2.7651e-06	2.033e-06	303.73	82.434	64.566	18.994	3.7738e-06	26.633	0.00031155	0.00032922	8.8984e-05	1114	3.6328e-06	3.4815e-06	1211.4	241.69	3.5397e-06	3.5674e-06	303.22	83.013	65.394	19.35	3.6184e-06	26.888	199.292	165.230	141.305	73.333	249.024	200.676	73.760	80.906	236.088	206.066	80.107	87.690	87.727	94.302	200.837	94.178	-8191	255	
681.350	1	1	0	0	0.049742	0.19883	0.12409	0.16651	0.061141	0.15749	0.34982	0.13749	0.28614	0.15026	0.025398	0.073783	0.14671	0.29491	0.26135	0.19285	-2.1688	-2.6979	-2.7479	-2.3375	-2.9229	-2.6063	-2.8479	-3	-2.5042	-2.6625	-2.8729	-2.5062	-2.8292	-2.5604	-2.3187	-2.9104	374.589	334.419	269.809	412.608	398.452	309.042	382.007	65.049	210.611	63.924	391.831	363.975	390.470	355.531	63.441	385.134	0.00025475	0.0003401	0.00010757	1133	2.4113e-06	2.5905e-06	1226	244.11	2.5032e-06	3.1806e-06	304.76	82.074	65.338	19.075	2.1912e-06	26.503	0.00032184	0.00032832	9.2538e-05	1115.6	3.6073e-06	3.5782e-06	1209.6	242.7	3.6068e-06	3.5638e-06	303.76	82.914	65.586	19.376	3.5668e-06	26.883	189.577	153.348	195.649	73.519	227.031	167.731	73.547	80.828	229.820	242.559	80.056	88.043	87.634	94.842	217.683	94.080	-8191	255	
681.471	1	1	0	0	0.067943	0.12286	0.34744	0.017909	0.21707	0.25902	0.3147	0.16386	0.034911	0.13157	0.33143	0.099212	0.1367	0.077962	0.23033	0.19374	-1.9917	-2.4792	-2.9062	-2.4437	-2.7146	-2.7667	-2.4646	-2.9917	-2.5438	-2.4375	-2.9854	-2.3375	-2.7646	-2.8958	-2.5521	-2.8417	286.855	112.401	156.814	382.631	132.920	87.262	375.243	393.708	84.016	286.000	398.507	333.835	283.529	394.260	157.537	335.427	0.00023158	0.00051428	0.00015466	1130.6	3.5216e-06	4.396e-06	1228.2	243.75	2.9025e-06	4.4701e-06	306	82.061	64.894	18.974	2.8469e-06	26.275	0.00032031	0.00033278	8.9579e-05	1113.4	3.7573e-06	3.5519e-06	1211.1	242.6	3.6346e-06	3.5813e-06	304.11	82.782	65.468	19.302	3.662e-06	26.854	188.408	108.147	172.583	73.250	186.037	234.592	73.519	80.943	240.729	211.219	80.372	87.525	87.851	94.299	231.550	93.987	-8191	255	
681.567	1	1	0	0	0.28495	0.30217	0.13478	0.36766	0.093534	0.11308	0.27325	0.42013	0.22126	0.1483	0.16479	0.17628	0.23882	0.15082	0.17952	0.036706	-2.2562	-2.3812	-2.7208	-2.5833	-2.5375	-2.8542	-2.6042	-3.05	-2.6937	-2.65	-3.1792	-2.5542	-2.7875	-2.7875	-2.4896	-2.7958	145.917	254.384	393.995	62.971	187.659	414.740	383.642	414.441	96.803	288.651	327.769	324.339	259.788	398.985	204.023	277.370	0.00022386	0.00047481	0.00011457	1131.3	6.5156e-06	5.0284e-06	1228.1	244.91	5.044e-06	4.1077e-06	304.98	81.931	65.078	19.06	2.3463e-06	26.433	0.00031518	0.00032863	9.0506e-05	1114	3.6679e-06	3.6263e-06	1211	242.8	3.707e-06	3.8322e-06	303.66	83.011	65.551	19.394	3.9934e-06	26.961	186.817	121.950	142.900	73.501	262.345	216.006	73.653	80.845	223.859	191.993	80.522	87.501	87.914	94.444	253.213	94.009	-8191	255	
681.663	1	1	0	0	0.386	0.11291	0.064054	0.22829	0.089346	0.10235	0.1548	0.093762	0.1349	0.10176	0.17809	0.2311	0.23512	0.17063	0.057971	0.060738	-2.2958	-2.6792	-2.8875	-2.8354	-2.5167	-2.7521	-2.5979	-2.9458	-2.8063	-2.3146	-2.9167	-2.4833	-2.7917	-2.9875	-2.4813	-2.9	170.237	117.361	104.278	357.524	209.797	278.456	95.894	66.746	106.421	265.525	202.782	163.685	98.949	164.344	347.198	351.558	0.00022131	0.00044635	6.9811e-05	1134.1	4.4942e-06	3.3188e-06	1224.1	243.77	2.6411e-06	4.1194e-06	305.51	82.585	65.676	18.944	2.8595e-06	26.487	0.00035377	0.00038403	0.00010502	1111.9	4.1912e-06	4.0443e-06	1210.6	242.7	4.0115e-06	4.0794e-06	304.13	83.175	65.759	19.371	3.7273e-06	26.97	195.686	168.483	149.335	73.357	235.673	207.203	73.242	80.863	243.796	132.982	80.195	87.819	87.843	94.544	276.695	94.265	-8191	255	
681.735	1	1	0	0	0.082623	0.23834	0.29923	0.12035	0.2774	0.16047	0.31906	0.18042	0.14422	0.20955	0.28235	0.076377	0.14413	0.082564	0.12344	0.095527	-2.3125	-2.3354	-2.9167	-2.6688	-2.6229	-2.8271	-2.7667	-2.9437	-2.65	-2.4688	-3.0958	-2.6813	-2.5333	-2.7417	-2.4854	-2.7667	123.786	238.478	346.330	410.141	270.415	314.403	390.750	349.301	298.493	100.916	387.587	301.529	373.914	350.799	291.068	297.242	0.00022512	0.00041508	0.00014454	1135.1	4.4536e-06	4.4472e-06	1229.6	243.69	3.7956e-06	4.6826e-06	306.71	82.594	65.347	18.991	2.4071e-06	26.607	0.00031329	0.00034382	9.4035e-05	1117.8	3.7764e-06	3.6633e-06	1213.5	242.53	3.998e-06	3.924e-06	304.38	83.081	65.669	19.308	4.1618e-06	26.933	199.413	155.555	192.931	73.368	216.210	249.852	73.596	80.748	239.737	201.377	80.220	87.576	88.143	94.361	262.762	94.122	-8191	255	
681.856	1	1	0	0	0.187	0.24645	0.15062	0.14371	0.20385	0.15359	0.57427	0.16696	0.050156	0.35307	0.11289	0.12079	0.29438	0.15937	0.12826	0.24091	-2.3208	-2.2792	-2.7354	-2.7938	-2.5625	-2.9208	-2.6896	-2.8604	-2.9208	-2.3604	-2.8229	-2.7521	-2.5708	-2.9979	-2.6937	-2.675	105.375	301.165	354.192	399.395	187.372	422.389	347.244	175.461	212.976	286.993	231.417	349.469	175.328	357.466	357.991	192.751	0.00023897	0.00044463	6.5795e-05	1132.4	5.1691e-06	3.723e-06	1225	244.15	4.5901e-06	3.2577e-06	305.01	82.925	65.57	18.996	3.8333e-06	26.479	0.00034469	0.0003774	0.00010478	1116.1	4.111e-06	3.9934e-06	1212.1	243	3.9875e-06	3.9915e-06	304.03	83.162	65.708	19.253	3.7538e-06	26.921	197.589	174.748	213.154	73.311	225.765	209.317	73.629	80.797	210.733	198.806	80.070	87.695	88.059	94.306	235.726	94.177	-8191	255	
681.952	1	1	0	0	0.1525	0.12791	0.10767	0.048661	0.047444	0.19682	0.11648	0.11267	0.0798	0.28069	0.15469	0.10245	0.13698	0.16435	0.1044	0.20479	-2.4792	-2.3063	-2.8438	-2.6688	-2.3125	-2.9562	-2.6063	-2.5917	-2.7833	-2.4042	-2.7812	-2.6896	-2.5479	-2.8521	-2.5792	-2.4625	393.233	257.577	325.850	346.588	346.346	374.865	414.358	267.536	324.359	257.148	382.652	235.159	121.461	413.354	240.748	258.847	0.00022169	0.00024764	4.3204e-05	1133.4	3.4766e-06	2.9973e-06	1230.1	242.92	4.4345e-06	3.7014e-06	304.59	82.203	65.106	19.014	4.9731e-06	26.285	0.00031258	0.00032562	9.2599e-05	1114.8	3.6361e-06	3.5845e-06	1213.4	242.9	3.6039e-06	3.703e-06	303.96	83.145	65.482	19.304	3.8585e-06	26.871	198.532	162.549	193.594	73.419	202.413	225.819	73.447	80.819	250.767	147.178	80.647	87.464	87.898	94.403	225.417	94.253	-8191	255	
682.048	1	1	0	0	0.13806	0.17552	0.074604	0.23403	0.063951	0.14785	0.32156	0.38777	0.24775	0.077783	0.1549	0.1841	0.098805	0.066924	0.13615	0.11205	-2.3979	-2.4167	-2.575	-2.9146	-2.4062	-2.8979	-2.7479	-2.5458	-2.9	-2.3979	-2.7479	-2.7771	-2.4938	-2.9896	-2.6042	-2.6188	106.533	386.883	336.769	346.188	173.543	122.679	381.847	325.937	71.162	312.537	383.183	353.576	332.746	363.833	158.248	219.114	0.00022807	0.0002378	0.00016986	1125.9	1.4784e-06	5.1658e-06	1230.8	244.17	4.3e-06	1.2442e-06	305.63	82.144	64.972	18.936	1.973e-06	26.46	0.00032928	0.00035878	0.00010067	1114.8	4.0437e-06	3.963e-06	1213.5	243.33	3.9555e-06	3.9247e-06	304.49	82.856	65.47	19.288	3.9267e-06	26.904	188.957	143.577	174.196	73.641	262.906	208.338	73.403	80.791	238.521	220.380	80.391	87.459	88.200	94.544	254.337	93.963	-8191	255	
682.144	1	1	0	0	0.26653	0.073306	0.067413	0.32991	0.22625	0.20222	0.097539	0.28088	0.31319	0.10738	0.13411	0.22076	0.048469	0.14998	0.094993	0.30412	-2.5354	-2.3604	-2.6333	-3.0292	-2.375	-2.8729	-2.6583	-2.3896	-2.5604	-2.5938	-2.6396	-2.7792	-2.5208	-2.8729	-2.6104	-2.3875	365.775	193.070	183.714	386.009	87.645	219.497	319.620	89.307	200.212	309.064	379.238	399.522	417.447	130.948	393.217	357.981	0.0002275	0.00036771	0.00011759	1132.9	1.4986e-06	1.6482e-06	1224.7	244.5	2.5665e-06	6.2552e-06	306.17	82.448	64.837	18.932	3.4594e-06	26.39	0.00031543	0.00034685	9.6973e-05	1115.6	3.7682e-06	3.6388e-06	1210.8	243.22	3.7897e-06	3.8288e-06	304.51	83.177	65.655	19.351	3.8872e-06	26.931	190.040	135.048	188.434	73.368	180.465	169.013	73.437	80.762	237.483	215.619	80.211	87.097	88.214	94.350	176.919	93.861	-8191	255	
682.263	1	1	0	0	0.11498	0.17529	0.12562	0.21863	0.14009	0.19527	0.22269	0.1841	0.2067	0.071267	0.074043	0.11476	0.21791	0.20616	0.18932	0.043826	-2.4333	-2.4313	-2.7354	-2.9542	-2.3792	-2.6813	-2.9458	-2.3542	-2.8271	-2.4875	-2.6333	-3.0042	-2.4396	-2.625	-2.85	-2.3458	243.518	191.830	257.953	402.817	68.064	75.349	403.598	231.146	64.367	270.988	168.234	82.230	362.178	367.398	67.621	208.867	0.00019106	0.00058877	8.7678e-05	1137.1	2.1575e-06	5.323e-06	1223.8	242.81	4.3484e-06	4.5793e-06	304.01	82.089	64.819	18.975	2.1949e-06	26.543	0.00032484	0.0003598	0.00010159	1115.8	4.0252e-06	4.0307e-06	1208.9	242.39	3.9813e-06	4.0704e-06	303.27	82.872	65.476	19.312	3.9004e-06	26.857	197.645	149.025	151.945	73.173	243.961	186.668	73.704	81.050	239.767	156.384	80.427	87.273	88.069	94.414	220.022	94.405	-8191	255	
682.359	1	1	0	0	0.29351	0.14515	0.24581	0.10144	0.12835	0.09773	0.074827	0.18487	0.0067533	0.092385	0.10401	0.045593	0.18099	0.12009	0.082504	0.12589	-2.4125	-2.6396	-2.2229	-3.1292	-2.4562	-2.7125	-2.9979	-2.3896	-2.8333	-2.7167	-2.5875	-2.9938	-2.6562	-2.5833	-2.775	-2.2979	372.662	99.368	122.392	388.460	334.173	328.032	319.908	422.289	185.577	375.492	98.850	74.596	85.940	405.422	181.837	359.447	0.00021965	0.00023617	6.2973e-05	1133.2	1.7869e-06	1.4199e-06	1223.5	244.46	2.704e-06	2.3739e-06	304.66	82.162	65.031	19.002	3.0649e-06	26.362	0.00034355	0.00035403	9.9104e-05	1114.6	3.8993e-06	3.9284e-06	1210.9	242.52	3.7219e-06	3.7018e-06	303.34	83.112	65.631	19.414	3.5753e-06	26.927	195.674	178.775	186.764	73.380	232.728	226.954	73.723	80.538	192.648	116.099	79.955	87.696	87.421	94.710	225.949	94.021	-8191	255	
682.455	1	1	0	0	0.15238	0.26974	0.12348	0.28567	0.23444	0.14354	0.24009	0.04707	0.24254	0.10085	0.064807	0.24106	0.056725	0.28125	0.14076	0.20842	-2.3021	-2.5979	-2.2979	-2.8646	-2.3792	-2.5438	-2.9625	-2.3521	-2.8792	-2.6583	-2.6771	-2.8479	-2.4813	-2.525	-2.8833	-2.3688	168.856	96.067	97.630	367.150	196.018	392.360	339.685	117.689	259.751	282.370	159.413	164.769	420.984	170.961	251.422	143.911	0.00023636	0.00035044	9.622e-05	1128.5	5.7187e-06	3.1309e-06	1234.2	243.73	5.9802e-06	3.9196e-06	303.5	81.999	65.005	18.945	8.3394e-07	26.413	0.00031947	0.00033998	9.1995e-05	1116.5	3.882e-06	3.807e-06	1214.9	242.78	3.7872e-06	3.8136e-06	303.22	83.087	65.448	19.326	3.6046e-06	26.892	190.241	165.288	167.100	73.384	240.347	212.790	73.645	80.832	260.683	218.857	80.514	87.490	87.476	94.456	272.198	93.543	-8191	255	
682.551	1	1	0	0	0.022361	0.16218	0.09673	0.25019	0.082271	0.13754	0.091464	0.11492	0.16723	0.15069	0.094427	0.058001	0.14153	0.31708	0.27592	0.10131	-2.2292	-2.6312	-2.4229	-2.9979	-2.5583	-2.4792	-3.0521	-2.5271	-2.6813	-2.8063	-2.5542	-2.9125	-2.6229	-2.5917	-2.8083	-2.4271	346.439	351.441	171.819	422.505	265.738	222.572	189.009	87.688	336.643	69.705	327.864	332.610	68.630	110.125	227.393	310.588	0.00022171	0.00016793	0.00012164	1131.3	2.4654e-06	3.0836e-06	1226	243.1	3.5014e-06	5.3158e-06	307.51	82.887	65.14	19.104	2.9244e-06	26.622	0.00031005	0.00032168	8.9631e-05	1114.9	3.6351e-06	3.6047e-06	1210.6	242.46	3.6062e-06	3.6103e-06	304.39	83.209	65.646	19.385	3.5372e-06	26.878	191.911	110.665	156.463	73.314	226.067	199.052	73.568	80.758	258.202	210.136	80.225	87.377	87.700	94.651	192.448	94.169	-8191	255	
682.647	1	1	0	0	0.16157	0.19197	0.25069	0.21021	0.10487	0.16044	0.14786	0.33836	0.181	0.13082	0.10868	0.10281	0.26003	0.21287	0.38853	0.13179	-2.2354	-2.8438	-2.4729	-2.8708	-2.6583	-2.6208	-3.0687	-2.6708	-2.65	-2.9813	-2.3958	-2.8521	-2.8563	-2.3854	-2.9521	-2.6437	221.411	365.261	89.934	406.502	277.504	406.805	379.888	351.148	124.474	92.800	141.851	365.112	244.542	334.694	307.174	251.864	0.00023584	0.00042952	5.2965e-05	1130.9	3.5834e-06	4.6615e-06	1225.8	245.04	3.4017e-06	1.2193e-06	304.65	82.375	64.917	19.049	1.6989e-07	26.288	0.00030978	0.00033002	9.3768e-05	1114.3	3.7312e-06	3.6397e-06	1212	242.93	3.6456e-06	3.5144e-06	303.55	82.913	65.371	19.274	3.4449e-06	26.792	197.543	168.622	179.254	73.132	237.693	249.037	73.724	80.540	225.285	244.781	80.251	87.485	88.161	94.665	368.048	93.789	-8191	255	
682.744	1	1	0	0	0.16651	0.18145	0.059567	0.19852	0.36482	0.11244	0.3908	0.24263	0.21541	0.058478	0.20444	0.18289	0.28809	0.22394	0.10879	0.18202	-2.2188	-2.8646	-2.4333	-2.8917	-2.7479	-2.5708	-2.85	-2.5771	-2.3958	-2.8688	-2.7646	-2.9313	-2.6708	-2.4688	-2.7958	-2.7229	349.474	133.057	115.090	415.256	234.516	121.408	360.448	112.790	72.845	182.268	137.301	315.055	78.506	260.652	270.332	202.185	0.00023231	0.00013682	8.1075e-05	1132.5	2.2063e-06	1.3969e-06	1226.7	242.92	4.0115e-06	4.6214e-06	305.93	82.082	64.839	18.998	4.934e-06	26.466	0.00030574	0.00031405	8.8108e-05	1113.6	3.5711e-06	3.6505e-06	1211.1	242.23	3.613e-06	3.5302e-06	303.33	82.981	65.626	19.379	3.4692e-06	26.913	194.127	112.218	179.806	73.409	212.443	217.474	73.582	80.696	239.047	221.168	80.312	87.576	87.725	94.359	219.060	93.921	-8191	255	
682.864	1	1	0	0	0.24991	0.087144	0.24073	0.28909	0.36307	0.15691	0.041593	0.16441	0.22523	0.1809	0.44185	0.10272	0.12494	0.25064	0.095868	0.031323	-2.0333	-2.8312	-2.4917	-2.7458	-2.7583	-2.4708	-2.9854	-2.7125	-2.3812	-2.9562	-2.4333	-2.5167	-2.7687	-2.3583	-2.7771	-2.7292	198.558	72.044	341.686	384.572	202.875	117.375	262.963	84.994	289.423	265.567	387.182	67.533	139.505	182.927	95.306	70.079	0.00023266	0.00023542	9.6102e-05	1128.6	3.6113e-06	2.1924e-06	1226.5	243.99	3.3658e-06	1.2444e-06	305.56	82.196	65.025	19.01	3.5836e-06	26.472	0.0003138	0.00031649	9.2542e-05	1113.3	3.7073e-06	3.5479e-06	1211.1	242.76	3.5663e-06	3.6805e-06	303.92	82.909	65.499	19.34	3.7607e-06	26.871	190.729	139.901	131.862	73.442	247.744	254.421	73.716	81.035	232.861	129.179	80.432	87.421	87.654	94.200	224.701	94.167	-8191	255	
682.959	1	1	0	0	0.10792	0.10351	0.12767	0.099384	0.20594	0.18447	0.040849	0.19586	0.21604	0.065665	0.10516	0.13118	0.21839	0.17016	0.20703	0.18899	-1.9083	-2.8375	-2.4083	-2.7708	-2.7875	-2.4104	-2.9313	-2.7438	-2.3417	-2.8917	-2.7104	-2.7333	-3.025	-2.4167	-2.6979	-2.9396	277.454	330.622	300.424	95.480	279.557	397.444	258.352	289.651	209.488	100.869	377.007	404.908	411.141	237.752	401.175	397.855	0.00019893	0.00027169	4.4931e-05	1131.7	3.9483e-06	3.517e-06	1225.5	243.17	4.381e-06	1.2508e-06	306.37	82.631	65.608	19.237	3.9005e-06	26.436	0.00032464	0.00033493	9.6343e-05	1112.6	3.7526e-06	3.7069e-06	1210	242.03	3.8096e-06	3.7836e-06	303.7	83.274	65.579	19.507	3.9017e-06	26.91	184.819	152.170	207.990	73.466	266.122	242.011	73.686	80.650	221.840	71.792	80.229	87.285	87.644	94.228	229.406	93.762	-8191	255	
683.032	1	1	0	0	0.2398	0.24168	0.1907	0.064704	0.065477	0.15274	0.26865	0.20079	0.10006	0.036363	0.21123	0.094829	0.078592	0.13722	0.11794	0.19572	-1.9479	-2.9271	-2.6229	-2.8042	-2.9854	-2.5458	-2.7438	-2.9979	-2.375	-2.9188	-2.7771	-2.5583	-2.9917	-2.4458	-2.7396	-2.8479	270.921	243.793	182.808	372.598	307.722	393.915	417.268	85.462	70.871	330.260	297.264	347.471	82.408	404.742	329.725	309.824	0.00020004	0.00015175	0.00014055	1130.5	2.8347e-06	1.4623e-06	1226.5	244.31	2.2279e-06	4.9364e-06	304.56	82.23	65.012	19.12	2.921e-06	26.51	0.00032269	0.00034804	9.85e-05	1113.4	3.9277e-06	3.8011e-06	1210.2	242.39	3.7379e-06	3.6575e-06	303.65	82.954	65.625	19.39	3.8665e-06	26.947	195.315	111.013	152.417	73.523	216.647	205.025	73.613	80.271	221.778	245.897	80.098	87.592	87.867	94.376	205.798	93.905	-8191	255	
683.128	1	1	0	0	0.10285	0.094194	0.14292	0.34958	0.18149	0.11722	0.15554	0.2066	0.15469	0.0056404	0.1989	0.19662	0.21623	0.1618	0.25976	0.11774	-1.9979	-2.7479	-2.5354	-2.5792	-2.9625	-2.5042	-2.8458	-2.8896	-2.2979	-2.6354	-2.7896	-2.3	-2.9292	-2.6688	-2.6542	-2.8125	345.865	420.093	222.333	358.084	69.425	363.364	338.426	293.575	144.328	241.074	419.112	364.944	75.378	78.501	131.552	129.962	0.00022394	0.00036893	0.0001426	1131.3	2.7767e-06	2.298e-06	1227.4	242.7	2.5076e-06	3.983e-06	305.04	82.276	65.192	18.974	3.2347e-06	26.638	0.0003322	0.00035429	9.9073e-05	1111.8	3.8692e-06	3.6719e-06	1209.3	242	3.7312e-06	3.7902e-06	303.74	82.924	65.753	19.405	3.6718e-06	27.01	191.901	108.084	137.857	73.419	218.486	272.994	73.687	80.609	230.262	221.445	80.241	87.322	88.092	94.323	221.888	94.426	-8191	255	
683.247	1	1	0	0	0.26925	0.082236	0.11448	0.36229	0.21187	0.19287	0.24899	0.025549	0.19689	0.02219	0.116	0.15105	0.34269	0.23961	0.10522	0.11577	-2.025	-2.7146	-2.4875	-2.4208	-2.7271	-2.7667	-2.7896	-2.8	-2.2771	-2.7938	-2.6583	-2.2958	-2.8792	-2.6437	-2.3333	-2.9792	232.889	281.535	284.115	387.726	366.650	74.278	341.332	182.672	412.496	202.851	288.035	402.185	399.130	381.340	104.757	193.920	0.00022865	0.00037189	6.9073e-05	1133.2	4.2181e-06	3.5989e-06	1227.7	242.64	1.8882e-06	1.6782e-06	305.42	81.791	64.818	18.943	5.2213e-06	26.273	0.00032639	0.00034188	9.881e-05	1113.8	3.9511e-06	3.9538e-06	1210.7	242.1	3.93e-06	3.9859e-06	303.59	82.824	65.372	19.302	3.8638e-06	26.83	197.110	143.142	197.891	73.628	232.591	143.580	73.596	80.720	175.743	161.791	80.356	87.347	87.945	94.342	212.943	93.969	-8191	255	
#DATA ENDS
