BOXY.EXE: ISS Imagent and Oximeter Data Acquisition Program Version 0.80
Ascii Record File

#ACQ INFORMATION
2  Detector Channels 
16  External MUX Channels 
1  Auxiliary Channels 
5000  Waveform (CCF) Frequency (Hz)
1  Waveforms Skipped 
30  Waveforms Averaged 
1  Cycles Averaged 
16  Acquisitions per Waveform 
10.0806  Updata Rate (Hz) 

#FILE INFORMATION
TRUE -- External MUX Channel results are PARSED.
FALSE -- AC DC and Phase are NOT grouped.
TRUE -- Companion Program Settings File CREATED.
FALSE -- AC data not excluded
FALSE -- DC data not excluded
FALSE -- Phase data not excluded
FALSE -- Auxillary Chn. data not excluded
Tab delimiters

#CALIBRATION STATE
TRUE -- Waveform Calibration Values APPLIED.


#AUX CALIBRATION VALUES
Val Type	aux-1	

Term	1.0000e+00	
Factor	0.0000e+00	


#WF CALIBRATION VALUES
A = Detector Channel
Val Type	A-AC1	A-AC2	A-AC3	A-AC4	A-AC5	A-AC6	A-AC7	A-AC8	A-AC9	A-AC10	A-AC11	A-AC12	A-AC13	A-AC14	A-AC15	A-AC16	A-DC1	A-DC2	A-DC3	A-DC4	A-DC5	A-DC6	A-DC7	A-DC8	A-DC9	A-DC10	A-DC11	A-DC12	A-DC13	A-DC14	A-DC15	A-DC16	A-Ph1	A-Ph2	A-Ph3	A-Ph4	A-Ph5	A-Ph6	A-Ph7	A-Ph8	A-Ph9	A-Ph10	A-Ph11	A-Ph12	A-Ph13	A-Ph14	A-Ph15	A-Ph16	

Term	0.00000e+00	0.00000e+00	0.00000e+00	0.00000e+00	0.00000e+00	0.00000e+00	0.00000e+00	0.00000e+00	0.00000e+00	0.00000e+00	0.00000e+00	0.00000e+00	0.00000e+00	0.00000e+00	0.00000e+00	0.00000e+00	0.00000e+00	0.00000e+00	0.00000e+00	0.00000e+00	0.00000e+00	0.00000e+00	0.00000e+00	0.00000e+00	0.00000e+00	0.00000e+00	0.00000e+00	0.00000e+00	0.00000e+00	0.00000e+00	0.00000e+00	0.00000e+00	0.00000e+00	0.00000e+00	0.00000e+00	0.00000e+00	0.00000e+00	0.00000e+00	0.00000e+00	0.00000e+00	0.00000e+00	0.00000e+00	0.00000e+00	0.00000e+00	0.00000e+00	0.00000e+00	0.00000e+00	0.00000e+00	
Factor	1.00000e+00	1.00000e+00	1.00000e+00	1.00000e+00	1.00000e+00	1.00000e+00	1.00000e+00	1.00000e+00	1.00000e+00	1.00000e+00	1.00000e+00	1.00000e+00	1.00000e+00	1.00000e+00	1.00000e+00	1.00000e+00	1.00000e+00	1.00000e+00	1.00000e+00	1.00000e+00	1.00000e+00	1.00000e+00	1.00000e+00	1.00000e+00	1.00000e+00	1.00000e+00	1.00000e+00	1.00000e+00	1.00000e+00	1.00000e+00	1.00000e+00	1.00000e+00	X	X	X	X	X	X	X	X	X	X	X	X	X	X	X	X	

B = Detector Channel
Val Type	B-AC1	B-AC2	B-AC3	B-AC4	B-AC5	B-AC6	B-AC7	B-AC8	B-AC9	B-AC10	B-AC11	B-AC12	B-AC13	B-AC14	B-AC15	B-AC16	B-DC1	B-DC2	B-DC3	B-DC4	B-DC5	B-DC6	B-DC7	B-DC8	B-DC9	B-DC10	B-DC11	B-DC12	B-DC13	B-DC14	B-DC15	B-DC16	B-Ph1	B-Ph2	B-Ph3	B-Ph4	B-Ph5	B-Ph6	B-Ph7	B-Ph8	B-Ph9	B-Ph10	B-Ph11	B-Ph12	B-Ph13	B-Ph14	B-Ph15	B-Ph16	

Term	0.00000e+00	0.00000e+00	0.00000e+00	0.00000e+00	0.00000e+00	0.00000e+00	0.00000e+00	0.00000e+00	0.00000e+00	0.00000e+00	0.00000e+00	0.00000e+00	0.00000e+00	0.00000e+00	0.00000e+00	0.00000e+00	0.00000e+00	0.00000e+00	0.00000e+00	0.00000e+00	0.00000e+00	0.00000e+00	0.00000e+00	0.00000e+00	0.00000e+00	0.00000e+00	0.00000e+00	0.00000e+00	0.00000e+00	0.00000e+00	0.00000e+00	0.00000e+00	-3.43671e-01	-1.28886e+02	-1.25619e+02	-1.82862e+02	-5.71745e+01	-6.81809e+01	-1.60871e+02	-1.62015e+02	-3.19388e+01	-6.41406e+01	-1.72576e+02	-1.72478e+02	-1.82445e+02	-1.78185e+02	-5.29652e+01	-1.51172e+02	
Factor	3.74574e-05	1.65184e-04	5.15718e-05	1.65372e-01	2.41300e-06	1.69649e-06	1.91291e-01	5.90050e-02	2.23131e-06	1.72544e-06	9.08189e-02	3.18365e-02	2.88288e-02	9.23025e-03	2.06985e-06	1.33595e-02	8.31791e-06	1.05830e-05	2.94811e-06	8.55080e-02	1.10851e-07	1.17203e-07	9.29119e-02	3.05842e-02	1.10972e-07	1.16886e-07	4.57212e-02	1.59736e-02	1.50964e-02	4.83111e-03	1.13233e-07	6.77596e-03	X	X	X	X	X	X	X	X	X	X	X	X	X	X	X	X	



#DISTANCE SETTINGS
A = Detector Channel
A-1	A-2	A-3	A-4	A-5	A-6	A-7	A-8	A-9	A-10	A-11	A-12	A-13	A-14	A-15	A-16	

2.5000e+00	3.0000e+00	2.5000e+00	3.0000e+00	2.0000e+00	3.0000e+00	1.5000e+00	3.0000e+00	3.0000e+00	3.0000e+00	3.0000e+00	3.0000e+00	3.0000e+00	3.0000e+00	1.5000e+00	3.0000e+00	

B = Detector Channel
B-1	B-2	B-3	B-4	B-5	B-6	B-7	B-8	B-9	B-10	B-11	B-12	B-13	B-14	B-15	B-16	

1.0000e+01	1.0000e+01	1.0000e+01	1.4400e+00	1.0000e+01	1.0000e+01	1.5100e+00	1.9400e+00	1.0000e+01	1.0000e+01	1.9900e+00	2.4900e+00	2.4100e+00	2.9000e+00	1.0000e+01	2.9800e+00	




#DATA BEGINS
time	group	step	mark	flag	A-AC1	A-AC2	A-AC3	A-AC4	A-AC5	A-AC6	A-AC7	A-AC8	A-AC9	A-AC10	A-AC11	A-AC12	A-AC13	A-AC14	A-AC15	A-AC16	A-DC1	A-DC2	A-DC3	A-DC4	A-DC5	A-DC6	A-DC7	A-DC8	A-DC9	A-DC10	A-DC11	A-DC12	A-DC13	A-DC14	A-DC15	A-DC16	A-Ph1	A-Ph2	A-Ph3	A-Ph4	A-Ph5	A-Ph6	A-Ph7	A-Ph8	A-Ph9	A-Ph10	A-Ph11	A-Ph12	A-Ph13	A-Ph14	A-Ph15	A-Ph16	B-AC1	B-AC2	B-AC3	B-AC4	B-AC5	B-AC6	B-AC7	B-AC8	B-AC9	B-AC10	B-AC11	B-AC12	B-AC13	B-AC14	B-AC15	B-AC16	B-DC1	B-DC2	B-DC3	B-DC4	B-DC5	B-DC6	B-DC7	B-DC8	B-DC9	B-DC10	B-DC11	B-DC12	B-DC13	B-DC14	B-DC15	B-DC16	B-Ph1	B-Ph2	B-Ph3	B-Ph4	B-Ph5	B-Ph6	B-Ph7	B-Ph8	B-Ph9	B-Ph10	B-Ph11	B-Ph12	B-Ph13	B-Ph14	B-Ph15	B-Ph16	aux-1	digaux	

7623.948	1	1	0	256	0.20862	0.092923	0.16995	0.25045	0.16451	0.16564	0.33845	0.37645	0.11711	0.011339	0.3069	0.2765	0.092075	0.048813	0.25454	0.31396	-2.5271	-2.7062	-2.5583	-3.0958	-2.7771	-2.3833	-3.1625	-2.5875	-2.725	-2.95	-2.5062	-2.8167	-2.6583	-2.3854	-2.9708	-2.6188	318.941	360.191	154.234	326.180	215.471	329.483	64.243	374.253	80.294	354.744	377.541	407.321	332.661	324.384	271.403	70.550	0.00046381	0.00019015	0.00020336	1242.6	5.5564e-06	7.2058e-06	1338.4	295.89	2.6359e-06	3.77e-06	340.83	96.394	78.641	19.67	8.4176e-06	25.997	0.00065342	0.00074134	0.00020997	1134.6	7.894e-06	7.9825e-06	1219.8	270.31	7.5274e-06	7.771e-06	313.14	88.361	71.873	18.206	7.1459e-06	24.214	287.024	153.637	115.351	66.490	264.629	219.962	65.894	71.551	279.060	177.790	70.467	75.802	76.930	81.968	219.447	80.220	-8191	255	
7624.044	1	1	0	0	0.23377	0.1461	0.085213	0.048449	0.27177	0.25231	0.21961	0.10649	0.24039	0.38479	0.17542	0.14705	0.083483	0.092821	0.20703	0.22493	-2.1562	-2.9021	-2.3187	-2.9083	-2.675	-2.5125	-3.1375	-2.7646	-2.6063	-2.8312	-2.5479	-2.7667	-2.7562	-2.5646	-2.9188	-2.7604	86.457	225.033	203.649	304.191	386.883	327.617	314.837	209.346	286.977	56.227	332.641	254.593	53.619	182.443	260.864	354.803	0.0004282	0.00014989	0.00011416	1258.4	1.646e-05	2.6789e-06	1359.5	297.99	3.9344e-06	6.9837e-06	347.51	98.688	79.275	19.847	2.6631e-06	26.402	0.0005897	0.00064618	0.00017863	1140.9	6.7758e-06	6.8793e-06	1233.7	271.68	6.7839e-06	6.6632e-06	317.43	89.768	72.598	18.387	6.5489e-06	24.465	292.448	156.308	103.145	66.494	218.458	255.624	65.840	71.311	224.551	187.954	69.775	75.863	76.911	82.137	261.851	80.605	-8191	255	
7624.163	1	1	0	0	0.056349	0.11829	0.1577	0.34738	0.20695	0.18402	0.2215	0.34877	0.062864	0.27037	0.072868	0.055138	0.21724	0.12029	0.060837	0.31912	-2.2562	-2.8354	-2.4062	-2.8958	-2.7333	-2.7208	-3.0563	-2.6417	-2.475	-2.9667	-2.5187	-2.8354	-2.8583	-2.1854	-2.8187	-2.7562	182.477	274.456	148.288	56.285	120.389	161.755	59.982	321.433	222.670	196.902	207.445	390.064	369.897	234.772	308.226	261.399	0.00044629	0.00029852	0.00011853	1264.5	9.7801e-06	2.4079e-06	1367.8	300.68	8.9104e-06	8.2724e-06	350.4	98.929	80.141	19.857	4.6718e-06	26.432	0.00056518	0.00064863	0.00017912	1150.9	7.022e-06	7.1599e-06	1240.5	273.51	6.9487e-06	7.168e-06	319.1	90.248	72.926	18.393	6.9152e-06	24.457	272.566	58.192	137.729	66.440	220.035	209.058	65.482	71.381	235.956	209.536	70.093	75.669	77.247	82.035	189.382	79.804	-8191	255	
7624.259	1	1	0	0	0.21631	0.19718	0.17808	0.081083	0.098701	0.1298	0.12781	0.31612	0.25325	0.14704	0.049143	0.27881	0.15134	0.24377	0.10513	0.18781	-1.9667	-2.8708	-2.425	-2.6896	-2.7396	-2.5917	-2.9	-2.6375	-2.4167	-2.8563	-2.5687	-2.5187	-2.8812	-2.4375	-2.7271	-2.9333	312.208	285.162	317.808	81.567	141.523	174.286	372.957	385.580	232.960	92.005	319.335	242.937	118.716	213.813	270.898	96.112	0.00038744	0.00048423	0.00024853	1268.4	7.9248e-06	4.6853e-06	1377.8	302.55	5.2037e-06	4.0847e-06	350.11	98.217	79.373	19.64	4.0384e-06	25.904	0.00055396	0.00061015	0.0001806	1155.6	7.1767e-06	7.1494e-06	1250.7	275.68	7.4555e-06	7.6093e-06	319.51	89.902	72.798	18.36	8.0858e-06	24.185	276.715	135.282	171.869	66.439	227.364	224.268	65.900	71.437	306.399	213.759	70.141	76.037	77.098	81.916	226.617	79.785	-8191	255	
7624.355	1	1	0	0	0.28651	0.28683	0.21636	0.16012	0.35611	0.074756	0.25203	0.052686	0.095095	0.058553	0.097997	0.17913	0.068775	0.11077	0.12749	0.051883	-1.9542	-2.8771	-2.6229	-2.9167	-2.7333	-2.4354	-2.9021	-3.0292	-2.45	-2.9062	-2.8458	-2.6063	-2.9042	-2.575	-2.7021	-2.7979	291.034	380.477	126.727	56.163	261.259	287.273	375.729	173.814	191.211	301.147	364.492	82.160	261.771	357.185	316.972	349.123	0.00049642	0.00042643	0.00016993	1273.6	9.9838e-06	9.964e-07	1366.2	300.74	4.018e-06	5.2815e-06	347.27	97.368	78.609	19.486	4.8702e-06	25.645	0.00065328	0.00072328	0.00019946	1155.5	8.0155e-06	7.9962e-06	1243.3	274.32	7.6245e-06	8.137e-06	317.35	88.941	72.316	18.132	7.8848e-06	23.963	279.155	67.587	105.514	66.403	254.939	369.138	65.876	71.572	291.775	229.910	70.012	75.945	76.740	82.519	200.087	79.637	-8191	255	
7624.451	1	1	0	0	0.28569	0.13989	0.17813	0.46153	0.26279	0.084028	0.32616	0.16868	0.1159	0.29659	0.064224	0.10917	0.18121	0.05207	0.1163	0.13658	-2.1083	-2.8417	-2.7271	-2.5729	-3.0187	-2.5667	-2.8375	-2.8875	-2.3604	-2.7708	-2.7708	-2.6042	-2.9188	-2.6771	-2.5146	-2.9729	254.422	220.677	296.240	370.345	104.819	277.772	346.822	358.207	250.381	184.517	311.281	343.893	128.562	315.889	311.290	121.844	0.00045003	0.00035303	0.0002312	1263.7	1.0887e-05	3.0083e-06	1359.4	300.8	9.8061e-06	6.1496e-06	348.19	97.821	78.947	19.422	9.1988e-06	26.084	0.00064528	0.00069973	0.00019899	1150.3	7.2788e-06	7.6675e-06	1236.4	274.37	7.3891e-06	7.6899e-06	318.22	89.372	72.492	18.19	7.5446e-06	24.104	281.535	207.476	166.413	66.425	226.785	311.407	65.961	71.615	282.436	199.466	70.102	75.491	77.080	82.313	167.837	79.899	-8191	255	
7624.548	1	1	0	0	0.027849	0.030147	0.11666	0.31578	0.10318	0.24303	0.23381	0.19319	0.13772	0.2599	0.14905	0.063829	0.12175	0.23432	0.11103	0.28747	-2.0229	-2.9437	-2.7604	-2.6375	-3.0458	-2.6104	-2.8417	-2.8563	-2.3958	-2.8104	-2.8583	-2.5438	-2.9292	-2.6229	-2.7062	-3.1063	283.550	84.391	184.945	363.795	378.974	92.429	314.346	356.123	217.371	99.859	299.930	403.098	374.957	87.592	64.609	353.215	0.00047157	0.00078195	6.5791e-05	1265.2	2.7631e-06	4.6117e-06	1357.7	301.43	9.3887e-06	5.2221e-06	350.56	97.53	78.843	19.606	6.7143e-06	25.945	0.00061837	0.00069426	0.0001904	1151.8	7.5975e-06	8.0089e-06	1237.6	274.77	7.4983e-06	7.7668e-06	318.54	88.904	72.511	18.301	7.5725e-06	24.085	279.769	166.115	162.447	66.686	325.635	226.484	65.677	71.445	291.608	233.220	69.858	75.874	76.961	81.889	177.827	80.586	-8191	255	
7624.644	1	1	0	0	0.13425	0.1902	0.12331	0.13329	0.062302	0.17831	0.2672	0.096358	0.067349	0.1163	0.19458	0.27541	0.11729	0.051806	0.13728	0.14398	-1.9479	-2.5833	-2.6854	-2.5917	-2.9292	-2.5271	-2.6375	-2.8854	-2.3667	-2.7562	-2.8875	-2.5208	-3.0083	-2.5708	-2.5062	-2.8979	366.606	284.939	246.410	354.910	216.024	412.283	307.112	101.159	389.077	352.748	263.169	373.767	383.974	57.361	242.639	306.665	0.00042288	0.00076523	0.00011507	1264.9	6.2594e-06	4.8167e-06	1370.4	302.74	1.3641e-05	2.7391e-06	348.98	98.269	79.88	19.467	3.4064e-06	25.978	0.00063731	0.00070897	0.00019986	1152.8	8.0395e-06	8.235e-06	1242.9	275.51	7.8224e-06	7.7254e-06	319.49	89.864	72.882	18.283	7.3965e-06	24.189	278.637	155.890	153.586	66.440	267.203	246.330	65.695	71.541	243.437	237.053	70.083	75.771	77.054	82.200	193.028	79.989	-8191	255	
7624.740	1	1	0	0	0.25015	0.097426	0.24896	0.28139	0.12428	0.10748	0.31692	0.091345	0.11141	0.04737	0.056972	0.10058	0.30467	0.20064	0.18532	0.038614	-2.175	-2.6521	-2.7104	-2.6271	-2.7979	-2.7667	-2.7313	-3.0563	-2.6375	-2.6292	-2.9562	-2.5167	-2.8833	-2.6312	-2.4708	-2.9	179.257	271.434	391.766	336.746	221.817	126.207	362.997	336.556	360.688	233.508	62.359	140.806	330.763	379.406	286.763	289.357	0.00054509	0.00046304	0.00014453	1265.4	8.7484e-06	7.5451e-06	1371.8	302.56	1.019e-05	3.0388e-06	353.5	98.131	80.099	19.897	9.0305e-06	26.182	0.00060502	0.00068379	0.00018232	1153.3	7.3016e-06	7.2671e-06	1246.2	275.96	7.1804e-06	7.4529e-06	321.54	89.907	73.203	18.294	7.5397e-06	24.18	272.577	198.906	187.804	66.409	254.300	244.310	65.568	70.947	264.462	245.937	70.358	75.768	76.876	81.871	214.448	79.818	-8191	255	
7624.836	1	1	0	0	0.081534	0.26427	0.058056	0.10528	0.21234	0.15145	0.17309	0.21832	0.21768	0.11536	0.17506	0.16195	0.097372	0.083027	0.04662	0.37309	-1.9229	-2.5875	-2.8792	-2.4542	-2.5333	-2.6625	-2.5792	-2.9042	-2.4896	-2.6396	-2.8833	-2.525	-2.9667	-2.75	-2.3292	-2.9542	412.608	315.997	152.502	387.691	105.953	174.478	351.288	322.217	181.434	76.173	317.480	357.261	245.674	280.427	333.023	349.772	0.00046705	0.00062091	0.00011221	1276	6.6985e-06	4.6657e-06	1383.2	304.75	1.1633e-06	3.8137e-06	350.99	97.362	79.571	19.612	5.4086e-06	25.948	0.00062902	0.00069409	0.00019124	1158.4	7.6337e-06	7.9359e-06	1250.6	277.77	7.6384e-06	7.9797e-06	320.59	89.514	73.208	18.277	7.8494e-06	24.019	287.596	99.288	364.420	66.525	237.076	216.967	65.690	71.544	79.849	196.137	69.892	75.824	77.005	82.621	227.055	80.303	-8191	255	
7624.955	1	1	0	0	0.15192	0.24207	0.068941	0.39271	0.16841	0.11986	0.12102	0.10905	0.24132	0.078905	0.13219	0.066773	0.40079	0.069317	0.22489	0.16498	-2.1729	-2.4958	-2.8646	-2.6958	-2.6208	-2.7938	-2.3438	-2.8667	-2.5167	-2.5792	-3.0333	-2.5333	-2.6437	-2.8104	-2.5958	-2.9	111.668	141.589	249.813	381.308	305.114	371.058	319.979	413.127	400.395	182.449	355.247	344.032	393.227	58.740	233.187	305.457	0.00057449	0.00053179	0.00017668	1271.1	8.6406e-06	4.7128e-07	1371.4	304.5	4.0985e-06	2.7843e-06	347.55	97.915	79.807	19.439	3.9575e-06	25.754	0.00064984	0.00073161	0.00019992	1156.3	8.0582e-06	7.8314e-06	1245.8	276.67	7.7368e-06	7.9193e-06	319.19	89.342	72.819	18.241	7.8421e-06	23.994	277.416	144.437	118.668	66.325	236.936	322.673	65.791	71.397	223.149	169.262	70.081	76.196	77.483	82.187	248.179	80.311	-8191	255	
7625.051	1	1	0	0	0.11077	0.2559	0.085105	0.42062	0.26108	0.11336	0.17326	0.24694	0.22816	0.14383	0.18	0.24462	0.23897	0.209	0.15624	0.20473	-2.2104	-2.4583	-3.0083	-2.5646	-2.6646	-2.7313	-2.3937	-2.7729	-2.5583	-2.4437	-2.825	-2.6333	-2.5729	-2.9917	-2.4	-2.7479	113.396	233.441	313.575	380.700	183.383	335.310	345.167	265.044	288.230	281.623	398.305	105.031	59.848	165.439	217.629	330.020	0.00047229	0.00088475	3.0902e-05	1276.6	1.0322e-05	4.5152e-06	1369.5	301.27	2.2211e-06	1.9522e-06	351.23	97.565	78.962	19.609	8.4753e-06	26.118	0.0006632	0.0007493	0.00021342	1155.3	8.3448e-06	8.3492e-06	1241	276.26	7.7625e-06	8.3659e-06	318.96	89.422	72.66	18.269	8.0393e-06	24.179	281.032	153.009	226.635	66.466	249.160	95.877	65.513	71.522	168.453	292.731	69.740	75.761	76.985	82.360	195.827	79.928	-8191	255	
7625.124	1	1	0	0	0.23023	0.25428	0.13185	0.27566	0.23027	0.093511	0.15234	0.18908	0.12795	0.069108	0.053873	0.20101	0.3541	0.18484	0.060669	0.19826	-2.4062	-2.4417	-2.6667	-2.7271	-2.4208	-2.8833	-2.4521	-2.8042	-2.8396	-2.3563	-2.8917	-2.675	-2.4083	-2.8896	-2.4938	-2.5812	343.570	358.056	244.306	295.282	249.415	134.166	320.146	321.547	69.752	168.543	295.870	399.762	110.491	369.965	93.543	348.150	0.00041821	0.00063979	5.797e-05	1269	3.3953e-06	8.2788e-06	1361.7	302.58	6.8857e-06	3.2056e-06	346.44	96.923	78.878	19.607	5.676e-06	25.642	0.00066942	0.0007612	0.00020793	1151.9	8.3335e-06	8.3502e-06	1235.5	275.47	8.0039e-06	8.1944e-06	316.66	88.746	72.354	18.169	8.7623e-06	23.894	301.903	82.978	144.686	66.504	194.601	127.859	65.753	71.495	305.102	181.070	70.265	76.106	77.294	81.900	180.909	79.916	-8191	255	
7625.243	1	1	0	0	0.1983	0.11499	0.084782	0.16102	0.088387	0.21739	0.44525	0.03169	0.11506	0.11319	0.029374	0.16574	0.20253	0.13455	0.065385	0.26345	-2.4083	-2.35	-2.7729	-2.7812	-2.6208	-2.8354	-2.5417	-2.6333	-2.9042	-2.4104	-3.0146	-2.575	-2.5438	-3.0021	-2.55	-2.6875	310.064	267.789	355.065	384.581	276.241	385.258	346.185	299.605	140.107	159.415	83.586	311.317	238.513	60.458	65.601	410.494	0.00039102	0.0008366	0.00013317	1259	1.2916e-05	3.6359e-06	1348.9	298.98	1.118e-05	5.9172e-06	343.64	96.374	78.54	19.691	4.8999e-06	25.494	0.00069139	0.00079326	0.00022409	1143.5	8.6628e-06	8.9548e-06	1224.3	273.48	8.7682e-06	8.6978e-06	314.21	88.451	72.238	18.269	9.0367e-06	23.825	276.812	127.971	67.139	66.412	240.117	181.771	65.819	71.710	248.298	291.661	69.552	75.703	76.806	81.846	249.816	79.760	-8191	255	
7625.339	1	1	0	0	0.18365	0.28323	0.13745	0.18934	0.26312	0.22102	0.11937	0.08271	0.14478	0.13246	0.19705	0.056929	0.23301	0.14168	0.12058	0.10974	-2.3354	-2.3917	-2.6125	-2.6708	-2.3438	-2.8479	-2.5708	-2.5917	-2.9313	-2.55	-2.7812	-2.5458	-2.2646	-2.6437	-2.5979	-2.5938	405.403	325.242	265.004	65.220	66.506	162.821	324.198	319.497	228.631	138.329	385.672	392.180	211.774	91.000	85.565	266.867	0.00050195	0.0010944	0.00010071	1251.9	1.1173e-05	2.5485e-06	1333.9	298.88	6.7477e-06	5.6901e-06	341.9	96.226	78.429	19.397	6.4882e-06	25.704	0.00073031	0.00081639	0.00023206	1142.2	9.2007e-06	9.164e-06	1215.2	273.34	8.974e-06	9.3502e-06	312.42	88.051	72.112	18.176	8.8593e-06	23.822	296.037	168.091	90.707	66.560	220.682	326.792	65.780	71.665	191.800	190.782	70.091	75.942	76.921	82.682	266.346	79.610	-8191	255	
7625.436	1	1	0	0	0.11462	0.079845	0.262	0.086023	0.23026	0.072927	0.28608	0.10843	0.094185	0.17483	0.094305	0.26388	0.12098	0.36584	0.23765	0.13879	-2.4833	-2.4771	-2.6833	-3.075	-2.3917	-3.1083	-2.8917	-2.6167	-2.7687	-2.5729	-2.85	-2.8833	-2.4562	-2.8833	-2.7771	-2.5646	411.548	147.635	321.458	79.158	65.619	353.670	334.970	195.868	93.670	87.515	273.432	395.310	59.863	374.267	136.072	63.999	0.00048408	0.00029009	0.00010693	1254.2	3.6943e-06	4.1243e-06	1338.4	299.3	4.2773e-06	6.199e-06	342.27	96.222	78.196	19.697	3.8417e-06	25.835	0.00069964	0.00082953	0.00023632	1141.4	8.7496e-06	9.2922e-06	1216.6	273.55	8.9728e-06	9.2632e-06	313.07	88.26	72.099	18.273	9.2483e-06	24.073	293.621	172.262	107.663	66.548	212.995	275.210	65.765	71.673	263.321	278.679	70.005	75.835	76.712	82.028	237.972	80.123	-8191	255	
7625.556	1	1	0	0	0.32245	0.1043	0.19836	0.24093	0.36419	0.23466	0.35497	0.20353	0.10735	0.13135	0.096149	0.11568	0.15279	0.23585	0.10566	0.23973	-2.5521	-2.5521	-2.7854	-2.9208	-2.2687	-2.7188	-2.7562	-2.5521	-2.9667	-2.4771	-2.5583	-2.7812	-2.1625	-2.8083	-2.6729	-2.6229	329.423	142.190	319.846	365.224	287.255	349.521	336.152	380.384	288.826	217.727	60.982	208.179	79.382	211.348	382.582	379.686	0.00042293	0.00010963	5.1258e-05	1245.9	7.4123e-06	1.9931e-06	1338.1	299	2.2139e-06	3.1629e-06	341.06	95.523	78.05	19.54	3.6127e-06	25.651	0.00073411	0.00088659	0.00023877	1137.9	8.9319e-06	9.2148e-06	1210.9	272.6	8.4737e-06	9.1597e-06	311.89	87.406	71.712	18.262	8.8897e-06	23.814	279.394	109.065	79.875	66.347	288.156	248.381	65.906	71.571	233.307	146.556	70.299	75.970	77.202	81.577	193.748	79.963	-8191	255	
7625.652	1	1	0	0	0.36962	0.23617	0.14342	0.2539	0.13231	0.14535	0.13926	0.27471	0.16327	0.0996	0.1377	0.31235	0.076042	0.056301	0.074601	0.24583	-2.575	-2.6792	-2.4833	-3.1146	-2.4104	-2.625	-2.8167	-2.6188	-2.7542	-2.6021	-2.5542	-2.9646	-2.55	-2.7292	-2.825	-2.5	292.481	306.068	332.532	259.786	412.930	127.968	384.334	322.974	105.638	233.082	73.976	59.817	267.565	276.699	276.808	351.435	0.00039664	0.00051063	0.00010034	1249.1	8.1668e-06	6.3081e-06	1333.1	297.41	5.1178e-06	5.7142e-06	342.69	94.912	77.515	19.315	1.2372e-05	25.583	0.00070997	0.00080788	0.000232	1137.3	8.9157e-06	8.8884e-06	1210.9	271.92	9.0828e-06	9.5204e-06	312.15	87.321	71.79	18.167	9.2285e-06	23.836	290.177	109.045	83.728	66.594	244.957	202.881	65.515	71.656	263.371	212.185	69.952	76.160	77.322	81.915	211.299	80.374	-8191	255	
7625.724	1	1	0	0	0.1618	0.098934	0.1347	0.33593	0.10252	0.16365	0.20143	0.22632	0.15352	0.070727	0.34637	0.32496	0.16883	0.36274	0.094331	0.30562	-2.5542	-2.4896	-2.5042	-3.1771	-2.7438	-2.8208	-3.1375	-2.65	-2.8063	-2.6729	-2.4354	-2.9875	-2.5042	-2.6729	-2.8917	-2.475	235.467	149.960	62.835	75.883	149.017	143.128	110.173	99.367	281.057	195.918	393.472	394.428	102.809	355.850	169.301	175.168	0.00048844	9.6388e-05	5.266e-05	1246.3	4.7377e-06	1.1913e-06	1323.6	299.68	8.0824e-06	7.6652e-06	339.1	94.559	77.747	19.509	3.9657e-06	25.334	0.00073253	0.00086661	0.00024278	1137.5	9.5353e-06	9.6399e-06	1204.7	272.92	9.3281e-06	9.9745e-06	310.45	87.186	71.936	18.265	9.2797e-06	23.761	290.261	153.173	143.475	66.580	176.520	212.880	65.545	71.681	269.355	266.305	70.140	75.700	76.907	82.145	287.874	80.154	-8191	255	
7625.845	1	1	0	0	0.34714	0.10929	0.053789	0.14443	0.17521	0.099145	0.12238	0.31376	0.37572	0.081369	0.29569	0.17923	0.22981	0.072106	0.058471	0.097115	-2.45	-2.8063	-2.4729	-3.1937	-2.6437	-2.8208	-2.7917	-2.6125	-2.7667	-3.1083	-2.6271	-2.8646	-2.7646	-2.5812	-3.0292	-2.3229	259.023	166.794	150.241	397.928	151.179	150.679	188.106	379.547	313.712	143.248	352.762	85.250	140.663	79.560	411.483	129.727	0.00038205	0.00062202	8.2541e-05	1249.1	1.8559e-05	1.5212e-06	1326.9	297.67	4.8358e-06	3.341e-06	338.28	95.452	78.365	19.591	3.1536e-06	25.605	0.00077921	0.00088383	0.00024395	1135.5	9.6251e-06	9.8797e-06	1203.1	272.28	9.6109e-06	9.9163e-06	310.04	87.433	71.806	18.333	9.7232e-06	23.89	297.797	119.279	155.425	66.405	218.890	263.466	65.703	71.716	263.212	200.732	69.797	76.041	76.726	82.032	219.455	79.098	-8191	255	
7625.941	1	1	0	0	0.40654	0.094201	0.26189	0.31435	0.22646	0.023196	0.41036	0.33306	0.11438	0.29818	0.3045	0.092493	0.11512	0.14485	0.13995	0.20188	-2.3063	-2.8208	-2.4292	-2.8542	-2.6604	-2.4667	-3.1583	-2.6646	-2.7146	-2.8958	-2.5938	-2.9125	-2.8396	-2.5062	-2.9479	-2.5458	78.187	104.360	168.864	363.881	343.363	251.643	366.215	93.203	62.900	217.619	163.170	325.848	372.636	400.223	75.300	378.417	0.00049733	0.00033533	0.00023367	1242.3	5.4092e-06	4.2238e-06	1316.7	297.48	2.4019e-06	5.9447e-06	335.63	94.484	77.518	19.563	1.4058e-06	25.459	0.00077885	0.00091995	0.00025345	1131.1	9.9214e-06	1.0263e-05	1198.4	271.51	1.0165e-05	1.0119e-05	308.51	86.689	71.416	18.265	9.6165e-06	23.712	285.926	133.993	159.916	66.410	211.147	237.194	65.770	71.828	269.030	220.436	69.974	75.903	77.076	82.095	246.095	80.148	-8191	255	
7626.037	1	1	0	0	0.090701	0.13094	0.13061	0.28697	0.098692	0.22539	0.25465	0.10502	0.10336	0.23511	0.29522	0.077601	0.1052	0.065364	0.19351	0.080406	-2.1146	-2.6937	-2.3229	-2.9292	-2.5812	-2.5833	-2.9771	-2.7167	-2.5625	-2.7375	-2.4354	-2.8604	-2.925	-2.4646	-2.8479	-2.7042	346.029	257.559	245.392	366.705	100.756	272.211	392.852	240.387	389.232	72.641	344.277	356.840	187.023	187.027	253.123	152.491	0.00041882	0.00017505	6.9396e-05	1240.2	9.4047e-06	8.169e-06	1311.6	296.29	1.3681e-05	1.5229e-06	336.28	94.421	77.543	19.43	8.1771e-06	25.355	0.00079777	0.00091842	0.00025801	1130.8	9.9879e-06	1.0432e-05	1193.8	270.2	9.4641e-06	9.5455e-06	308.44	86.633	71.167	18.202	9.1384e-06	23.578	295.404	215.972	115.690	66.679	200.277	200.797	65.867	71.357	243.382	309.033	70.154	76.343	76.889	81.857	223.694	79.778	-8191	255	
7626.131	1	1	0	0	0.12794	0.084566	0.051655	0.42536	0.13126	0.15405	0.25735	0.22689	0.12427	0.2623	0.20271	0.24341	0.2521	0.12783	0.13184	0.15377	-2.0687	-2.8604	-2.5229	-2.7208	-2.7333	-2.4271	-2.9625	-2.8083	-2.5208	-2.775	-2.5479	-2.7208	-3.025	-2.3229	-2.9146	-2.8479	204.151	356.970	310.386	406.647	394.081	155.589	410.613	345.816	227.561	326.273	391.130	360.501	387.615	322.794	217.257	105.380	0.00032884	0.00057483	0.00020002	1246.3	3.7835e-06	7.4949e-07	1329.8	294.61	8.4383e-06	6.074e-06	336.35	94.899	78.41	19.378	6.2144e-06	25.426	0.00073813	0.00084174	0.00023646	1131.4	9.1353e-06	9.3692e-06	1201.4	270.55	9.2946e-06	9.6304e-06	308.39	86.617	71.435	18.223	9.8003e-06	23.672	295.942	60.503	179.732	66.590	244.246	161.515	65.967	71.473	236.155	185.114	70.220	76.305	77.462	82.162	177.354	79.767	-8191	255	
7626.252	1	1	0	0	0.037729	0.2301	0.11362	0.21434	0.32639	0.18911	0.092625	0.067029	0.24988	0.2175	0.069056	0.33721	0.1873	0.03589	0.077049	0.12346	-2.0833	-2.9042	-2.5625	-2.7771	-2.7958	-2.4083	-2.9271	-2.8583	-2.6521	-3.0062	-2.5208	-2.5917	-2.9521	-2.5479	-2.7125	-2.6958	291.714	331.413	372.853	61.984	174.885	195.174	204.113	179.906	374.809	228.446	312.622	141.218	348.285	374.395	321.632	111.459	0.00042898	0.00066092	4.8381e-05	1242.8	7.5847e-06	3.3595e-06	1322.9	299.13	1.057e-05	6.1258e-06	335.99	94.944	77.358	19.376	2.1768e-06	25.519	0.00078755	0.0009067	0.00025424	1132.9	9.8528e-06	1.0109e-05	1202	272.38	1.0095e-05	1.0193e-05	309.33	87.023	71.527	18.215	1.0147e-05	23.664	278.864	134.109	113.799	66.819	182.899	184.369	65.876	71.584	267.656	190.763	70.069	75.769	77.088	81.751	245.916	79.728	-8191	255	
7626.348	1	1	0	0	0.16389	0.3405	0.13807	0.19289	0.16376	0.10393	0.22909	0.14792	0.14381	0.19042	0.29224	0.2874	0.24803	0.23752	0.10553	0.064194	-1.8833	-2.7938	-2.5167	-2.7521	-2.8937	-2.4771	-2.9625	-2.7875	-2.5125	-2.8021	-2.6833	-2.6917	-2.8646	-2.5167	-2.6208	-2.8167	151.612	220.013	254.825	399.276	115.739	322.169	349.496	94.770	303.178	138.745	361.795	340.646	413.219	174.572	340.676	150.371	0.00037413	0.00031091	0.00012992	1247.4	4.102e-06	3.4861e-06	1321.2	296.45	8.8597e-06	3.5774e-06	338.28	94.242	77.278	19.391	5.0695e-06	25.382	0.00079784	0.00092103	0.00025775	1135	9.899e-06	1.016e-05	1199.9	270.97	9.6911e-06	9.9918e-06	309.19	86.516	71.261	18.139	9.5972e-06	23.652	291.799	104.002	184.778	66.313	209.930	201.688	65.656	71.547	252.328	262.729	70.263	75.919	77.025	82.263	220.957	79.752	-8191	255	
7626.420	1	1	0	0	0.16928	0.10493	0.18004	0.32209	0.16298	0.22598	0.14714	0.1307	0.16532	0.062912	0.25908	0.13346	0.34809	0.33726	0.14148	0.21626	-1.8479	-2.9188	-2.5271	-2.6583	-2.9667	-2.4125	-2.7208	-2.8917	-2.4062	-3.0229	-2.7458	-2.4958	-2.8854	-2.5396	-2.6583	-2.9104	343.478	246.440	378.068	395.977	153.644	283.291	383.526	145.042	72.700	182.310	217.593	68.465	402.882	315.787	194.867	61.990	0.00047603	0.00062728	0.00022725	1241.9	1.1668e-05	4.2926e-06	1314.7	295.88	4.1344e-06	3.9859e-06	335.25	94.138	78.117	19.376	6.8797e-06	25.187	0.00077003	0.0009003	0.00025755	1132	9.536e-06	1.0132e-05	1194.9	270.16	9.2932e-06	9.7254e-06	307.41	86.081	71.655	18.122	9.2702e-06	23.487	297.225	120.803	168.891	66.496	254.297	242.370	65.978	71.499	254.945	189.821	70.163	75.873	76.980	81.939	207.932	80.032	-8191	255	
7626.516	1	1	0	0	0.28832	0.27934	0.2649	0.32517	0.017995	0.12151	0.3646	0.2016	0.096638	0.12339	0.041491	0.13837	0.12204	0.28256	0.10966	0.15588	-2.1854	-2.9521	-2.6375	-2.5896	-2.9604	-2.6063	-2.8375	-2.9688	-2.4583	-2.9396	-2.8312	-2.5875	-2.8792	-2.5125	-2.6771	-2.8729	109.219	132.391	138.311	378.033	150.166	343.821	363.086	386.016	329.654	160.988	191.455	364.562	154.395	90.271	142.796	312.889	0.00053823	0.00012079	0.00016361	1248.6	4.5661e-06	4.2272e-06	1325.7	295.3	5.7321e-06	7.9178e-06	336.5	94.03	77.306	19.404	6.6257e-06	25.011	0.00074951	0.00085713	0.00023517	1134.5	9.1215e-06	9.542e-06	1202.7	270.64	9.4042e-06	9.488e-06	308.67	86.168	71.12	18.04	9.5201e-06	23.473	278.598	223.021	156.862	66.542	227.771	117.430	65.850	71.488	169.630	213.752	69.692	76.503	76.989	82.283	214.700	80.177	-8191	255	
7626.637	1	1	0	0	0.29379	0.074916	0.14816	0.068691	0.22715	0.13868	0.074566	0.25516	0.019319	0.18809	0.072327	0.13483	0.27588	0.17481	0.34918	0.056856	-2.0812	-2.8979	-2.8354	-2.4875	-2.9417	-2.5896	-2.8958	-2.975	-2.55	-2.8458	-2.8542	-2.3708	-2.8125	-2.5167	-2.4833	-2.8438	191.100	168.138	136.529	81.294	124.841	251.452	63.890	379.365	204.537	161.164	283.763	213.932	64.462	142.125	315.894	58.462	0.00036261	0.00041301	0.00021948	1249.1	5.5902e-06	4.4922e-06	1326.9	297.96	8.0475e-06	2.5728e-06	338.28	93.966	77.87	19.478	7.4875e-06	25.034	0.00073123	0.00089598	0.00024775	1136.1	9.3817e-06	1.0124e-05	1201.4	272.13	9.7355e-06	9.9594e-06	310.32	86.653	71.568	18.12	1.0038e-05	23.504	289.067	166.248	164.729	66.462	212.391	179.605	65.754	71.412	254.626	93.205	70.368	75.786	77.393	82.037	223.942	79.862	-8191	255	
7626.733	1	1	0	0	0.11397	0.12318	0.06892	0.45265	0.10106	0.061031	0.19361	0.11744	0.048054	0.14798	0.089905	0.12346	0.14097	0.20454	0.15343	0.10647	-2.1104	-2.6604	-2.9292	-2.6792	-2.6458	-2.5625	-2.7271	-3.0292	-2.5312	-2.9208	-2.8	-2.5125	-2.9313	-2.8208	-2.5333	-3.0708	308.397	77.079	330.400	363.399	355.335	146.635	211.879	352.530	67.082	196.565	74.243	358.368	379.119	79.473	230.825	90.459	0.00041915	0.00044736	0.00012844	1246.8	1.0648e-05	5.9345e-06	1321.3	299.28	9.1084e-06	3.6423e-06	338.07	93.906	77.612	19.133	5.2343e-06	25.004	0.00080599	0.00095846	0.00026083	1138.3	1.0192e-05	1.0372e-05	1199	272.75	9.9309e-06	1.0315e-05	309.44	86.239	71.546	18.038	1.0141e-05	23.364	294.461	138.799	149.329	66.542	207.211	183.693	65.719	71.417	226.621	192.531	70.029	75.714	77.129	82.122	164.617	80.008	-8191	255	
7626.829	1	1	0	0	0.084939	0.061759	0.18532	0.24815	0.065423	0.14427	0.10961	0.14559	0.10729	0.0375	0.32824	0.074876	0.15505	0.29532	0.11773	0.23306	-2.1542	-2.5396	-2.8937	-2.4917	-3.0042	-2.8167	-2.4646	-2.9437	-2.4604	-2.5479	-2.8812	-2.3229	-2.65	-2.6542	-2.4562	-3.0563	239.166	361.320	159.186	412.656	318.487	362.040	392.139	338.754	238.719	100.006	377.142	265.353	394.657	191.416	348.097	248.033	0.00048208	0.00072963	0.00019371	1244.6	5.6061e-06	3.8583e-06	1316.9	297.86	1.1353e-05	6.8432e-06	331.97	92.86	77.144	19.223	4.3869e-06	24.818	0.00081543	0.00096671	0.00026401	1133.6	1.0346e-05	1.0861e-05	1194.9	271.01	1.0191e-05	1.0682e-05	306.02	85.393	70.791	17.964	9.7052e-06	23.205	278.169	117.663	117.973	66.375	184.016	291.439	65.988	71.507	275.794	173.368	69.756	75.830	77.290	81.587	259.280	79.932	-8191	255	
7626.925	1	1	0	0	0.37827	0.24431	0.12204	0.35915	0.2428	0.23825	0.12995	0.050202	0.051751	0.13385	0.15857	0.27105	0.11086	0.27823	0.057694	0.17934	-2.2333	-2.5854	-2.9125	-2.6979	-2.8417	-2.8688	-2.7604	-2.9458	-2.6667	-2.5958	-3.1104	-2.5854	-2.7792	-2.9792	-2.5271	-2.8146	215.484	254.657	138.740	373.702	338.042	355.496	373.355	320.035	290.370	371.132	332.819	327.241	354.055	118.317	277.091	170.261	0.00040552	0.00083398	2.3299e-05	1238.2	1.1852e-05	2.8918e-06	1299.5	295.26	5.6883e-06	3.5718e-06	332.39	92.874	77.6	19.006	8.5251e-06	24.77	0.00079866	0.00096223	0.00025637	1128.5	9.7337e-06	1.0468e-05	1182.9	270.25	9.7022e-06	1.0121e-05	305.21	85.454	70.96	17.833	1.0048e-05	23.157	282.861	101.148	108.880	66.587	244.008	311.360	65.806	71.633	205.346	191.446	69.822	75.919	76.977	82.282	236.947	79.509	-8191	255	
7627.021	1	1	0	0	0.12128	0.27209	0.18404	0.42575	0.052096	0.14504	0.10522	0.43107	0.18136	0.2644	0.28196	0.35938	0.082013	0.13526	0.058771	0.014246	-2.1688	-2.4958	-3.1083	-2.6479	-2.5833	-2.7604	-2.7083	-2.9562	-2.7771	-2.3917	-2.9479	-2.6583	-2.9208	-3.0208	-2.4688	-2.8583	317.215	81.181	201.701	378.024	77.719	357.625	278.701	355.331	326.148	358.066	326.496	403.885	291.336	65.615	380.678	345.967	0.00049348	0.00019404	7.8404e-05	1226.4	6.9818e-06	3.7748e-06	1305.9	294.92	1.3858e-05	4.0112e-06	331.01	92.511	77.014	18.965	5e-06	24.501	0.00079661	0.00092517	0.00025571	1122.7	1.0035e-05	1.0381e-05	1184.2	269.23	9.8153e-06	1.009e-05	304.6	85.026	70.655	17.826	1.0075e-05	22.98	295.656	386.662	183.354	66.248	239.351	215.237	65.749	71.570	266.148	105.423	70.486	75.554	77.009	82.304	235.893	80.273	-8191	255	
7627.117	1	1	0	0	0.2572	0.17826	0.10716	0.2811	0.17341	0.19409	0.3532	0.19371	0.25233	0.25426	0.11142	0.15784	0.04555	0.097651	0.22	0.07031	-2.3542	-2.4479	-2.7854	-2.8958	-2.7083	-3.0333	-2.6604	-2.9729	-2.6583	-2.5583	-2.9479	-2.7083	-2.5938	-3.0312	-2.5125	-2.7354	149.193	67.418	335.799	355.391	220.049	250.964	360.580	367.489	108.458	291.456	328.422	326.143	146.195	117.816	226.396	361.119	0.00047959	0.00035126	0.00012179	1237.4	6.2355e-06	3.8528e-06	1300.2	294.69	4.8223e-06	2.679e-06	332.16	92.547	77.213	18.683	5.3939e-06	24.645	0.00079951	0.00092563	0.00025793	1123.9	1.0265e-05	1.0549e-05	1179.3	269.01	1.0432e-05	1.1011e-05	304.3	84.829	70.968	17.733	1.1104e-05	22.915	281.764	131.718	124.786	66.655	256.434	308.378	66.081	71.223	290.267	298.703	70.546	75.769	76.710	81.632	181.316	79.428	-8191	255	
7627.236	1	1	0	0	0.10192	0.24705	0.027583	0.19768	0.1154	0.22445	0.054237	0.10109	0.16283	0.29562	0.03628	0.29169	0.22015	0.045444	0.40678	0.25642	-2.2313	-2.4896	-2.7833	-2.7417	-2.5187	-2.8937	-2.6312	-2.6937	-2.8042	-2.5083	-2.7958	-2.5687	-2.6542	-2.9104	-2.4646	-2.7375	372.539	157.173	226.224	262.270	195.204	267.206	397.610	363.370	219.098	155.027	249.158	339.149	374.049	363.485	411.146	135.251	0.00041901	0.00010527	0.0001353	1224.8	1.3095e-05	1.0433e-05	1284.7	293.2	3.941e-06	4.2224e-06	329.94	90.854	76.072	18.75	4.5309e-06	24.172	0.00086991	0.0010355	0.00029101	1118.6	1.1295e-05	1.1517e-05	1167.1	268.61	1.098e-05	1.1216e-05	301.19	83.903	70.218	17.633	1.1027e-05	22.666	292.627	57.088	131.583	66.347	167.499	226.882	65.729	71.554	176.368	172.056	70.015	75.953	76.713	81.618	197.255	80.100	-8191	255	
7627.332	1	1	0	0	0.18083	0.28092	0.15745	0.080225	0.19194	0.091407	0.17459	0.11081	0.12507	0.10649	0.24081	0.27858	0.12247	0.20281	0.19632	0.16927	-2.4813	-2.275	-2.6958	-3.1146	-2.4417	-2.975	-2.5604	-2.7708	-2.9875	-2.4688	-2.8375	-2.8125	-2.5563	-2.8917	-2.6708	-2.5896	114.472	230.807	165.347	316.757	387.953	393.006	78.456	160.988	371.378	178.446	289.692	287.319	254.350	56.281	252.122	373.008	0.00041578	0.00071464	0.00014905	1221.5	1.1832e-05	5.7903e-06	1282.1	290.5	2.903e-06	6.0202e-06	325.73	89.903	75.995	18.529	7.2444e-06	23.957	0.00085825	0.0010285	0.00028583	1113.9	1.0474e-05	1.0929e-05	1160.4	266.13	1.0388e-05	1.0713e-05	299.37	83.109	69.775	17.495	1.0782e-05	22.494	269.192	149.487	171.458	66.375	234.555	199.572	65.617	71.425	297.089	180.182	69.993	76.239	76.711	81.993	164.098	79.539	-8191	255	
7627.429	1	1	0	0	0.056313	0.11448	0.078486	0.16264	0.078445	0.068588	0.25445	0.095976	0.21869	0.075356	0.12674	0.29829	0.17263	0.050691	0.32465	0.14993	-2.6312	-2.475	-2.7396	-2.9896	-2.3729	-2.9083	-2.7708	-2.5833	-3.0021	-2.5604	-2.6896	-2.95	-2.3604	-2.9042	-2.5979	-2.4813	286.537	119.472	336.147	391.569	394.911	264.116	292.662	356.845	343.167	196.939	413.341	401.731	309.399	177.601	85.074	165.068	0.0003895	0.00056129	0.00017813	1208.4	8.0848e-06	6.763e-06	1274	293.26	8.9997e-06	3.0572e-06	325.76	89.828	75.087	18.779	4.8105e-06	24.063	0.00083352	0.0009601	0.00027833	1106	1.0408e-05	1.0864e-05	1158.2	266.58	1.041e-05	1.1433e-05	299.54	83.283	69.817	17.606	1.1864e-05	22.685	292.688	211.508	132.379	66.553	207.413	212.888	65.661	71.455	202.814	250.285	69.987	75.568	77.066	81.917	181.104	80.620	-8191	255	
7627.525	1	1	0	0	0.21049	0.16041	0.06993	0.1532	0.20345	0.13917	0.14812	0.14634	0.067166	0.22863	0.051453	0.20376	0.22616	0.28719	0.02108	0.1214	-2.4813	-2.6396	-2.6958	-3.0021	-2.4667	-2.7021	-2.7938	-2.7208	-2.8292	-2.6375	-2.7792	-3.0208	-2.4896	-2.925	-2.775	-2.5542	257.949	334.996	329.215	359.633	302.361	396.525	355.448	389.927	404.901	72.514	334.988	75.813	401.121	78.731	317.363	395.410	0.00032079	0.00039083	0.00011268	1215.5	7.6463e-06	1.942e-06	1280.2	290.09	8.1837e-06	1.8914e-06	324.97	91.032	75.509	18.753	3.7317e-06	23.899	0.0008961	0.0010317	0.00029429	1109.3	1.1398e-05	1.1576e-05	1161.3	267.36	1.1048e-05	1.1954e-05	299.85	83.67	69.838	17.697	1.1796e-05	22.581	276.104	398.966	185.474	66.655	223.961	290.696	65.925	71.614	238.837	152.978	70.140	75.868	76.792	82.297	260.832	79.996	-8191	255	
7627.645	1	1	0	0	0.081255	0.18436	0.094975	0.22681	0.20815	0.18869	0.081877	0.058346	0.068778	0.033837	0.33091	0.13136	0.17962	0.1543	0.062186	0.27269	-2.5042	-2.4417	-2.5458	-3.1771	-2.4396	-2.7021	-2.9875	-2.5646	-2.9458	-2.6958	-2.7458	-3.0917	-2.4458	-2.7604	-2.8104	-2.4354	392.222	312.510	131.640	56.657	300.110	405.709	134.630	389.686	367.908	138.894	343.359	284.359	106.379	390.778	369.769	308.690	0.00053809	0.00057224	8.5101e-05	1220.5	1.1241e-05	2.7165e-06	1270.2	290.32	7.3114e-06	5.2737e-06	321.81	90.656	75.597	18.791	8.3471e-06	24.099	0.00093961	0.0010694	0.00030848	1110.7	1.2021e-05	1.1936e-05	1155.4	266.21	1.178e-05	1.2216e-05	297.64	83.415	70.075	17.68	1.2015e-05	22.666	288.046	154.253	79.067	66.692	191.900	192.344	66.024	71.793	249.512	233.464	70.275	75.705	76.910	81.847	214.245	79.619	-8191	255	
7627.717	1	1	0	0	0.15371	0.26341	0.066839	0.19037	0.10316	0.26519	0.32811	0.13352	0.20354	0.18454	0.20357	0.050468	0.22656	0.1269	0.062851	0.20561	-2.35	-2.7271	-2.4833	-2.9521	-2.6937	-2.6333	-3.0208	-2.6896	-2.9125	-2.8688	-2.3854	-2.9604	-2.6333	-2.7604	-2.9479	-2.3792	68.674	103.110	323.870	399.449	272.760	407.570	314.522	340.298	169.904	85.985	354.788	310.525	314.199	295.423	277.628	292.658	0.00041493	0.00051686	0.00013389	1221	1.2902e-05	2.5806e-06	1278.4	293.55	3.3443e-06	9.3512e-06	326.81	90.799	76.17	18.54	5.7712e-06	24.273	0.00093568	0.0011712	0.00031723	1115.8	1.2556e-05	1.2766e-05	1163.9	268.01	1.2482e-05	1.3085e-05	300.03	83.219	70.207	17.568	1.2133e-05	22.556	289.961	146.075	168.204	66.660	154.428	199.826	65.791	71.332	162.619	297.595	70.128	75.819	76.839	81.899	223.596	79.839	-8191	255	
7627.813	1	1	0	0	0.12504	0.027277	0.050266	0.13948	0.14991	0.24368	0.032995	0.33972	0.1262	0.091915	0.42174	0.2426	0.24946	0.14082	0.19565	0.29562	-2.2646	-2.7604	-2.4021	-3.1104	-2.6729	-2.6937	-2.8521	-2.5771	-2.7438	-2.8042	-2.5104	-2.9313	-2.6688	-2.6875	-2.8271	-2.6688	237.510	289.788	93.798	388.189	319.911	194.586	393.848	330.235	157.876	79.321	405.077	63.299	107.088	72.996	379.273	344.344	0.00042116	0.00068177	5.4359e-05	1222.1	1.4441e-05	3.8584e-06	1275.9	293.92	5.7961e-06	6.2324e-06	327.56	90.417	75.226	18.81	4.3041e-06	24.003	0.00097288	0.0011509	0.00032429	1116.1	1.2428e-05	1.278e-05	1161.3	268.15	1.2389e-05	1.2653e-05	300.05	83.526	70.027	17.69	1.2131e-05	22.609	267.798	91.065	161.023	66.459	237.618	193.878	65.801	71.765	247.128	225.857	70.162	76.297	76.856	81.508	154.280	80.095	-8191	255	
7627.934	1	1	0	0	0.15689	0.28416	0.21773	0.41816	0.020789	0.16037	0.10195	0.11524	0.17534	0.36698	0.11258	0.073324	0.18778	0.091519	0.26554	0.096316	-2.3146	-2.825	-2.3792	-3.0875	-2.6646	-2.5563	-3.225	-2.6854	-2.7583	-2.8292	-2.6813	-3.0812	-2.675	-2.5125	-2.9792	-2.6417	57.159	285.230	268.109	385.705	407.295	228.475	234.764	267.024	412.574	327.920	63.398	289.937	397.428	390.556	263.282	284.104	0.00041727	0.00083053	5.9216e-05	1224.1	1.2234e-05	3.8823e-06	1281.9	292.4	9.8689e-06	5.5147e-06	329.54	91.43	76.725	18.768	2.0247e-06	24.197	0.0009533	0.0011596	0.00032348	1118.5	1.2329e-05	1.2835e-05	1165.6	268.8	1.2658e-05	1.2804e-05	302.57	84.176	70.605	17.726	1.2723e-05	22.733	286.800	119.375	185.183	66.583	279.626	179.877	65.640	71.387	232.567	186.919	70.471	75.534	76.782	81.883	128.449	79.854	-8191	255	
7628.028	1	1	0	0	0.22624	0.24064	0.14801	0.15636	0.15069	0.090645	0.23751	0.17417	0.28044	0.10537	0.030494	0.10265	0.29422	0.35939	0.056686	0.16172	-2.3167	-2.8125	-2.4021	-2.9188	-2.7812	-2.4042	-3.2104	-2.7	-2.7333	-2.9396	-2.5062	-2.9167	-2.8625	-2.3979	-2.9229	-2.5417	83.754	257.090	66.048	384.386	251.812	218.788	366.923	376.123	201.985	251.381	148.146	57.808	287.443	354.386	401.591	247.690	0.00055904	0.00045406	0.00012565	1233.1	5.3328e-06	3.5208e-06	1279.5	293.46	8.7755e-06	6.589e-06	326.81	90.32	75.996	18.974	1.0052e-05	24.041	0.0010259	0.0011911	0.00033002	1121.7	1.2783e-05	1.308e-05	1164.5	268.77	1.2934e-05	1.2815e-05	301.49	83.41	70.563	17.765	1.2974e-05	22.689	301.945	394.844	127.120	66.246	251.914	55.894	65.838	71.324	277.494	198.829	70.195	75.934	76.942	81.583	254.651	80.308	-8191	255	
7628.124	1	1	0	0	0.15913	0.14984	0.21369	0.12681	0.10657	0.092967	0.19361	0.15184	0.12884	0.049389	0.12189	0.1692	0.17958	0.23908	0.1	0.29837	-2.2208	-2.9792	-2.5312	-2.8833	-2.9021	-2.6583	-3.1292	-2.7917	-2.7	-2.95	-2.4958	-2.825	-2.9083	-2.4208	-2.8083	-2.85	317.397	366.124	326.005	55.662	67.695	370.980	366.215	378.826	102.467	341.691	207.593	273.997	164.408	136.032	99.656	350.494	0.00060119	0.00046787	0.00021678	1231	8.0759e-06	7.4964e-06	1283.4	293.11	1.2415e-05	7.9223e-06	327.08	90.399	75.239	19.066	7.3608e-06	24.321	0.0010094	0.0011813	0.00033145	1119.9	1.2614e-05	1.3079e-05	1167.8	268.42	1.2639e-05	1.3154e-05	300.38	83.853	70.208	17.772	1.2809e-05	22.776	281.111	214.219	129.770	66.231	206.563	178.167	65.796	71.195	230.585	148.902	70.092	76.026	76.434	82.033	249.181	79.652	-8191	255	
7628.220	1	1	0	0	0.2255	0.18056	0.2298	0.2035	0.17985	0.34765	0.27517	0.21586	0.11321	0.082104	0.3037	0.33461	0.17053	0.37687	0.18383	0.35662	-1.9354	-2.9146	-2.5771	-2.8438	-3.1021	-2.425	-3.1396	-2.8042	-2.5396	-2.9521	-2.6375	-2.6979	-3.0583	-2.425	-2.8875	-2.8125	295.050	354.375	341.225	373.071	317.587	55.960	332.742	324.164	327.961	57.072	382.716	87.159	194.907	374.176	376.104	333.598	0.00039716	0.00061852	0.00013979	1226.8	8.3901e-06	2.4462e-06	1286.8	293.48	5.0584e-06	3.1082e-06	327.88	91.12	76.085	19.026	6.0655e-07	24.364	0.0010008	0.0011807	0.00032491	1119.8	1.2897e-05	1.3086e-05	1167.9	268.78	1.2783e-05	1.3369e-05	301.65	84.388	70.48	17.856	1.3472e-05	22.91	277.187	131.656	146.798	66.629	301.532	117.650	66.179	71.355	110.184	179.526	69.856	76.154	76.835	81.747	221.012	80.464	-8191	255	
7628.317	1	1	0	0	0.12027	0.12972	0.12569	0.19706	0.090919	0.1708	0.24437	0.24145	0.050456	0.0082523	0.16377	0.047103	0.22699	0.4726	0.098457	0.18949	-2.025	-2.9167	-2.6271	-2.7583	-2.8354	-2.4542	-3.0021	-2.8146	-2.8208	-2.9042	-2.7354	-2.7083	-2.9896	-2.5229	-2.9667	-2.9688	150.244	321.707	407.082	326.735	124.797	196.678	346.364	357.930	285.100	360.479	56.185	352.971	199.518	70.608	144.619	290.336	0.00049484	0.00072997	0.00013395	1232.7	9.2369e-06	3.446e-06	1287	293.7	9.2114e-06	2.478e-06	326.5	91.536	76.123	19.026	6.5626e-06	24.23	0.00105	0.0012237	0.00034669	1124.3	1.3299e-05	1.353e-05	1172.9	268.89	1.3089e-05	1.2877e-05	301.63	84.505	70.627	17.808	1.2998e-05	22.83	288.045	221.663	115.881	66.515	249.492	153.007	65.865	71.578	236.749	329.146	69.634	75.982	76.756	81.833	213.854	79.637	-8191	255	
7628.413	1	1	0	0	0.15711	0.30366	0.092747	0.20857	0.35461	0.29875	0.38738	0.32607	0.17267	0.12293	0.13542	0.081842	0.23914	0.13936	0.19262	0.14383	-1.9438	-3.0667	-2.6083	-2.8125	-2.8187	-2.4833	-2.9208	-2.9	-2.4167	-2.8729	-2.5646	-2.6104	-3.1042	-2.7292	-2.6146	-2.9875	254.411	346.308	273.317	349.126	87.501	337.311	348.915	321.359	329.359	81.927	359.096	189.344	87.091	97.458	138.190	127.409	0.00037132	0.00076039	0.00015452	1230.4	3.5006e-06	1.7665e-06	1293.6	293.59	9.4847e-06	5.5431e-06	328.21	90.865	75.761	18.831	8.7861e-06	23.946	0.0010013	0.0011974	0.00033662	1120.9	1.2573e-05	1.3117e-05	1170.6	269.27	1.2987e-05	1.3539e-05	302.26	84.046	70.519	17.799	1.3571e-05	22.69	276.730	107.229	201.347	66.735	264.346	280.009	65.952	71.301	228.634	200.374	70.003	75.952	77.107	81.773	227.438	80.057	-8191	255	
7628.509	1	1	0	0	0.16122	0.099175	0.22965	0.081048	0.082904	0.18202	0.28834	0.17484	0.094919	0.29105	0.25022	0.22805	0.17064	0.3325	0.20174	0.041711	-1.9771	-2.8667	-2.5687	-2.5417	-2.9667	-2.5646	-2.925	-3.0104	-2.4771	-2.9542	-2.8937	-2.4792	-3.0125	-2.55	-2.65	-2.9542	320.511	72.610	146.414	384.756	348.538	378.263	353.065	254.244	316.376	231.471	349.598	398.417	228.484	60.532	242.435	212.888	0.0004871	0.00021374	0.00019586	1234.7	2.0257e-06	2.5018e-06	1283.3	294.02	2.2926e-06	3.4657e-06	328.46	91.286	76.233	19.119	7.4028e-06	24.379	0.0010026	0.0012018	0.00034196	1124	1.2931e-05	1.3812e-05	1171.1	268.96	1.297e-05	1.3809e-05	302.74	83.811	70.676	17.975	1.3537e-05	22.944	279.766	78.239	128.512	66.792	196.955	195.466	65.992	71.278	372.789	339.240	69.955	75.892	77.136	82.199	209.416	79.851	-8191	255	
7628.605	1	1	0	0	0.16164	0.1999	0.14001	0.27192	0.1553	0.13476	0.15891	0.13919	0.06484	0.20174	0.13389	0.1841	0.3467	0.13088	0.42286	0.062623	-2.0417	-2.8458	-2.7604	-2.4313	-3.0563	-2.5333	-2.85	-2.9833	-2.6542	-2.7542	-2.8063	-2.45	-2.9625	-2.5729	-2.5583	-2.9104	377.000	191.354	189.598	322.641	162.052	305.078	347.967	169.209	237.388	350.233	318.915	147.609	173.805	303.020	290.577	222.883	0.0005299	0.00037441	9.106e-05	1225.1	5.6358e-06	1.3619e-06	1279.4	294.71	9.9324e-06	1.7747e-06	328.04	92.926	76.817	18.925	1.0552e-06	24.317	0.0011028	0.0012896	0.00036323	1120.6	1.3856e-05	1.4316e-05	1170.4	270.39	1.3731e-05	1.4498e-05	303.77	85.101	71.243	18.081	1.5306e-05	23.057	280.856	183.782	406.618	66.354	231.875	138.783	65.839	71.785	233.308	149.767	70.036	76.230	77.168	82.474	232.181	79.902	-8191	255	
7628.726	1	1	0	0	0.13428	0.095711	0.28016	0.20711	0.11553	0.2107	0.22356	0.038904	0.1975	0.35565	0.23034	0.23965	0.15793	0.31591	0.12788	0.12683	-1.9667	-2.8167	-2.8354	-2.4396	-2.7875	-2.7896	-2.8104	-3.125	-2.5	-2.6271	-2.8458	-2.4854	-2.7625	-2.825	-2.4521	-3.0167	241.078	183.339	307.303	319.073	145.719	334.119	329.544	172.322	236.902	152.582	71.371	287.084	154.304	276.169	218.455	311.560	0.00034777	0.0006884	0.00017374	1240.3	1.4867e-05	2.0607e-06	1291.8	297.17	7.7049e-06	5.4669e-06	332.01	92.606	77.032	19.19	4.5662e-06	24.491	0.0011778	0.0014087	0.00038889	1131.5	1.4875e-05	1.5645e-05	1177.6	272.6	1.5309e-05	1.5666e-05	306.43	85.506	71.769	18.216	1.5643e-05	23.173	277.281	119.340	301.353	66.639	232.673	110.845	65.921	71.724	149.813	217.214	69.871	76.119	76.860	82.408	109.279	79.740	-8191	255	
7628.822	1	1	0	0	0.23984	0.055655	0.069912	0.28207	0.23603	0.077788	0.19053	0.11742	0.1682	0.31382	0.060232	0.11274	0.077798	0.059006	0.0506	0.064669	-2.1292	-2.6417	-2.825	-2.5292	-2.7854	-2.7042	-2.6292	-3.0729	-2.6729	-2.7229	-3.0333	-2.5563	-3.1063	-2.9	-2.4562	-2.8854	324.714	352.407	390.998	385.205	309.190	328.108	391.119	315.935	204.760	254.086	340.960	134.294	210.328	259.196	231.845	98.290	0.00034767	0.00047283	0.00010201	1239.4	5.6582e-06	1.5079e-06	1290.3	297.02	8.3614e-06	1.7165e-06	327.41	91.797	76.731	19.12	5.1308e-06	24.421	0.0012266	0.0014401	0.00040828	1133.1	1.5845e-05	1.6403e-05	1179.9	273.28	1.5435e-05	1.6479e-05	304.39	85.114	71.541	18.209	1.5485e-05	23.183	251.212	170.397	137.371	66.582	223.783	121.050	66.015	71.228	278.031	217.357	70.260	75.431	76.911	82.044	245.071	79.980	-8191	255	
7628.918	1	1	0	0	0.069006	0.31793	0.27516	0.22669	0.068622	0.018256	0.16773	0.1279	0.14219	0.12884	0.19299	0.1185	0.014163	0.27612	0.30406	0.23632	-2.3187	-2.7104	-3.0771	-2.7167	-2.8208	-2.8125	-2.5979	-2.9854	-2.7062	-2.6688	-3.1229	-2.5917	-2.7625	-3.0229	-2.4375	-2.8104	364.371	265.869	286.562	334.615	278.027	273.334	224.286	182.912	87.232	128.766	58.003	202.424	260.369	128.858	401.253	334.302	0.0004004	0.00083015	0.00017364	1236.3	5.4606e-06	8.1844e-06	1297.5	296.17	2.4747e-06	8.7345e-06	331.13	91.244	76.65	19.096	3.2436e-06	24.194	0.0012294	0.0014638	0.00040462	1132.3	1.5642e-05	1.6366e-05	1182.4	272.61	1.5811e-05	1.5818e-05	305.08	84.854	71.726	18.108	1.5641e-05	23.011	295.228	172.159	248.892	66.730	272.794	166.672	65.755	71.645	398.506	221.472	69.899	75.882	76.758	81.500	143.288	79.598	-8191	255	
7629.014	1	1	0	0	0.17761	0.10856	0.18423	0.3149	0.21765	0.083104	0.30296	0.216	0.28029	0.1743	0.12781	0.088223	0.083131	0.20183	0.21655	0.10035	-2.1667	-2.4792	-2.9083	-2.7042	-2.3958	-2.8542	-2.5208	-2.9125	-2.875	-2.5896	-2.9021	-2.5438	-2.6458	-2.8146	-2.4854	-3.1167	91.052	89.794	307.523	319.980	307.926	57.764	333.336	328.047	98.062	398.370	58.522	59.389	294.862	126.054	113.185	394.399	0.00047606	0.00043623	0.00013003	1239	2.3742e-06	5.5331e-06	1293.9	296.07	1.3575e-05	1.5908e-06	330.14	91.474	77.116	19.028	1.0308e-05	24.3	0.001202	0.0014229	0.00040885	1132.1	1.5551e-05	1.549e-05	1180.8	272.29	1.5177e-05	1.5655e-05	305.12	84.751	71.437	18.011	1.514e-05	23.012	299.736	139.836	167.960	66.321	208.861	339.718	66.039	71.524	334.867	259.962	70.387	75.647	76.994	81.668	220.413	79.861	-8191	255	
7629.110	1	1	0	0	0.17095	0.10145	0.22529	0.14249	0.18889	0.055676	0.12808	0.20639	0.083382	0.123	0.17684	0.14399	0.20628	0.28171	0.017095	0.082229	-2.5354	-2.3292	-3.2125	-2.8729	-2.6708	-2.8812	-2.5583	-2.8104	-2.8375	-2.4938	-3.05	-2.7375	-2.7604	-2.9771	-2.425	-2.6583	85.510	227.452	176.006	335.041	152.058	197.719	54.149	379.334	291.805	247.572	365.316	346.033	321.175	392.230	335.578	143.085	0.000532	0.00028143	0.00015241	1237.6	4.0771e-06	2.0289e-06	1294.4	295.35	1.0239e-05	9.0579e-06	329.57	91.471	75.932	18.871	6.6323e-06	24.168	0.0011442	0.0014147	0.00038406	1131.1	1.4628e-05	1.5191e-05	1181.8	271.15	1.4532e-05	1.4555e-05	304.8	84.842	71.018	17.835	1.4642e-05	22.992	282.232	321.946	182.117	66.511	117.036	178.071	66.181	71.416	194.269	213.087	70.078	75.786	76.748	81.827	220.455	80.264	-8191	255	
7629.205	1	1	0	0	0.19348	0.16244	0.062821	0.17084	0.17994	0.20287	0.32897	0.22296	0.13684	0.19066	0.13293	0.11051	0.15515	0.16819	0.060997	0.28715	-2.3104	-2.2542	-2.8354	-2.8792	-2.3625	-3.0938	-2.6521	-2.8458	-2.85	-2.3125	-2.9833	-2.7125	-2.4979	-2.7833	-2.4021	-2.6354	388.703	156.220	171.219	93.579	300.722	391.784	356.586	352.687	328.397	412.022	145.986	315.874	147.267	405.571	115.715	215.237	0.00030795	0.00039789	0.00027122	1245.4	1.3958e-05	2.5344e-06	1296	295.48	4.4275e-06	1.3252e-06	329.3	91.71	76.702	18.694	9.0342e-06	23.848	0.001143	0.0013632	0.00038013	1134.7	1.457e-05	1.4763e-05	1183.4	271.79	1.4355e-05	1.4987e-05	304.54	84.474	70.986	17.781	1.4673e-05	22.667	296.695	146.041	134.478	66.627	217.564	230.601	66.023	71.528	195.498	76.309	69.965	75.985	76.956	82.096	410.464	80.499	-8191	255	
7629.325	1	1	0	0	0.34504	0.02834	0.25659	0.29343	0.0048949	0.08869	0.43489	0.16155	0.26444	0.26966	0.058796	0.078166	0.09304	0.092032	0.11799	0.14841	-2.375	-2.5104	-2.7542	-2.975	-2.3667	-2.7938	-2.6667	-2.75	-2.9062	-2.4167	-2.8875	-2.5292	-2.6167	-3.0958	-2.6708	-2.9104	116.581	408.166	376.911	338.633	136.081	279.607	335.545	252.868	277.928	94.725	349.884	295.758	266.710	79.508	169.751	401.902	0.00043253	0.0013133	0.00011619	1241	7.0507e-06	2.0043e-06	1295.7	297.06	9.1843e-06	2.3744e-06	333.55	92.458	76.561	18.972	2.933e-06	24.13	0.0011625	0.0013496	0.00037222	1135.4	1.4566e-05	1.4754e-05	1182.2	272.78	1.4336e-05	1.472e-05	306.36	85.11	71.313	17.909	1.5078e-05	22.895	273.898	148.303	242.555	66.508	278.052	342.371	65.908	71.878	257.487	114.938	69.537	75.818	76.950	81.865	304.161	79.937	-8191	255	
7629.421	1	1	0	0	0.064645	0.26007	0.15521	0.47715	0.15738	0.031186	0.19881	0.052551	0.1786	0.11026	0.19233	0.19051	0.18052	0.059799	0.26266	0.22439	-2.5792	-2.425	-2.7604	-2.9854	-2.4667	-3.0875	-2.925	-2.6271	-3.0292	-2.7354	-2.8688	-3.0062	-2.5583	-2.9	-2.7479	-2.7458	308.160	156.264	121.843	367.362	369.904	103.359	311.164	298.560	295.442	185.688	365.299	77.633	378.147	363.490	240.848	259.084	0.00046817	0.0011895	6.5216e-05	1239.9	1.2226e-05	3.7078e-06	1305.9	299.24	3.176e-06	1.0156e-05	329.7	92.332	76.403	19.038	8.7147e-06	24.153	0.001168	0.0014018	0.00039276	1137.7	1.4934e-05	1.5439e-05	1188.2	274.04	1.4859e-05	1.6218e-05	307	85.433	71.53	18.022	1.5797e-05	22.975	282.947	119.285	223.943	66.438	233.203	169.445	65.756	71.507	324.355	218.852	70.033	75.994	77.018	81.632	283.458	79.858	-8191	255	
7629.518	1	1	0	0	0.41874	0.13715	0.056662	0.23958	0.14078	0.29781	0.36849	0.23763	0.15699	0.017972	0.26295	0.21569	0.25199	0.095327	0.09964	0.21637	-2.4437	-2.5979	-2.7125	-3.0458	-2.4854	-2.8333	-2.9521	-2.5687	-2.9125	-2.6625	-2.7542	-2.9875	-2.6354	-2.8708	-2.9167	-2.6708	63.748	381.899	406.032	361.765	364.459	195.215	357.165	112.453	256.185	236.302	62.598	64.267	69.803	309.830	233.931	152.920	0.00049512	0.00083518	0.00022581	1252.9	1.2103e-05	5.4856e-06	1302.1	297.9	2.6624e-06	2.5778e-06	330.49	92	76.474	18.814	5.4672e-06	24.018	0.0012067	0.0014712	0.00040204	1141	1.5023e-05	1.5923e-05	1187.6	273.27	1.4563e-05	1.552e-05	306.52	84.772	71.006	17.746	1.4547e-05	22.707	266.250	107.052	93.527	66.596	200.376	244.650	66.114	71.046	106.197	278.444	70.178	76.091	76.905	82.301	262.911	79.853	-8191	255	
7629.589	1	1	0	0	0.076005	0.15125	0.12115	0.046645	0.18691	0.13705	0.17893	0.38074	0.22578	0.15229	0.061073	0.24904	0.10186	0.18334	0.1294	0.1797	-2.5667	-2.8396	-2.5979	-3.1521	-2.4458	-2.9	-3.0146	-2.5396	-2.9458	-2.6458	-2.6854	-3.0104	-2.5396	-2.7292	-2.7521	-2.4583	304.116	57.397	365.567	218.020	113.942	412.759	316.994	357.283	82.632	230.108	402.023	104.115	126.541	167.989	169.673	338.879	0.00048496	0.00017095	0.00024098	1249.9	9.5043e-06	4.2573e-06	1303.3	297.85	6.1378e-06	2.7259e-06	329.32	91.533	76.927	18.844	4.9635e-06	24.081	0.001053	0.0012871	0.00034969	1137.6	1.307e-05	1.3934e-05	1185.8	272.93	1.3183e-05	1.4368e-05	304.87	84.563	71.524	17.804	1.4242e-05	22.787	303.404	88.119	113.216	66.452	217.076	85.769	65.960	71.162	302.966	313.708	70.041	75.530	76.784	81.571	250.934	79.854	-8191	255	
7629.710	1	1	0	0	0.20865	0.19199	0.16388	0.32366	0.13943	0.39013	0.15243	0.2954	0.28203	0.10492	0.13174	0.14486	0.19287	0.1145	0.13409	0.15499	-2.3771	-2.5875	-2.625	-3.0833	-2.5312	-2.9562	-3.0292	-2.6146	-2.8833	-2.6833	-2.6688	-3.0375	-2.6083	-2.6271	-2.9333	-2.5458	368.132	388.183	269.393	404.464	266.503	172.960	280.796	315.479	405.010	272.841	339.465	267.856	97.851	97.506	392.567	410.115	0.00053333	0.00037503	0.0002882	1246.7	1.6335e-05	8.9275e-06	1301	300.78	8.3331e-06	5.8539e-06	331.52	91.932	77.057	18.781	8.3184e-06	23.977	0.0011199	0.0013345	0.00038093	1143	1.4359e-05	1.4947e-05	1190.4	275.82	1.4446e-05	1.5194e-05	306.98	85.237	71.736	17.869	1.4455e-05	22.75	277.846	74.836	114.422	66.219	197.219	173.780	65.974	71.698	218.005	195.502	69.744	75.667	76.946	81.753	193.589	79.755	-8191	255	
7629.806	1	1	0	0	0.085089	0.20004	0.19022	0.23472	0.24358	0.23798	0.33758	0.39998	0.1774	0.26058	0.12121	0.13668	0.19072	0.14464	0.10992	0.087126	-2.4417	-2.75	-2.4354	-3.1896	-2.7208	-2.7687	-3.2146	-2.5979	-2.9042	-2.9604	-2.425	-2.9313	-2.7646	-2.5354	-2.9375	-2.6125	105.094	134.335	218.426	368.630	199.208	374.082	336.766	368.402	311.909	259.545	322.640	59.918	109.969	213.467	271.991	124.809	0.00035872	0.00027237	0.00026251	1252.2	7.5128e-06	5.7482e-06	1300.6	298.7	9.0159e-06	7.041e-06	331.93	91.979	77.615	18.804	5.0222e-06	24.026	0.0011262	0.0013371	0.00037628	1142.8	1.4209e-05	1.4942e-05	1186.9	274.59	1.4304e-05	1.4643e-05	305.92	85.011	71.706	17.794	1.3697e-05	22.735	276.960	172.797	104.507	66.166	247.275	135.267	65.855	71.149	218.542	149.578	70.119	75.837	76.690	81.738	191.928	79.241	-8191	255	
7629.902	1	1	0	0	0.10697	0.29308	0.10721	0.27965	0.34434	0.25505	0.21755	0.19167	0.1622	0.066803	0.022564	0.16216	0.23051	0.28781	0.12489	0.2602	-2.5479	-2.8292	-2.5229	-2.9813	-2.5417	-2.7771	-3.0458	-2.6792	-2.8333	-2.8875	-2.5417	-3.0792	-2.5979	-2.3875	-3.05	-2.5479	100.405	118.007	406.931	357.255	322.510	180.910	385.398	60.148	87.181	292.449	322.078	361.575	112.888	132.571	98.540	337.494	0.00035973	0.00060764	0.00028735	1250.3	1.7906e-05	3.0865e-06	1313.1	300.79	6.2969e-06	9.9355e-06	334.5	92.587	77.201	18.868	6.3504e-06	24.117	0.0010896	0.0012988	0.00035325	1143.2	1.3615e-05	1.4276e-05	1195.2	275.12	1.4238e-05	1.4209e-05	308.06	85.37	71.61	17.834	1.3997e-05	22.728	284.714	176.273	151.184	66.423	258.351	89.588	65.696	71.605	214.989	151.360	70.289	75.314	76.685	81.516	169.107	80.112	-8191	255	
7629.998	1	1	0	0	0.12005	0.098926	0.25855	0.10985	0.30154	0.094389	0.21264	0.19917	0.13586	0.16207	0.20393	0.15188	0.091582	0.10967	0.20044	0.14148	-2.3063	-2.9813	-2.4604	-2.9479	-2.525	-2.4313	-3.0271	-2.6833	-2.5479	-2.9062	-2.4792	-3.0375	-2.6771	-2.3604	-3.0646	-2.7292	55.203	252.852	104.257	407.927	312.642	257.680	391.969	372.686	288.583	269.293	402.112	349.530	258.466	368.386	372.880	74.573	0.00043351	0.0002151	0.00024657	1257.2	3.7668e-06	5.3133e-06	1306.4	298.61	3.353e-06	1.8269e-06	332.64	91.221	77.306	18.846	5.5331e-06	24.027	0.0011128	0.0013112	0.0003676	1148.2	1.4156e-05	1.4437e-05	1192.9	274.47	1.3775e-05	1.4086e-05	307.29	84.556	71.426	17.761	1.3694e-05	22.645	274.179	226.661	135.740	66.478	56.777	321.806	65.793	71.618	180.250	332.315	69.913	75.387	76.566	82.194	201.346	79.378	-8191	255	
7630.117	1	1	0	0	0.10648	0.18672	0.20538	0.43542	0.14506	0.1611	0.13704	0.24873	0.074816	0.10278	0.24649	0.093409	0.18446	0.21492	0.23848	0.44045	-2.1875	-2.8063	-2.3479	-2.7938	-2.8854	-2.3812	-2.9979	-2.7208	-2.6104	-2.9021	-2.3521	-2.7521	-2.8646	-2.4542	-2.8896	-2.6958	346.163	180.776	196.588	350.231	150.801	274.476	345.198	384.278	182.951	89.274	102.107	332.150	397.652	273.597	236.168	321.576	0.00031482	0.00083606	6.132e-05	1254.4	4.7682e-06	9.7396e-06	1308.4	298.17	5.436e-06	7.8216e-06	333.92	91.552	76.704	18.844	8.1859e-06	23.738	0.0010864	0.0012715	0.00036174	1147.9	1.3886e-05	1.4554e-05	1190.2	273.62	1.3854e-05	1.404e-05	306.64	84.57	71.355	17.853	1.4007e-05	22.562	280.691	89.323	346.746	66.505	345.835	222.263	65.564	71.406	154.411	161.529	69.913	75.411	77.059	81.949	231.380	80.046	-8191	255	
7630.191	1	1	0	0	0.09486	0.19024	0.28419	0.2209	0.2449	0.086599	0.40213	0.26703	0.25919	0.095916	0.18302	0.097484	0.12322	0.073457	0.2069	0.11046	-2.15	-2.8042	-2.5667	-2.9042	-2.8875	-2.3667	-3.1896	-2.7917	-2.4896	-2.8875	-2.5854	-2.5479	-2.8917	-2.2438	-2.9771	-2.8208	66.751	56.919	156.189	401.831	391.590	307.797	358.447	356.143	256.145	83.120	370.268	315.780	74.384	390.643	281.565	191.066	0.0003474	0.00020294	0.00023573	1260.3	9.1398e-06	4.4272e-06	1308.9	300.33	1.13e-05	4.3775e-06	332.47	92.213	77.417	18.904	5.1557e-06	24.231	0.0011065	0.0013322	0.00037618	1147.6	1.4501e-05	1.4851e-05	1193	275.47	1.4461e-05	1.5412e-05	307.67	85.38	71.927	17.925	1.4571e-05	22.943	281.243	165.398	202.602	66.510	194.564	123.691	65.587	71.215	247.442	194.348	69.956	76.162	77.288	81.676	280.449	79.254	-8191	255	
7630.287	1	1	0	0	0.18188	0.10908	0.019754	0.1018	0.19089	0.16814	0.21722	0.18123	0.16404	0.16887	0.066161	0.15436	0.10877	0.1535	0.093312	0.12161	-2.0542	-3.0271	-2.4938	-2.7458	-3.0062	-2.6333	-2.9979	-2.9792	-2.1937	-2.9646	-2.6229	-2.5812	-2.9396	-2.3604	-2.7396	-2.9646	118.585	266.859	95.029	316.671	365.424	343.468	63.448	91.561	216.942	338.463	341.616	356.296	373.293	339.813	336.451	72.439	0.00031174	0.00013589	0.0001255	1253.5	6.4552e-06	5.1027e-06	1302.7	302.36	3.7298e-06	3.3152e-06	335.71	92.284	77.428	18.804	1.4774e-05	24.216	0.0011788	0.0013995	0.00038624	1147.3	1.4583e-05	1.4457e-05	1192.6	275.9	1.4701e-05	1.5694e-05	309.37	85.76	71.964	18.015	1.5134e-05	23.049	269.024	58.865	124.608	66.965	187.128	190.452	66.104	71.455	259.555	78.505	69.944	75.825	76.544	81.738	256.914	79.722	-8191	255	
7630.406	1	1	0	0	0.3189	0.15203	0.19871	0.21533	0.091635	0.17269	0.21478	0.09835	0.14841	0.19916	0.22134	0.25376	0.21765	0.20448	0.13191	0.26453	-2.0625	-2.925	-2.5875	-2.7687	-2.8417	-2.6042	-3.1792	-2.8354	-2.5875	-3.0021	-2.7438	-2.7021	-2.9833	-2.4146	-2.6458	-2.9146	122.940	213.599	412.772	409.502	320.162	392.344	349.626	75.538	172.372	90.481	391.563	372.882	349.822	134.418	374.736	310.757	0.00046446	0.00097382	0.00020688	1267.2	3.9234e-06	7.5483e-06	1322.4	302.04	7.7143e-06	7.7658e-06	333.85	91.652	77.854	19.16	6.5113e-06	24.07	0.0011714	0.0014473	0.00040214	1158.6	1.5322e-05	1.6293e-05	1204.4	278.68	1.638e-05	1.7049e-05	310.39	85.536	72.554	18.232	1.7002e-05	22.97	273.505	125.047	118.785	66.563	300.814	209.042	65.592	71.385	209.664	211.099	69.858	75.752	76.774	81.832	246.325	79.461	-8191	255	
7630.502	1	1	0	0	0.12047	0.20466	0.24754	0.34755	0.15834	0.14048	0.15458	0.16212	0.069964	0.34788	0.12821	0.15014	0.10239	0.052126	0.29334	0.25204	-2.1854	-2.9229	-2.8333	-2.7458	-2.9875	-2.7354	-2.9354	-2.9958	-2.4833	-3.0167	-2.8563	-2.5104	-2.9688	-2.3792	-2.6104	-3.0646	179.649	159.289	374.801	339.901	279.820	217.216	341.145	332.045	149.329	393.516	331.284	315.018	285.031	184.213	242.516	391.320	0.00032147	0.00026039	0.00025052	1275.4	4.6636e-06	6.2848e-06	1344.6	307.4	4.4733e-06	1.5633e-06	338.17	92.005	77.883	19.355	6.9584e-06	24.138	0.0013003	0.0015651	0.00044791	1170.9	1.6564e-05	1.7171e-05	1220.1	280.97	1.659e-05	1.7208e-05	312.55	85.588	72.462	18.424	1.6294e-05	22.87	269.879	120.224	113.561	66.365	192.710	147.704	65.931	71.251	239.556	183.946	70.178	75.683	76.650	81.200	173.682	79.166	-8191	255	
7630.598	1	1	0	0	0.091077	0.11926	0.23654	0.19055	0.017823	0.16512	0.42864	0.25591	0.041634	0.058441	0.2942	0.086776	0.10846	0.2494	0.18191	0.22363	-2.1542	-2.825	-2.8375	-2.5187	-2.8583	-2.6792	-2.7896	-3.1417	-2.6104	-2.9167	-2.9354	-2.5229	-3.0542	-2.8812	-2.5229	-3.0521	292.983	287.609	73.142	376.482	389.439	128.510	355.718	377.674	380.750	355.185	374.393	191.593	243.812	324.476	356.053	372.570	0.00028296	0.00041931	0.00013375	1291	9.8183e-06	1.3909e-06	1350.8	305.53	1.478e-06	4.4925e-06	335.74	89.772	75.421	18.563	3.0061e-06	23.369	0.0012368	0.0014894	0.00040726	1178.6	1.4956e-05	1.5665e-05	1226.6	279.78	1.4517e-05	1.4929e-05	310.8	83.675	70.207	17.679	1.3416e-05	22.134	285.583	145.586	148.749	66.545	242.969	195.153	65.958	70.943	231.945	260.226	69.882	75.371	76.884	80.690	323.716	79.808	-8191	255	
7630.719	1	1	0	0	0.13787	0.095506	0.12966	0.44326	0.11338	0.26586	0.16813	0.23488	0.085297	0.22921	0.16848	0.023883	0.16726	0.24496	0.070337	0.17284	-2.2438	-2.8563	-2.8083	-2.6771	-2.9146	-2.6667	-2.7521	-3.0083	-2.6333	-2.7875	-2.8292	-2.5333	-2.9354	-2.8063	-2.6	-3.0979	129.463	227.091	276.297	61.318	95.737	178.044	402.072	333.137	196.653	380.938	97.784	377.315	69.084	294.087	93.298	157.922	0.00051361	0.00061901	0.00019246	1286.1	2.0383e-06	7.4061e-06	1344.8	304.67	3.7878e-06	4.1259e-06	334.58	90.246	74.046	18.514	5.0278e-06	23.331	0.0010179	0.0012078	0.0003231	1175.3	1.2152e-05	1.2843e-05	1224.7	276.72	1.2563e-05	1.2755e-05	308.16	83.126	69.294	17.61	1.2581e-05	22.101	281.019	70.438	183.552	66.332	240.765	206.653	65.489	71.020	136.123	212.443	69.280	75.300	76.370	81.638	279.894	79.296	-8191	255	
7630.815	1	1	0	0	0.2618	0.14026	0.21612	0.2296	0.21205	0.13502	0.33617	0.20399	0.16169	0.21077	0.22077	0.29234	0.13435	0.12282	0.10735	0.13379	-2.2042	-2.5833	-2.7521	-2.6583	-2.8104	-2.8688	-2.8063	-3.1688	-2.7667	-2.8667	-2.9958	-2.5	-2.8312	-2.8979	-2.3937	-3	330.138	209.036	243.004	329.133	151.572	127.698	347.450	305.274	371.668	387.089	352.260	78.591	141.219	132.136	368.286	299.878	0.00042104	0.00033454	0.00025466	1292.3	2.5208e-06	4.7643e-06	1362.2	306.16	3.8036e-06	2.869e-06	342.13	91.29	77.05	18.934	3.75e-06	23.452	0.0010038	0.0011977	0.00032927	1183.8	1.272e-05	1.3293e-05	1238.5	280.64	1.27e-05	1.3698e-05	313.32	84.186	71.223	17.916	1.3013e-05	22.115	284.822	90.511	145.965	66.244	272.951	189.595	65.575	71.144	302.497	208.484	69.768	75.208	76.476	80.911	179.645	79.081	-8191	255	
7630.886	1	1	0	0	0.11837	0.26912	0.34856	0.18891	0.057742	0.026861	0.044065	0.12573	0.1453	0.23955	0.20667	0.23962	0.055396	0.18865	0.22357	0.16845	-2.0812	-2.5479	-3.1312	-2.5979	-2.5333	-2.8583	-2.8208	-3.0167	-2.725	-2.6396	-2.8979	-2.6208	-2.7667	-2.9896	-2.5687	-2.9896	347.883	325.962	315.566	89.097	168.331	250.555	349.135	183.801	324.340	132.526	332.039	193.964	293.185	110.333	270.671	313.499	0.00038041	9.6591e-05	5.524e-05	1306.4	7.5783e-06	4.2533e-06	1374.1	307.3	1.2295e-05	2.3471e-06	341.69	90.941	75.893	18.836	6.0651e-06	23.041	0.0010326	0.0012321	0.00033498	1195.1	1.2739e-05	1.3061e-05	1247.2	281.7	1.2332e-05	1.3057e-05	313.56	83.684	70.655	17.738	1.2587e-05	21.761	272.470	280.346	148.492	66.559	227.774	347.867	65.500	71.264	274.277	107.315	69.774	75.398	76.244	80.162	286.860	78.738	-8191	255	
7631.007	1	1	0	0	0.11186	0.040685	0.088235	0.4356	0.081794	0.032889	0.16896	0.337	0.2323	0.26413	0.090128	0.33301	0.2998	0.34257	0.16436	0.081183	-2.2083	-2.5938	-2.8896	-2.7042	-2.7854	-2.9292	-2.5104	-2.7687	-2.6729	-2.4771	-3.175	-2.6521	-2.7854	-2.9292	-2.5104	-2.95	264.340	55.246	230.174	339.919	393.703	191.431	84.421	274.346	146.182	319.960	84.801	320.965	266.545	360.889	134.438	391.152	0.00039288	0.00038413	0.00021071	1321.9	1.0824e-05	9.12e-06	1373.1	309.43	5.0741e-06	4.617e-06	341.02	91.133	76.983	18.79	5.808e-06	23.158	0.0010114	0.0012096	0.00032041	1202.3	1.279e-05	1.3016e-05	1247.9	282.49	1.2206e-05	1.3075e-05	313.95	83.836	70.944	17.715	1.237e-05	21.861	290.053	98.643	87.043	66.028	213.549	168.688	65.710	71.026	238.251	253.247	69.696	75.174	76.203	80.688	272.382	78.808	-8191	255	
7631.101	1	1	0	0	0.13945	0.017813	0.18337	0.3273	0.16554	0.17123	0.20489	0.072046	0.12618	0.25176	0.045713	0.03341	0.33409	0.069718	0.11004	0.24556	-2.2938	-2.4813	-2.9271	-2.6813	-2.8812	-2.8458	-2.7146	-2.8583	-2.8521	-2.5229	-3.0458	-2.5896	-2.7062	-2.9417	-2.4979	-2.8187	281.760	219.155	382.791	54.570	281.435	354.249	399.703	266.995	186.690	184.331	201.647	377.734	84.232	280.408	109.804	103.843	0.00031438	0.00012693	0.0002675	1316.9	1.0319e-05	1.7818e-06	1372.6	310.09	1.2789e-05	4.0205e-06	343.91	91.542	76.981	18.773	7.9637e-06	23.101	0.0010027	0.0011805	0.00034307	1203.1	1.2904e-05	1.2997e-05	1250.8	284.16	1.2902e-05	1.3496e-05	316.43	84.464	71.376	17.747	1.2642e-05	21.765	243.231	140.772	171.906	66.255	264.579	208.255	65.495	71.110	256.674	266.657	69.446	74.953	76.101	80.458	160.822	78.657	-8191	255	
7631.198	1	1	0	0	0.12351	0.036055	0.10288	0.2503	0.042548	0.41325	0.22098	0.19078	0.24012	0.30029	0.15089	0.24045	0.20985	0.14786	0.18468	0.13299	-2.4167	-2.4375	-2.8146	-2.925	-2.4958	-2.9271	-2.8854	-2.7812	-2.9437	-2.5125	-2.8583	-2.6188	-2.5021	-2.8333	-2.475	-2.5229	91.982	123.619	320.848	407.355	130.158	76.284	393.012	307.591	313.296	149.859	277.156	216.399	335.325	383.280	250.915	335.925	0.00038146	0.00030326	0.00015645	1315.7	9.4618e-06	2.9721e-06	1375.6	309.59	7.9553e-06	2.7732e-06	338.36	90.357	76.3	18.842	9.1179e-06	22.884	0.00099061	0.0011697	0.00032357	1205.3	1.2471e-05	1.2866e-05	1250.1	283.65	1.2491e-05	1.307e-05	311.9	83.674	70.586	17.725	1.2834e-05	21.557	286.618	110.006	227.509	66.555	186.227	233.743	65.505	71.324	230.237	232.341	69.513	75.151	76.191	80.664	249.408	78.145	-8191	255	
7631.294	1	1	0	0	0.08509	0.14439	0.20618	0.23186	0.1224	0.030182	0.075912	0.23659	0.10001	0.016186	0.18568	0.13825	0.092113	0.34517	0.18573	0.2011	-2.3833	-2.4208	-2.65	-2.6583	-2.3396	-3.0187	-2.6562	-2.7062	-2.9688	-2.5021	-2.825	-2.8354	-2.6625	-3.0208	-2.5208	-2.7146	103.091	339.394	261.796	372.735	387.986	278.686	378.590	328.262	104.335	261.135	91.038	304.526	403.795	270.070	388.752	286.859	0.00038087	0.0011544	0.00019323	1308.7	3.312e-06	1.2062e-05	1368.5	306.83	9.058e-06	1.4662e-06	334.96	90.996	76.408	18.964	8.705e-06	23.071	0.00099259	0.0011841	0.00033544	1194.8	1.304e-05	1.3016e-05	1240.1	281.54	1.2713e-05	1.3363e-05	310.2	83.783	71.047	17.931	1.347e-05	21.793	268.681	154.797	204.366	66.426	129.346	231.868	65.347	70.952	252.360	160.904	69.762	75.089	76.062	80.485	276.155	78.354	-8191	255	
7631.414	1	1	0	0	0.40027	0.14707	0.025903	0.45132	0.20375	0.14965	0.049496	0.11701	0.11796	0.14274	0.12285	0.30009	0.19026	0.099976	0.14962	0.22431	-2.4562	-2.6333	-2.7417	-3.0792	-2.3771	-2.9854	-2.8583	-2.8688	-3.0812	-2.5729	-2.9188	-2.8646	-2.5417	-2.8458	-2.7292	-2.8125	182.603	381.324	314.852	377.733	241.058	288.464	402.392	302.487	87.770	151.888	305.724	104.897	406.406	369.811	196.330	355.549	0.00037103	0.00054598	0.00025559	1313	6.1666e-06	4.2e-06	1369.7	310.17	1.0409e-05	5.0379e-06	340.99	91.609	77.743	18.998	4.013e-06	23.206	0.001045	0.0012327	0.00034587	1201	1.3437e-05	1.3438e-05	1250.4	284.74	1.2944e-05	1.351e-05	314.34	85.128	71.71	17.938	1.3112e-05	22.003	289.551	147.918	235.006	66.349	301.215	81.863	65.608	70.898	288.209	262.721	69.531	74.830	76.001	79.802	257.639	79.034	-8191	255	
7631.486	1	1	0	0	0.10899	0.045731	0.12059	0.01973	0.23934	0.20009	0.46137	0.25488	0.15784	0.19104	0.23382	0.28273	0.32498	0.11842	0.0057424	0.22114	-2.5542	-2.4771	-2.8312	-3.0208	-2.5083	-2.7875	-2.8458	-2.5062	-3.1229	-2.7229	-2.7771	-2.9542	-2.3625	-2.9813	-2.8646	-2.7667	188.990	317.896	343.874	249.027	149.341	351.714	279.018	322.017	377.517	130.181	313.473	382.483	69.873	118.011	214.273	279.897	0.00037509	0.00017564	7.6327e-05	1336.2	1.1e-05	4.1976e-06	1403.4	313.19	7.5666e-06	3.1971e-06	345.86	93.325	77.133	18.766	7.6421e-06	23.174	0.0010145	0.0011942	0.00033529	1219	1.238e-05	1.2482e-05	1273.5	287.34	1.1974e-05	1.2955e-05	318.49	85.301	71.467	17.764	1.2071e-05	21.849	281.941	192.246	157.112	66.639	208.289	257.036	65.527	71.075	283.422	128.810	69.514	74.959	76.437	81.271	339.501	78.838	-8191	255	
7631.582	1	1	0	0	0.24042	0.11874	0.099966	0.33899	0.31668	0.17269	0.2242	0.085748	0.28707	0.19122	0.070602	0.050718	0.26974	0.077292	0.10884	0.24907	-2.7146	-2.5083	-2.5875	-3.075	-2.6875	-2.7104	-2.8563	-2.7083	-2.9958	-2.8583	-2.5917	-3.1458	-2.5729	-2.8771	-2.7375	-2.3958	130.452	103.948	62.178	297.316	322.757	70.084	400.503	146.103	346.278	278.021	361.039	176.149	373.042	358.747	155.938	319.010	0.00039861	0.00093497	0.00014596	1358.4	8.5653e-06	2.1259e-06	1420.3	319.24	5.1254e-06	4.5618e-06	351.87	94.572	79.523	19.317	4.8565e-06	23.421	0.00093602	0.0011208	0.00031571	1238.5	1.1855e-05	1.223e-05	1294	291.92	1.2286e-05	1.3133e-05	323.82	86.861	73.301	18.314	1.2848e-05	22.198	287.331	169.065	147.074	66.566	236.345	92.094	65.814	71.045	251.486	249.661	69.753	75.095	75.903	80.905	211.197	78.552	-8191	255	
7631.678	1	1	0	0	0.040091	0.12451	0.075732	0.31389	0.19526	0.19894	0.031483	0.11611	0.072413	0.26417	0.28625	0.34804	0.034385	0.09146	0.06051	0.11763	-2.4854	-2.3729	-2.4917	-3.1917	-2.4	-2.7458	-2.8458	-2.5542	-2.925	-2.5938	-2.6042	-2.8417	-2.5167	-2.5833	-2.7271	-2.4688	219.174	369.638	282.394	357.342	89.966	188.585	349.389	377.685	237.432	272.014	326.884	386.437	333.312	400.151	202.601	125.958	0.00044102	0.00026968	7.0862e-05	1381.2	6.5218e-06	6.972e-06	1429.7	326.19	5.1958e-06	5.6114e-06	356.71	95.916	80.858	19.796	8.491e-06	23.507	0.0010381	0.0012577	0.0003464	1254.8	1.3391e-05	1.409e-05	1303	298.75	1.3887e-05	1.4175e-05	329.1	88.461	75.28	18.784	1.3799e-05	22.381	270.452	122.680	397.424	66.169	222.675	202.413	65.931	70.990	359.391	231.410	69.787	74.610	75.551	79.729	236.423	78.647	-8191	255	
7631.799	1	1	0	0	0.12699	0.10415	0.16081	0.12377	0.05681	0.052342	0.1442	0.30363	0.022692	0.35834	0.25272	0.20528	0.18821	0.12125	0.15299	0.19147	-2.2729	-2.7479	-2.2917	-3.1021	-2.5896	-2.8083	-2.9167	-2.4188	-2.7854	-2.7562	-2.5729	-2.7771	-2.525	-2.6583	-2.9354	-2.4646	382.419	346.063	269.812	196.577	385.378	128.836	340.246	374.799	191.419	385.809	360.096	287.880	344.543	383.892	246.906	371.229	0.00042065	0.0004203	0.00011145	1383.8	1.3285e-05	1.175e-05	1444	324.6	6.8386e-06	5.6534e-06	354.55	94.171	78.945	18.91	2.5011e-06	22.851	0.0010672	0.0013103	0.00036385	1265.4	1.3823e-05	1.3818e-05	1311.8	297.86	1.2747e-05	1.3078e-05	326.4	86.72	73.386	17.882	1.1857e-05	21.566	264.193	406.332	223.104	66.470	283.310	198.135	65.473	70.916	325.156	258.633	69.393	74.544	76.397	80.093	276.469	79.288	-8191	255	
7631.895	1	1	0	0	0.077541	0.077834	0.20959	0.15299	0.27957	0.2138	0.31859	0.40791	0.11488	0.08641	0.26694	0.085951	0.14666	0.33226	0.36386	0.22237	-2.25	-2.7229	-2.5104	-3.0542	-2.625	-2.5979	-3.1042	-2.5062	-2.7729	-2.8146	-2.4646	-2.9458	-2.5125	-2.6542	-2.9271	-2.5521	356.392	156.672	274.546	392.498	346.587	105.570	60.370	338.724	124.659	164.767	388.027	272.660	69.152	363.783	294.527	366.212	0.00034247	0.00010944	0.00019336	1412	1.1854e-05	3.4252e-06	1467.8	331.44	7.5465e-06	8.2644e-06	361.33	95.094	81.308	18.894	1.1852e-05	22.916	0.00092869	0.0010644	0.00030414	1284.3	1.1523e-05	1.2033e-05	1336.4	303.58	1.1249e-05	1.1062e-05	333.24	87.73	74.909	17.808	1.0982e-05	21.486	299.946	139.402	124.196	66.299	251.788	197.220	65.538	70.916	268.492	220.713	69.588	74.350	75.843	80.434	220.715	78.454	-8191	255	
7631.991	1	1	0	0	0.12731	0.36314	0.24597	0.080123	0.083801	0.13618	0.12358	0.097968	0.05885	0.14837	0.1548	0.17042	0.39242	0.14197	0.24287	0.24873	-2.5	-2.7958	-2.3833	-2.9688	-2.6875	-2.6854	-2.9437	-2.6229	-2.7146	-2.8417	-2.5958	-3.0104	-2.6604	-2.425	-2.9208	-2.5271	379.179	84.360	166.624	368.178	345.786	255.882	357.218	292.691	191.685	138.993	80.295	300.405	68.103	387.332	239.072	350.586	0.0004418	0.00039532	9.6402e-05	1467.8	9.4942e-06	3.6223e-06	1509.6	349.5	8.0791e-06	8.2705e-06	378.19	97.462	84.356	19.4	7.2189e-06	23.166	0.00087198	0.0010057	0.00029176	1336.7	1.1151e-05	1.1544e-05	1372.3	317.4	1.0853e-05	1.0942e-05	345.58	89.372	77.343	18.124	1.044e-05	21.522	279.852	111.905	114.178	66.087	258.816	200.966	65.533	70.803	271.027	193.769	69.364	74.493	75.979	80.777	220.304	78.786	-8191	255	
7632.087	1	1	0	0	0.17696	0.080773	0.17024	0.40799	0.1392	0.18129	0.26508	0.3266	0.24538	0.34839	0.20081	0.24405	0.18265	0.30433	0.097184	0.18199	-2.2188	-2.8	-2.4062	-2.775	-2.7854	-2.6063	-3.1375	-2.8125	-2.6771	-2.9313	-2.4688	-2.8729	-2.9271	-2.5375	-3.0229	-2.7542	135.665	232.528	100.419	326.694	193.649	194.972	73.229	286.209	291.431	244.679	384.312	142.971	330.633	371.560	395.889	127.068	0.00031261	0.000516	0.00014375	1526	6.4463e-06	8.411e-06	1561.4	362.87	5.7914e-06	4.7864e-06	393.74	100.06	87.023	19.57	5.5518e-06	23.11	0.00081982	0.00098898	0.00026518	1388.5	1.0315e-05	1.0595e-05	1423.2	331.17	1.0374e-05	1.0256e-05	358.72	91.834	80.048	18.365	9.8376e-06	21.671	285.660	189.335	89.969	66.312	259.340	269.981	65.562	70.564	295.431	141.455	68.714	74.831	75.565	80.244	278.465	78.241	-8191	255	
7632.182	1	1	0	0	0.18225	0.12112	0.20971	0.075879	0.15245	0.19867	0.239	0.11866	0.28106	0.31002	0.24482	0.22282	0.072161	0.10732	0.11075	0.10843	-2.0521	-3	-2.5354	-2.75	-2.8312	-2.3708	-3.0792	-2.7396	-2.6729	-3.0104	-2.5521	-2.7146	-3.0083	-2.3563	-2.9229	-2.5917	313.431	178.341	308.678	351.631	322.281	148.724	374.376	371.858	79.625	177.348	341.732	322.758	304.761	246.771	135.474	207.464	0.0003261	0.00026958	0.00014695	1575.3	2.1092e-06	4.2658e-06	1609.1	371.11	4.3663e-06	5.0175e-06	400.7	102.06	88.339	20.019	1.6349e-06	23.704	0.00077934	0.00090601	0.00025582	1434.5	9.8778e-06	9.9732e-06	1460.2	339.1	9.8162e-06	1.0111e-05	367.48	93.306	81.238	18.721	1.015e-05	22.073	282.717	101.974	103.716	65.874	230.019	245.715	64.899	70.368	285.597	182.755	69.349	74.650	75.644	79.923	151.630	78.200	-8191	255	
7632.280	1	1	0	0	0.055598	0.10504	0.14682	0.21442	0.09949	0.09486	0.29039	0.23716	0.32471	0.096403	0.088863	0.050807	0.068717	0.22342	0.10694	0.11496	-2.2062	-3.1271	-2.5354	-2.7438	-2.9333	-2.4479	-3.0604	-3.1104	-2.4104	-2.8563	-2.5667	-2.7458	-3.0062	-2.5354	-2.8896	-2.6833	275.846	84.695	190.585	410.721	274.018	233.681	374.360	62.000	362.493	263.317	397.255	85.245	114.910	355.901	206.550	136.424	0.00037349	0.00082913	5.4826e-05	1593.3	5.6848e-06	5.3143e-06	1634.8	376.11	7.5324e-06	6.5461e-06	405.22	103.44	90.318	20.319	8.4885e-07	23.668	0.00082982	0.00091005	0.00026325	1453.7	1.0454e-05	1.0453e-05	1483.1	344.42	1.0611e-05	1.1081e-05	370.92	94.898	82.917	18.959	1.0944e-05	22.198	298.414	165.045	171.088	66.016	209.665	227.823	65.450	71.036	187.550	154.080	69.097	74.349	75.914	79.894	306.474	77.830	-8191	255	
7632.399	1	1	0	0	0.075598	0.10733	0.10311	0.21942	0.20224	0.1871	0.045731	0.25969	0.15545	0.027616	0.28654	0.0056741	0.1793	0.20794	0.073079	0.12731	-2.1979	-3.1021	-2.6063	-2.8521	-2.8688	-2.4688	-2.9	-2.8479	-2.4104	-3.0375	-2.7792	-2.7375	-3.0021	-2.5208	-2.775	-2.9771	126.064	320.915	140.064	324.286	98.058	71.562	340.759	360.810	318.308	342.044	106.615	253.994	82.509	171.564	65.710	409.102	0.00050477	0.00059341	0.00022236	1592.7	5.3608e-06	2.8925e-06	1629.1	378.09	1.2721e-05	4.3929e-06	404.35	102.56	89.583	20.505	5.5205e-06	24.09	0.00085789	0.0010272	0.00028425	1455.5	1.1215e-05	1.1805e-05	1474.1	345.01	1.1233e-05	1.1849e-05	369.62	94.636	82.609	19.212	1.2028e-05	22.432	290.389	201.670	187.564	66.101	268.741	188.368	65.428	70.758	234.554	217.118	69.519	74.488	75.069	80.123	279.730	78.307	-8191	255	
7632.495	1	1	0	0	0.16802	0.14685	0.11215	0.60499	0.050903	0.070219	0.15507	0.22264	0.054826	0.1303	0.26979	0.12385	0.273	0.18719	0.16039	0.32663	-2.05	-2.7396	-2.7042	-2.7333	-2.8042	-2.6729	-2.9333	-2.9875	-2.3542	-2.9062	-2.7042	-2.5062	-2.8625	-2.3688	-2.6604	-2.9375	223.467	151.923	141.355	354.360	126.937	98.398	330.981	340.855	410.729	85.878	121.838	274.831	237.833	340.026	277.066	373.709	0.00040446	0.00073584	0.00020884	1583.1	8.735e-06	4.5073e-06	1603.4	372.56	5.9613e-06	2.8359e-06	399.59	103.1	89.68	20.204	3.8241e-06	23.675	0.00095146	0.0011294	0.00031144	1437.2	1.1552e-05	1.2538e-05	1456.9	340.19	1.1315e-05	1.195e-05	365.73	94.383	82.207	19.101	1.1987e-05	22.37	291.293	101.330	155.864	66.003	208.192	223.997	65.439	70.727	211.724	294.858	69.260	74.459	75.899	79.520	228.805	77.575	-8191	255	
7632.591	1	1	0	0	0.11061	0.065515	0.29581	0.15603	0.13858	0.15461	0.10316	0.059771	0.10506	0.14663	0.17682	0.079105	0.063268	0.051377	0.27695	0.24496	-2.0604	-2.8563	-2.7708	-2.5229	-2.9542	-2.6833	-2.9458	-2.9625	-2.6042	-2.9521	-2.9646	-2.5083	-2.9125	-2.7188	-2.4208	-2.8729	390.396	310.091	347.047	67.099	85.482	165.976	337.524	374.101	271.795	127.010	298.449	183.817	369.019	130.860	141.738	279.467	0.00039237	0.0003976	0.00016853	1562.8	6.4052e-06	4.7611e-06	1592.9	369.14	3.1427e-06	7.8129e-06	391.91	101.49	88.035	20.319	1.0083e-05	23.698	0.0009353	0.0011025	0.00030457	1421.5	1.1747e-05	1.226e-05	1444.1	337.55	1.1844e-05	1.2258e-05	361.73	93.577	81.389	19.102	1.1712e-05	22.343	286.684	117.558	209.170	66.280	273.173	165.237	65.387	70.672	323.932	229.723	69.062	74.432	75.371	79.982	231.663	78.045	-8191	255	
7632.687	1	1	0	0	0.27539	0.19379	0.16159	0.20084	0.20757	0.18157	0.3672	0.026428	0.33311	0.18182	0.17081	0.36024	0.033685	0.23687	0.27621	0.14632	-1.9958	-2.7812	-2.8167	-2.7917	-2.8833	-2.5167	-2.9104	-3.1271	-2.425	-2.8833	-3.0292	-2.5646	-2.9104	-2.7542	-2.4625	-3.2292	256.680	251.460	334.905	303.227	103.160	412.366	308.158	266.727	279.498	57.335	312.479	388.280	288.619	369.293	135.109	88.444	0.00042539	0.00044806	0.00012036	1552.6	1.9925e-05	8.2207e-06	1588.3	365.74	5.4473e-06	6.1699e-06	392.61	102.91	87.782	20.391	8.1926e-06	23.935	0.00095855	0.001096	0.00030699	1414.5	1.201e-05	1.2206e-05	1442.3	334.81	1.2067e-05	1.2294e-05	360.05	94.486	81.619	19.254	1.2219e-05	22.614	274.771	155.334	55.211	66.422	226.361	195.164	65.092	70.750	272.965	257.569	69.320	74.505	75.765	79.559	224.754	77.963	-8191	255	
7632.783	1	1	0	0	0.1633	0.098026	0.33444	0.40275	0.17675	0.050399	0.047154	0.046853	0.24549	0.29397	0.12533	0.2063	0.1489	0.16308	0.10917	0.21803	-2.1375	-2.7292	-2.8771	-2.6896	-2.8604	-2.7229	-2.9146	-3.2292	-2.5896	-2.7083	-2.8833	-2.4688	-2.9104	-2.9479	-2.4062	-2.9875	238.630	346.955	54.947	369.150	143.428	226.333	172.634	387.648	354.867	290.295	107.999	381.179	281.901	286.570	182.348	392.503	0.00042115	0.00035422	0.00019119	1545.6	8.2492e-06	3.5479e-06	1575.7	366.07	9.8967e-06	9.1906e-06	391.02	102.12	88.327	20.72	3.8932e-06	24.135	0.00095484	0.00115	0.00032407	1408.5	1.2255e-05	1.2444e-05	1437.3	334.54	1.2237e-05	1.2791e-05	360.43	94.143	81.631	19.368	1.2438e-05	22.682	300.151	167.475	120.692	66.313	310.371	181.101	65.657	70.810	270.454	213.532	68.914	74.333	75.735	79.844	359.732	77.996	-8191	255	
7632.879	1	1	0	0	0.25299	0.15055	0.3216	0.3009	0.20688	0.21341	0.067811	0.15473	0.10784	0.18097	0.17427	0.208	0.36439	0.084892	0.2051	0.19145	-2.2	-2.675	-2.8958	-2.7375	-2.8042	-2.8771	-2.5417	-2.9854	-2.6	-2.6958	-2.9188	-2.5187	-2.7812	-2.9083	-2.3646	-2.8771	223.951	378.514	352.930	339.814	280.151	275.963	260.537	361.328	239.156	197.908	399.293	332.319	244.060	131.703	243.911	343.958	0.00038947	0.00057945	8.9396e-05	1549	1.2551e-05	6.0934e-06	1571.4	363.87	1.0649e-05	9.178e-06	388.53	101.82	88.067	20.498	2.5417e-06	23.942	0.00097404	0.0011503	0.00032044	1406.5	1.239e-05	1.2623e-05	1431.9	332.68	1.2183e-05	1.2623e-05	357.23	93.544	81.099	19.19	1.201e-05	22.505	299.446	166.482	395.647	66.232	205.682	186.085	65.199	70.696	277.288	194.876	69.723	74.500	75.713	79.800	359.458	78.506	-8191	255	
7632.976	1	1	0	0	0.034586	0.040181	0.11033	0.20414	0.11476	0.0852	0.25316	0.25155	0.22358	0.1978	0.089954	0.23321	0.13478	0.23159	0.057945	0.067558	-2.3208	-2.3937	-2.9813	-2.7938	-2.7729	-3.125	-2.6208	-2.9417	-2.8646	-2.5271	-3.0479	-2.7646	-2.5708	-3.0083	-2.5854	-2.9417	360.144	366.742	217.513	371.859	323.900	307.095	337.772	375.565	256.732	403.223	327.975	53.292	359.186	285.975	292.075	316.908	0.00030766	0.00032292	0.00011664	1538.7	5.6691e-06	4.2786e-06	1576	361.62	4.7775e-06	4.3079e-06	387.3	101.94	86.764	20.365	5.362e-06	24.262	0.00095607	0.0011022	0.00030454	1398.8	1.1785e-05	1.2197e-05	1432.8	329.99	1.1702e-05	1.212e-05	356.22	93.187	80.138	19.059	1.162e-05	22.647	289.325	170.221	161.767	66.230	112.896	144.633	65.478	70.481	285.886	277.732	69.029	74.813	75.789	80.069	237.109	78.673	-8191	255	
7633.072	1	1	0	0	0.26785	0.031956	0.062733	0.41152	0.30461	0.21732	0.30649	0.18821	0.17973	0.057419	0.10843	0.19518	0.1547	0.15345	0.25455	0.36032	-2.3604	-2.3625	-2.8896	-2.7313	-2.7583	-2.9792	-2.7125	-2.9979	-2.7313	-2.5917	-2.9688	-2.6875	-2.7729	-3.1146	-2.4542	-2.6646	149.308	327.008	386.515	359.096	303.353	151.098	350.292	402.663	177.067	167.617	144.620	328.772	343.969	73.232	53.382	327.937	0.00041505	0.00070733	0.00016698	1523.9	8.9145e-06	7.8854e-07	1582.3	361.68	1.5808e-05	6.1723e-06	388.87	101.78	88.026	20.804	1.0938e-05	24.278	0.00092989	0.001066	0.00030191	1393.7	1.1837e-05	1.1896e-05	1432.9	329.62	1.1845e-05	1.2371e-05	356.31	93.612	80.979	19.369	1.2345e-05	22.75	267.390	155.030	160.281	66.217	224.490	96.275	65.096	70.668	269.677	234.655	69.319	74.541	75.719	79.966	174.013	78.244	-8191	255	
7633.191	1	1	0	0	0.044603	0.078756	0.12753	0.20367	0.15297	0.19483	0.18278	0.25624	0.091714	0.13829	0.11737	0.18282	0.35881	0.094741	0.094846	0.063588	-2.3458	-2.4229	-3.2125	-2.725	-2.7062	-3.15	-2.7792	-2.7521	-2.9062	-2.4125	-3.0729	-2.8375	-2.6146	-3.0167	-2.5146	-2.7583	343.604	297.150	394.293	379.174	85.125	103.699	354.585	341.743	233.337	79.575	77.870	397.352	347.229	377.944	405.759	130.109	0.00045499	4.648e-05	0.00029222	1534.2	1.4333e-05	6.0045e-06	1572.9	359.97	4.2939e-06	3.7392e-07	388.9	101.42	87.426	20.354	8.68e-06	24.06	0.00095628	0.0011274	0.00031694	1398.2	1.2269e-05	1.2517e-05	1428	329.99	1.1905e-05	1.2563e-05	356.42	92.976	80.306	19.05	1.178e-05	22.535	287.780	214.289	139.959	66.274	211.130	223.017	65.327	70.683	271.060	366.708	69.174	74.669	75.380	79.417	221.693	77.995	-8191	255	
7633.287	1	1	0	0	0.093951	0.13634	0.23291	0.19311	0.11105	0.14399	0.15593	0.19013	0.036406	0.021538	0.15957	0.16942	0.36453	0.070068	0.059281	0.14168	-2.3271	-2.2708	-2.9208	-2.8063	-2.4938	-3.1792	-2.6833	-2.8604	-2.9167	-2.6104	-2.9771	-2.8896	-2.5687	-3.0458	-2.6271	-2.5792	215.705	181.369	238.835	377.846	203.393	174.538	54.097	380.498	380.372	107.568	319.728	96.674	73.783	112.006	192.328	156.067	0.00037406	0.00073141	0.00031248	1518.8	1.3022e-05	8.2796e-06	1555.3	356.32	7.3303e-06	9.2984e-06	383.08	101.19	86.02	20.177	4.896e-06	23.936	0.00093058	0.0010712	0.00030285	1387.2	1.2107e-05	1.17e-05	1419.1	327.75	1.1607e-05	1.2091e-05	352.43	92.816	79.485	18.977	1.1885e-05	22.454	288.921	93.386	171.346	66.229	187.221	170.543	65.298	70.812	217.333	226.904	69.155	74.301	75.639	80.096	102.839	78.389	-8191	255	
7633.360	1	1	0	0	0.19149	0.1272	0.22682	0.27049	0.22166	0.13709	0.11962	0.25837	0.27314	0.1781	0.14516	0.16896	0.25368	0.34639	0.21377	0.10671	-2.5646	-2.4792	-2.7667	-2.8396	-2.6146	-2.8229	-2.8	-2.6042	-2.8	-2.6063	-2.9167	-2.8563	-2.5938	-2.9792	-2.5438	-2.6437	142.530	237.652	386.960	58.153	400.806	180.748	326.679	301.180	167.405	411.987	346.098	321.913	299.641	94.169	54.981	184.837	0.00036152	0.00058659	0.00022517	1521.4	5.43e-06	1.1408e-05	1548.1	357.38	9.2112e-06	1.4814e-05	383.91	100.86	85.769	20.227	8.0514e-06	23.911	0.00094228	0.0010923	0.00029941	1383	1.1983e-05	1.2519e-05	1413.1	326.2	1.1828e-05	1.2471e-05	352.32	92.386	79.264	19.078	1.206e-05	22.613	297.603	175.058	143.525	66.268	201.806	231.511	65.281	70.651	246.715	195.687	69.169	74.737	75.704	79.968	243.476	78.839	-8191	255	
7633.479	1	1	0	0	0.19608	0.070588	0.15672	0.10231	0.20454	0.073654	0.39206	0.27205	0.057553	0.15377	0.20027	0.25728	0.32471	0.24497	0.2278	0.087227	-2.3604	-2.2875	-2.6458	-3.0438	-2.3083	-2.7979	-2.8083	-2.5854	-3.0812	-2.6646	-2.7708	-2.7958	-2.3333	-2.9583	-2.6104	-2.5417	99.600	162.928	276.477	83.480	73.870	96.790	343.958	355.128	303.557	345.181	372.235	376.915	253.136	131.926	375.966	332.853	0.0003299	0.00050254	0.0002886	1509.9	6.6245e-06	5.3034e-06	1542.6	355.46	1.6873e-05	2.8582e-06	378.61	99.934	85.067	19.958	8.4658e-06	23.877	0.00097221	0.0011551	0.00032266	1374.6	1.2274e-05	1.2668e-05	1408.1	324.51	1.1863e-05	1.2111e-05	347.87	91.59	78.476	18.742	1.1715e-05	22.407	295.174	114.501	211.442	66.488	235.696	169.843	65.165	70.590	291.479	192.688	69.311	74.542	75.405	79.846	255.159	78.754	-8191	255	
7633.575	1	1	0	0	0.18858	0.010185	0.21013	0.19256	0.14099	0.23946	0.17758	0.12306	0.16421	0.13704	0.21297	0.30499	0.22633	0.26386	0.068128	0.31126	-2.5771	-2.7875	-2.7229	-2.9625	-2.4938	-2.8542	-2.8167	-2.5125	-3.0583	-2.6521	-2.7021	-3.0542	-2.5938	-2.775	-2.9521	-2.5917	154.109	345.464	166.756	389.446	374.431	384.382	354.998	72.535	364.559	318.452	114.098	307.839	343.560	309.606	133.726	384.799	0.00041477	0.00063764	0.00019863	1500.6	8.8406e-06	4.9326e-06	1542.9	349.04	7.4631e-06	5.3042e-06	379.19	98.496	83.97	19.819	3.7929e-06	23.604	0.00090404	0.0010739	0.000293	1365.6	1.1439e-05	1.1584e-05	1400.6	320.52	1.0968e-05	1.1728e-05	347.14	90.301	78.029	18.58	1.1731e-05	22.161	278.585	135.571	152.776	66.207	166.387	237.623	65.517	71.118	211.644	270.150	69.166	74.500	76.046	80.193	191.157	78.456	-8191	255	
7633.671	1	1	0	0	0.13987	0.13929	0.127	0.0051427	0.33823	0.43845	0.14813	0.35175	0.1638	0.22959	0.11975	0.12685	0.3391	0.27413	0.011754	0.036448	-2.4833	-2.7708	-2.4646	-2.9708	-2.4458	-2.7604	-3.1479	-2.6188	-2.8563	-2.7625	-2.7875	-2.9417	-2.5167	-2.7417	-2.7042	-2.4188	249.533	390.744	201.783	96.199	410.278	63.574	315.555	408.195	116.019	121.961	79.933	378.359	130.827	144.263	337.072	325.474	0.00047751	0.00011454	0.00014176	1499.3	1.3658e-05	5.9167e-06	1539.3	350.77	7.067e-06	5.76e-06	374.52	98.447	84.741	19.735	9.8641e-06	23.72	0.00088846	0.0010863	0.0002987	1362.3	1.1647e-05	1.2108e-05	1394.3	319.7	1.1882e-05	1.205e-05	345.71	90.14	77.998	18.638	1.2023e-05	22.189	287.932	334.505	99.719	66.262	203.568	241.652	65.312	71.001	317.254	270.940	69.421	74.517	76.031	79.939	255.268	79.002	-8191	255	
7633.767	1	1	0	0	0.097491	0.13501	0.10379	0.12296	0.12305	0.20396	0.086439	0.398	0.15357	0.072793	0.15243	0.13868	0.15745	0.090717	0.21837	0.214	-2.3063	-2.6188	-2.4021	-3.1188	-2.5354	-2.8396	-3.1354	-2.575	-2.8208	-2.6271	-2.6063	-2.8917	-2.6792	-2.7062	-2.9583	-2.45	279.950	206.119	190.171	379.563	132.625	208.015	334.384	356.458	183.625	279.296	371.965	79.629	223.201	270.558	408.612	382.004	0.0004996	0.00082663	0.0001628	1486.1	3.7959e-06	4.412e-06	1532.9	346.77	6.024e-06	7.168e-06	372.54	97.633	83.121	19.783	3.7555e-06	23.677	0.00093725	0.0011061	0.00031061	1351.9	1.1561e-05	1.2038e-05	1388.6	317.07	1.1204e-05	1.1638e-05	342.75	89.404	76.726	18.435	1.0772e-05	22.018	282.518	155.511	235.910	66.287	202.142	250.024	65.422	70.819	198.133	207.842	69.253	74.792	76.103	80.375	216.043	78.608	-8191	255	
#DATA ENDS
