BOXY.EXE: ISS Imagent and Oximeter Data Acquisition Program Version 0.80
Ascii Record File

#ACQ INFORMATION
2  Detector Channels 
16  External MUX Channels 
1  Auxiliary Channels 
5000  Waveform (CCF) Frequency (Hz)
1  Waveforms Skipped 
30  Waveforms Averaged 
1  Cycles Averaged 
16  Acquisitions per Waveform 
10.0806  Updata Rate (Hz) 

#FILE INFORMATION
TRUE -- External MUX Channel results are PARSED.
FALSE -- AC DC and Phase are NOT grouped.
TRUE -- Companion Program Settings File CREATED.
FALSE -- AC data not excluded
FALSE -- DC data not excluded
FALSE -- Phase data not excluded
FALSE -- Auxillary Chn. data not excluded
Tab delimiters

#CALIBRATION STATE
TRUE -- Waveform Calibration Values APPLIED.


#AUX CALIBRATION VALUES
Val Type	aux-1	

Term	1.0000e+00	
Factor	0.0000e+00	


#WF CALIBRATION VALUES
A = Detector Channel
Val Type	A-AC1	A-AC2	A-AC3	A-AC4	A-AC5	A-AC6	A-AC7	A-AC8	A-AC9	A-AC10	A-AC11	A-AC12	A-AC13	A-AC14	A-AC15	A-AC16	A-DC1	A-DC2	A-DC3	A-DC4	A-DC5	A-DC6	A-DC7	A-DC8	A-DC9	A-DC10	A-DC11	A-DC12	A-DC13	A-DC14	A-DC15	A-DC16	A-Ph1	A-Ph2	A-Ph3	A-Ph4	A-Ph5	A-Ph6	A-Ph7	A-Ph8	A-Ph9	A-Ph10	A-Ph11	A-Ph12	A-Ph13	A-Ph14	A-Ph15	A-Ph16	

Term	0.00000e+00	0.00000e+00	0.00000e+00	0.00000e+00	0.00000e+00	0.00000e+00	0.00000e+00	0.00000e+00	0.00000e+00	0.00000e+00	0.00000e+00	0.00000e+00	0.00000e+00	0.00000e+00	0.00000e+00	0.00000e+00	0.00000e+00	0.00000e+00	0.00000e+00	0.00000e+00	0.00000e+00	0.00000e+00	0.00000e+00	0.00000e+00	0.00000e+00	0.00000e+00	0.00000e+00	0.00000e+00	0.00000e+00	0.00000e+00	0.00000e+00	0.00000e+00	0.00000e+00	0.00000e+00	0.00000e+00	0.00000e+00	0.00000e+00	0.00000e+00	0.00000e+00	0.00000e+00	0.00000e+00	0.00000e+00	0.00000e+00	0.00000e+00	0.00000e+00	0.00000e+00	0.00000e+00	0.00000e+00	
Factor	1.00000e+00	1.00000e+00	1.00000e+00	1.00000e+00	1.00000e+00	1.00000e+00	1.00000e+00	1.00000e+00	1.00000e+00	1.00000e+00	1.00000e+00	1.00000e+00	1.00000e+00	1.00000e+00	1.00000e+00	1.00000e+00	1.00000e+00	1.00000e+00	1.00000e+00	1.00000e+00	1.00000e+00	1.00000e+00	1.00000e+00	1.00000e+00	1.00000e+00	1.00000e+00	1.00000e+00	1.00000e+00	1.00000e+00	1.00000e+00	1.00000e+00	1.00000e+00	X	X	X	X	X	X	X	X	X	X	X	X	X	X	X	X	

B = Detector Channel
Val Type	B-AC1	B-AC2	B-AC3	B-AC4	B-AC5	B-AC6	B-AC7	B-AC8	B-AC9	B-AC10	B-AC11	B-AC12	B-AC13	B-AC14	B-AC15	B-AC16	B-DC1	B-DC2	B-DC3	B-DC4	B-DC5	B-DC6	B-DC7	B-DC8	B-DC9	B-DC10	B-DC11	B-DC12	B-DC13	B-DC14	B-DC15	B-DC16	B-Ph1	B-Ph2	B-Ph3	B-Ph4	B-Ph5	B-Ph6	B-Ph7	B-Ph8	B-Ph9	B-Ph10	B-Ph11	B-Ph12	B-Ph13	B-Ph14	B-Ph15	B-Ph16	

Term	0.00000e+00	0.00000e+00	0.00000e+00	0.00000e+00	0.00000e+00	0.00000e+00	0.00000e+00	0.00000e+00	0.00000e+00	0.00000e+00	0.00000e+00	0.00000e+00	0.00000e+00	0.00000e+00	0.00000e+00	0.00000e+00	0.00000e+00	0.00000e+00	0.00000e+00	0.00000e+00	0.00000e+00	0.00000e+00	0.00000e+00	0.00000e+00	0.00000e+00	0.00000e+00	0.00000e+00	0.00000e+00	0.00000e+00	0.00000e+00	0.00000e+00	0.00000e+00	6.26660e+01	-1.60708e+02	-1.38034e+02	-1.81640e+02	-8.09839e+01	-1.13405e+02	-1.57973e+02	-1.62015e+02	-1.03025e+02	-8.37485e+01	-1.80409e+02	-1.70637e+02	-1.81506e+02	-1.76090e+02	-1.06331e+02	-1.49360e+02	
Factor	4.46417e-05	7.40306e-05	1.66068e-05	1.80300e-01	6.95920e-07	6.52801e-07	1.65304e-01	5.16653e-02	1.08927e-06	6.59530e-07	1.02996e-01	2.98071e-02	2.44284e-02	9.16901e-03	8.66652e-07	1.32262e-02	3.52392e-07	3.56068e-07	9.93150e-08	8.43590e-02	3.89487e-09	3.90538e-09	7.38614e-02	2.41382e-02	3.89876e-09	3.90770e-09	4.36374e-02	1.29438e-02	1.10597e-02	4.10157e-03	3.91558e-09	5.63340e-03	X	X	X	X	X	X	X	X	X	X	X	X	X	X	X	X	



#DISTANCE SETTINGS
A = Detector Channel
A-1	A-2	A-3	A-4	A-5	A-6	A-7	A-8	A-9	A-10	A-11	A-12	A-13	A-14	A-15	A-16	

2.5000e+00	3.0000e+00	2.5000e+00	3.0000e+00	2.0000e+00	3.0000e+00	1.5000e+00	3.0000e+00	3.0000e+00	3.0000e+00	3.0000e+00	3.0000e+00	3.0000e+00	3.0000e+00	1.5000e+00	3.0000e+00	

B = Detector Channel
B-1	B-2	B-3	B-4	B-5	B-6	B-7	B-8	B-9	B-10	B-11	B-12	B-13	B-14	B-15	B-16	

1.0000e+01	1.0000e+01	1.0000e+01	1.4400e+00	1.0000e+01	1.0000e+01	1.5100e+00	1.9400e+00	1.0000e+01	1.0000e+01	1.9900e+00	2.4900e+00	2.4100e+00	2.9000e+00	1.0000e+01	2.9800e+00	




#DATA BEGINS
time	group	step	mark	flag	A-AC1	A-AC2	A-AC3	A-AC4	A-AC5	A-AC6	A-AC7	A-AC8	A-AC9	A-AC10	A-AC11	A-AC12	A-AC13	A-AC14	A-AC15	A-AC16	A-DC1	A-DC2	A-DC3	A-DC4	A-DC5	A-DC6	A-DC7	A-DC8	A-DC9	A-DC10	A-DC11	A-DC12	A-DC13	A-DC14	A-DC15	A-DC16	A-Ph1	A-Ph2	A-Ph3	A-Ph4	A-Ph5	A-Ph6	A-Ph7	A-Ph8	A-Ph9	A-Ph10	A-Ph11	A-Ph12	A-Ph13	A-Ph14	A-Ph15	A-Ph16	B-AC1	B-AC2	B-AC3	B-AC4	B-AC5	B-AC6	B-AC7	B-AC8	B-AC9	B-AC10	B-AC11	B-AC12	B-AC13	B-AC14	B-AC15	B-AC16	B-DC1	B-DC2	B-DC3	B-DC4	B-DC5	B-DC6	B-DC7	B-DC8	B-DC9	B-DC10	B-DC11	B-DC12	B-DC13	B-DC14	B-DC15	B-DC16	B-Ph1	B-Ph2	B-Ph3	B-Ph4	B-Ph5	B-Ph6	B-Ph7	B-Ph8	B-Ph9	B-Ph10	B-Ph11	B-Ph12	B-Ph13	B-Ph14	B-Ph15	B-Ph16	aux-1	digaux	

8467.364	1	1	0	512	0.23153	0.061151	0.071172	0.23762	0.22834	0.083258	0.030932	0.16483	0.13553	0.10054	0.22633	0.15291	0.13757	0.17026	0.080454	0.054612	-2.2562	-2.9313	-2.7458	-3.0979	-2.7646	-2.7938	-3.0375	-2.5458	-2.9625	-3.3292	-2.6188	-2.8604	-3.0229	-2.5854	-2.7875	-2.8708	284.147	87.739	405.824	327.144	86.035	325.338	321.241	351.658	91.720	273.047	376.661	418.630	275.111	252.190	148.957	315.572	0.00050792	0.0011479	0.00015118	152.04	1.4419e-05	8.0835e-06	168.2	54.634	3.0815e-05	1.1475e-05	76.504	38.122	23.887	10.121	2.3606e-05	18.438	0.0030484	0.0028512	0.00074098	845.25	3.3327e-05	3.0581e-05	706.88	251.52	3.2146e-05	2.976e-05	384.94	141.27	113.55	40.651	2.8233e-05	63.83	313.331	319.803	260.866	90.584	374.138	353.554	91.328	97.471	407.235	434.263	94.370	99.842	101.006	104.949	156.073	101.976	-8191	255	
8467.460	1	1	0	0	0.029688	0.25225	0.090737	0.17468	0.34355	0.11498	0.18967	0.18145	0.038841	0.27074	0.15159	0.14641	0.1799	0.10833	0.090179	0.15777	-2.2292	-3.0792	-2.5438	-2.825	-3.0083	-2.4562	-3.0604	-2.8625	-2.7854	-2.7938	-2.6729	-2.9521	-2.9375	-2.6083	-3.0417	-2.9646	412.918	295.902	161.513	141.443	247.843	218.590	325.589	414.183	385.250	171.263	305.588	127.604	343.648	162.448	160.249	353.033	0.0010621	0.0022909	0.00041154	149.28	1.5363e-05	2.0142e-05	171.81	52.96	1.3448e-05	8.4709e-06	80.146	37.072	23.694	10.092	3.8575e-05	18.138	0.0028318	0.0026748	0.00072604	852.68	3.1488e-05	2.9514e-05	718.03	258.81	3.1472e-05	2.9397e-05	405.12	146.72	112.23	40.611	3.0403e-05	66.098	111.210	282.807	167.079	90.720	416.686	353.235	91.261	96.709	289.869	369.940	94.313	98.739	100.173	105.278	187.645	102.181	-8191	255	
8467.556	1	1	0	0	0.32615	0.19062	0.24385	0.09015	0.29215	0.05861	0.16507	0.1902	0.083721	0.04801	0.10842	0.23673	0.19888	0.060881	0.24463	0.15702	-2.2375	-2.9792	-2.5187	-2.9083	-3.0667	-2.6792	-3.0917	-2.8	-2.5875	-3.2917	-2.7521	-2.6771	-2.9688	-2.3708	-2.9229	-2.9188	282.198	136.462	241.194	354.226	145.335	313.591	156.292	363.229	239.938	198.480	374.080	261.941	84.909	300.130	256.103	84.687	3.1211e-05	0.0016529	0.0006072	144.64	1.5028e-05	1.263e-05	172.72	51.791	1.501e-05	1.8016e-05	80.806	36.928	24.498	10.307	4.022e-05	17.954	0.0028404	0.0026931	0.0007959	884.39	3.168e-05	2.9763e-05	774.18	267.46	3.2162e-05	3.0123e-05	444.43	151.52	115.17	41.583	3.387e-05	67.611	410.322	365.915	131.705	90.661	365.162	342.957	92.634	94.641	353.065	349.874	95.363	98.747	100.500	104.737	151.538	100.670	-8191	255	
8467.677	1	1	0	0	0.24872	0.20825	0.072962	0.24862	0.10144	0.1611	0.14655	0.14723	0.10306	0.31192	0.086221	0.11712	0.32881	0.23639	0.12675	0.05159	-2.0333	-2.7958	-2.7729	-2.75	-2.9938	-2.3646	-2.9396	-2.9833	-2.4646	-3.0938	-2.9437	-2.7417	-2.8729	-2.6125	-2.8729	-2.9	305.497	172.760	346.474	393.342	291.111	205.925	118.912	275.280	295.945	251.807	415.397	405.475	303.378	335.578	360.979	348.709	0.0008629	0.0017673	0.00056986	144.77	1.6887e-05	1.3435e-05	170.8	50.72	1.2842e-05	8.179e-06	79.571	36.409	23.975	10.581	2.2889e-05	17.966	0.0028979	0.0027415	0.00086744	879.12	3.1374e-05	2.9639e-05	802.64	257.54	3.0816e-05	2.9424e-05	451.94	144.85	110.73	41.627	3.4686e-05	65.323	117.399	213.865	169.088	89.608	420.343	189.782	91.412	95.571	367.747	192.414	95.380	98.390	101.299	105.842	155.128	102.224	-8191	255	
8467.773	1	1	0	0	0.037896	0.14478	0.21029	0.0075655	0.23597	0.40169	0.183	0.21544	0.089562	0.18735	0.057646	0.24556	0.23867	0.35999	0.2361	0.12304	-1.8958	-3.025	-2.5917	-2.4208	-3.1729	-2.725	-2.7979	-2.9313	-2.3854	-3.0333	-2.8396	-2.6958	-2.9854	-2.6063	-2.7479	-2.9813	162.992	302.368	145.287	184.868	190.358	322.669	237.388	112.365	410.859	213.702	131.780	234.142	200.410	231.206	369.202	335.666	0.00081274	0.0020586	0.0002014	140.62	2.2405e-05	2.9056e-05	167.93	51.415	2.5814e-05	2.329e-05	76.182	36.663	23.89	10.76	1.6501e-05	17.845	0.0028057	0.0027966	0.00089697	858.79	3.0746e-05	3.1213e-05	830.34	253.29	3.0236e-05	3.0971e-05	458.95	140.84	107.09	42.756	3.4267e-05	62.82	208.411	113.932	143.344	90.256	362.789	166.506	90.111	96.042	344.398	224.967	94.090	99.001	101.047	105.390	369.045	101.499	-8191	255	
8467.845	1	1	0	0	0.13808	0.10552	0.24056	0.02514	0.074729	0.12372	0.058584	0.20571	0.078677	0.099614	0.16119	0.13947	0.25774	0.15388	0.065764	0.10944	-1.9604	-3.05	-2.8417	-2.4979	-3.1188	-2.4979	-2.7708	-3.1521	-2.4771	-2.8104	-2.7875	-2.5125	-3.2292	-2.8604	-2.8021	-3.0687	296.180	364.482	378.672	295.209	383.504	348.525	129.283	126.696	233.509	206.179	357.007	383.769	427.540	206.838	414.466	149.281	0.00050599	0.0033827	0.00010385	144.89	7.7098e-06	1.5867e-05	164.9	51.322	8.9246e-06	2.1959e-05	72.295	36.079	24.148	10.517	1.5267e-05	18.181	0.0026806	0.0029273	0.00089386	842.93	3.0193e-05	3.3486e-05	829.31	251.5	3.0181e-05	3.3592e-05	458.88	140.86	107.55	45.555	3.4228e-05	62.659	413.862	126.202	436.474	90.550	372.589	165.617	90.431	96.427	213.863	202.224	93.380	99.017	100.900	105.614	384.698	101.696	-8191	255	
8467.941	1	1	0	0	0.057691	0.061714	0.13637	0.16698	0.095094	0.14568	0.20309	0.21849	0.16986	0.077854	0.13732	0.12205	0.22346	0.15836	0.39088	0.081891	-2.0312	-3.0167	-2.7542	-2.5229	-3.2396	-2.6562	-2.6542	-2.8896	-2.8	-3.0229	-2.8771	-2.3354	-2.9667	-2.8042	-2.8063	-3.2083	113.648	393.241	314.995	420.382	141.586	118.866	365.820	264.604	82.991	171.243	247.806	248.144	336.756	159.468	129.347	435.128	0.00069937	0.0027729	0.00055764	141.1	1.8411e-05	2.6441e-05	162.61	50.227	2.9542e-05	1.24e-05	72.545	36.075	24.763	10.214	2.8515e-05	17.828	0.002725	0.0031337	0.00087226	827.77	3.0132e-05	3.4841e-05	804.04	245.09	3.0696e-05	3.5323e-05	449.96	139.42	111.15	47.493	3.383e-05	62.498	365.339	118.071	336.134	90.823	212.806	172.948	88.723	96.552	155.015	202.421	95.089	98.328	100.072	105.044	357.403	101.281	-8191	255	
8468.061	1	1	0	0	0.23555	0.11878	0.14551	0.15205	0.13195	0.2558	0.067624	0.27207	0.24659	0.31618	0.023546	0.22868	0.3165	0.049674	0.13477	0.10072	-2.3	-3.025	-2.9896	-2.6437	-3.1021	-2.8708	-2.7854	-3.0375	-2.6833	-2.9562	-3.2	-2.6583	-2.8563	-2.6646	-2.6271	-3.1375	243.125	281.921	285.595	428.174	438.384	435.643	393.152	85.960	371.274	345.465	336.521	416.789	170.007	352.614	368.034	396.151	0.00249	0.0006694	0.00046707	143.81	2.009e-05	8.9645e-06	164.38	50.897	5.6433e-05	1.307e-05	74.234	36.241	25.336	10.153	1.8805e-05	17.926	0.0028821	0.0032768	0.00085816	820.02	3.2019e-05	3.6154e-05	792.38	241.89	3.2622e-05	3.5654e-05	438	136.35	115.87	47.074	3.2501e-05	60.453	368.075	306.298	335.014	90.103	197.156	345.000	90.639	96.443	175.874	429.563	95.545	99.080	101.442	105.249	369.925	101.572	-8191	255	
8468.157	1	1	0	0	0.27716	0.054692	0.30241	0.076877	0.3009	0.034712	0.15202	0.12074	0.19078	0.1404	0.12566	0.24483	0.097835	0.18445	0.15011	0.18706	-2.1083	-2.6771	-2.8479	-2.5896	-3.1958	-2.775	-2.5625	-3.0458	-2.5292	-2.7229	-2.9604	-2.7188	-2.6021	-2.8146	-2.6646	-3.2667	420.275	167.380	179.262	292.933	405.941	344.286	325.667	205.411	314.658	348.603	209.624	289.702	362.584	364.579	164.516	234.988	0.002443	0.0011816	0.00026157	146.25	2.371e-05	8.9666e-06	163.17	51.046	2.5523e-05	1.6904e-05	72.912	36.91	24.631	10.053	1.5249e-05	18.396	0.0029943	0.0031585	0.00081867	791.42	3.3484e-05	3.4949e-05	773.4	237.07	3.4454e-05	3.4636e-05	428.73	135.66	120.68	45.901	3.1822e-05	60.776	351.214	356.406	314.466	91.938	200.848	332.925	89.408	97.247	181.640	349.975	95.468	99.056	100.632	104.931	312.859	102.746	-8191	255	
8468.254	1	1	0	0	0.13948	0.16641	0.10002	0.37363	0.21011	0.1142	0.17318	0.14948	0.12381	0.20108	0.16199	0.10833	0.099907	0.14243	0.42068	0.31336	-2.1854	-2.8104	-3.1188	-2.3229	-2.9062	-2.9542	-2.4875	-2.9604	-2.8021	-2.7646	-3.0604	-2.775	-2.7521	-3.0563	-2.4646	-3.0167	95.074	265.237	150.139	133.572	303.466	374.620	382.258	370.233	94.168	428.077	97.515	109.377	212.443	388.139	410.567	217.099	0.0016363	0.0021228	0.00037134	150.26	8.5025e-06	9.2167e-06	162.49	52.754	2.0854e-05	1.5024e-05	72.693	38.102	24.297	10.11	1.966e-05	18.568	0.0031673	0.00309	0.00080307	807.44	3.5035e-05	3.3959e-05	761.38	242.42	3.5703e-05	3.3473e-05	417.1	138.77	122.19	44.115	3.0217e-05	61.05	353.711	316.963	289.098	91.296	234.446	289.381	90.046	96.614	195.314	348.109	95.032	99.458	100.783	105.351	349.937	102.588	-8191	255	
8468.350	1	1	0	0	0.30623	0.087617	0.10373	0.050131	0.01653	0.064784	0.18259	0.1112	0.16753	0.18331	0.10931	0.1249	0.20202	0.11253	0.094777	0.28874	-2.1604	-2.6396	-3.0875	-2.4917	-2.8312	-2.825	-2.5896	-3.0458	-2.9104	-2.3937	-3.0271	-2.9	-2.8542	-3.0875	-2.5729	-2.8958	436.913	282.063	180.679	300.122	426.604	367.360	281.865	404.600	399.067	132.277	307.138	174.628	345.461	371.137	421.357	107.667	0.00049815	0.0011049	0.00038085	153.18	1.0377e-05	1.3042e-05	163	53.245	1.1529e-05	9.3241e-06	74.232	38.174	23.787	10.073	5.8755e-06	18.779	0.0030796	0.0028271	0.00072721	784.16	3.1808e-05	2.9236e-05	674.01	227.79	3.0911e-05	2.8407e-05	363.55	131.2	108.67	39.224	2.6277e-05	59.04	158.107	294.013	293.567	91.491	348.809	341.662	90.771	97.904	335.872	384.809	94.972	98.759	101.187	105.842	184.111	102.992	-8191	255	
8468.469	1	1	0	0	0.11964	0.05527	0.11402	0.33652	0.041456	0.013642	0.17351	0.14974	0.13286	0.21133	0.16251	0.1996	0.10448	0.08029	0.10983	0.30388	-2.3563	-2.5938	-3.0375	-2.5917	-2.9062	-3.1	-2.4625	-2.75	-3.0187	-2.5563	-3.0438	-2.7667	-2.5563	-2.9583	-2.7042	-2.9833	355.908	437.703	375.692	318.950	220.020	427.601	335.743	380.683	268.110	162.263	165.396	337.775	302.163	350.072	344.256	110.234	0.00064036	0.0019729	0.00025035	150.99	9.9477e-06	4.7096e-06	169.64	53.352	1.9446e-05	2.1057e-05	76.395	38.332	23.855	10.145	2.1271e-05	18.464	0.0027473	0.0025527	0.00066799	792.12	2.9886e-05	2.7938e-05	664.59	236.38	2.9755e-05	2.7655e-05	363.65	136.51	106.48	38.616	2.6943e-05	61.213	80.684	293.396	284.190	91.125	363.915	321.312	90.966	97.742	389.837	387.803	95.077	99.018	100.736	105.528	167.444	102.560	-8191	255	
8468.542	1	1	0	0	0.07641	0.16654	0.14225	0.084872	0.098223	0.10741	0.20847	0.13931	0.0863	0.13732	0.14343	0.17435	0.14295	0.080181	0.023133	0.14101	-2.5583	-2.4646	-3.0167	-2.9354	-2.8063	-2.925	-2.5812	-3.0417	-2.9833	-2.6875	-2.7729	-3.0729	-2.7583	-3.1208	-2.6458	-2.8354	294.105	205.406	399.207	177.946	420.992	96.541	228.104	343.380	403.669	237.286	260.506	341.676	299.225	295.780	299.293	384.805	0.00029513	0.001888	0.00058951	151.64	1.0123e-05	2.0821e-05	173.43	52.298	1.7871e-05	1.3698e-05	79.418	41.441	29.072	12.2	3.9578e-05	21.951	0.0026891	0.0025328	0.00069352	831.88	2.9716e-05	2.7849e-05	702.53	246.75	2.9722e-05	2.7717e-05	380.25	151.3	122.97	44.934	3.3894e-05	73.262	159.738	278.752	127.791	90.361	353.694	340.547	91.359	95.894	381.003	401.646	91.461	88.466	98.961	103.825	190.029	100.474	-8191	255	
8468.661	1	1	0	0	0.051104	0.13817	0.19338	0.14769	0.11413	0.2305	0.13891	0.17713	0.4143	0.12802	0.14663	0.16371	0.16747	0.058946	0.25249	0.20348	-2.5542	-2.625	-2.8333	-2.8979	-2.7271	-3.2729	-2.7625	-2.7687	-3.1188	-2.4771	-2.9	-2.8479	-2.7292	-3.2229	-2.5979	-2.7417	148.587	387.416	247.566	276.654	362.986	412.504	329.694	407.340	320.655	422.625	287.919	436.445	251.147	365.526	205.806	154.972	0.00026209	0.0011455	0.00068057	177.49	3.0336e-06	1.4868e-05	211.02	61.323	2.7554e-05	6.9841e-06	97.781	45.611	29.623	12.49	4.0894e-05	21.974	0.0030998	0.0029287	0.00087141	985.87	3.4548e-05	3.258e-05	887.36	296.4	3.5552e-05	3.3559e-05	500.06	172.03	129.82	47.207	3.8892e-05	76.336	376.423	263.080	160.738	89.829	424.460	366.968	91.199	95.332	348.236	284.654	94.015	97.234	99.092	103.687	171.767	101.071	-8191	255	
8468.757	1	1	0	0	0.21165	0.071947	0.05605	0.11072	0.33394	0.27531	0.21723	0.12453	0.12182	0.20883	0.04574	0.40234	0.14077	0.17349	0.099831	0.06899	-2.7271	-2.5646	-3.0083	-2.9021	-2.8125	-3.2562	-2.6854	-2.7396	-3.2333	-2.7917	-2.9708	-3.1708	-2.7583	-3.2021	-2.9021	-2.8312	281.413	137.666	396.881	428.931	148.682	128.890	292.480	255.984	185.941	93.919	409.056	398.014	419.200	127.924	252.136	361.296	0.0006658	0.0015539	0.00069005	178.83	1.534e-05	1.3308e-05	223.67	73.975	3.8716e-05	3.3509e-05	115	53.329	35.031	15.361	2.5299e-05	26.15	0.0032767	0.0031347	0.00098852	1023.1	3.6261e-05	3.4355e-05	1013.4	353.23	4.3087e-05	4.2254e-05	636.07	204.62	155.72	58.399	4.9366e-05	90.655	405.236	149.658	127.061	88.050	391.799	164.762	78.567	91.121	354.728	193.798	92.610	96.577	98.405	103.202	145.651	99.000	-8191	255	
8468.853	1	1	0	0	0.047642	0.19751	0.25425	0.02576	0.27743	0.14308	0.25995	0.1735	0.2583	0.067345	0.071894	0.20116	0.1247	0.06226	0.11219	0.25402	-2.7687	-2.5396	-2.8312	-2.9917	-2.8521	-3.1271	-2.8417	-2.6958	-3.2521	-2.8688	-2.7917	-3.1708	-2.825	-3.0417	-2.8875	-2.9688	202.405	228.481	425.732	156.555	139.851	191.070	179.676	242.322	181.577	187.345	121.478	435.830	337.646	345.128	307.881	188.444	0.00063108	0.0048837	0.00010922	207.26	1.2983e-05	2.803e-05	242.22	74.295	4.1158e-05	3.8663e-05	110.67	53.62	34.619	15.614	2.9874e-05	26.048	0.0039033	0.0039982	0.0012485	1214.6	4.3377e-05	4.4669e-05	1201.7	367.24	4.5156e-05	4.8758e-05	698.92	217.92	167.8	67.337	5.6003e-05	98.744	123.236	115.071	265.902	88.057	385.485	164.450	87.893	94.623	342.527	210.961	92.454	96.659	98.915	103.155	347.861	98.986	-8191	255	
8468.949	1	1	0	0	0.2912	0.083365	0.16397	0.098954	0.15421	0.10361	0.072413	0.11879	0.14775	0.15253	0.11661	0.16801	0.12954	0.081439	0.12948	0.15159	-2.8125	-2.4938	-2.8083	-3.1021	-2.6625	-3.0917	-3.2896	-2.6125	-3.2271	-3.0896	-2.975	-3.0333	-2.7604	-2.9542	-2.8958	-2.9917	308.902	253.694	282.007	195.100	178.968	188.332	425.218	409.476	300.742	174.886	408.943	209.817	402.471	306.940	200.479	302.042	0.00041271	0.0069827	0.00018906	214.32	1.7054e-05	4.974e-05	239.58	74.849	1.0234e-05	4.0802e-05	104.26	53.087	36.025	15.628	2.9371e-05	26.043	0.0043616	0.0048612	0.0014116	1322.6	4.7712e-05	5.2493e-05	1271.4	382.28	4.6336e-05	5.3137e-05	691.81	213.75	164.93	69.177	5.3168e-05	94.394	360.589	120.259	367.844	87.744	369.894	169.474	87.866	94.786	254.229	214.861	92.652	96.480	98.249	102.920	388.891	99.618	-8191	255	
8469.070	1	1	0	0	0.082341	0.22103	0.16922	0.30031	0.27228	0.097119	0.09119	0.22454	0.07677	0.19963	0.20933	0.1575	0.041632	0.11874	0.15185	0.1697	-2.6458	-2.825	-2.6646	-3.1042	-2.725	-2.9271	-2.9021	-2.5208	-3.1604	-2.9188	-2.8187	-3.0625	-2.6125	-2.9229	-3.0042	-2.8042	326.068	202.786	234.018	414.445	384.816	188.509	131.226	333.260	236.439	249.597	381.224	96.110	291.007	357.263	193.732	409.615	0.0019431	0.004374	0.00016697	211.91	1.9464e-05	1.2128e-05	239.92	73.262	5.1662e-05	2.2707e-05	108.74	53.4	36.876	15.301	3.5013e-05	26.114	0.0041852	0.0048967	0.0013158	1254.8	4.6829e-05	5.3036e-05	1209.9	365.3	4.6211e-05	5.3734e-05	662.83	206.2	167.13	69.877	5.0621e-05	91.353	360.131	111.828	273.951	88.495	201.761	178.139	87.733	93.105	177.531	198.619	92.069	96.126	98.787	102.427	323.740	98.977	-8191	255	
8469.142	1	1	0	0	0.30334	0.20885	0.06644	0.24018	0.10826	0.15691	0.12571	0.11368	0.091258	0.11655	0.14219	0.076075	0.21633	0.22806	0.13501	0.091946	-2.5021	-2.7896	-2.7562	-3.4	-2.6688	-2.8396	-3.125	-2.5062	-3.0938	-3.0958	-2.6125	-3.2417	-2.8083	-2.8208	-3.0875	-2.6188	141.732	178.031	333.422	367.525	321.835	229.262	223.970	408.466	155.182	339.252	190.576	237.162	408.681	335.817	154.435	251.751	0.0037476	0.0013632	0.0005225	212.01	4.5708e-05	2.5028e-05	242.61	73.458	5.6965e-05	2.4276e-05	107.95	53.791	37.717	15.036	1.8346e-05	26.189	0.004328	0.0049207	0.0012691	1217.5	4.894e-05	5.3542e-05	1185.4	357.97	4.9367e-05	5.3577e-05	649.36	201.32	175.03	69.124	4.9284e-05	89.702	339.256	318.160	327.330	87.917	223.895	364.894	87.281	94.197	194.681	422.204	92.647	96.494	99.154	102.773	377.549	99.648	-8191	255	
8469.238	1	1	0	0	0.11423	0.14664	0.12149	0.066876	0.20475	0.16178	0.03536	0.079083	0.021746	0.13462	0.16464	0.095774	0.048275	0.1858	0.061934	0.12843	-2.6729	-2.7521	-2.4583	-3.1396	-2.7542	-2.775	-2.9646	-2.6021	-3.0875	-2.9208	-2.6396	-3.1729	-2.8417	-2.8104	-3.1562	-2.5854	210.116	303.703	136.612	385.944	409.981	376.507	126.059	339.353	304.474	416.371	221.655	324.393	244.523	318.033	159.349	275.788	0.0026363	0.00068548	0.0003997	211.84	4.2332e-05	6.7146e-06	237.81	75.986	6.4524e-05	1.9925e-05	107.86	54.122	36.84	14.731	1.2103e-05	27.056	0.0045534	0.0047892	0.0012262	1180.6	5.1048e-05	5.1429e-05	1145.7	352.22	5.1379e-05	5.1825e-05	636.62	200.57	182.14	67.725	4.8158e-05	91.251	360.345	295.524	342.488	88.923	210.436	330.085	87.927	95.212	165.031	371.332	92.074	97.170	98.148	103.031	391.653	101.028	-8191	255	
8469.357	1	1	0	0	0.326	0.10763	0.17277	0.03933	0.17523	0.14692	0.13117	0.089004	0.25246	0.10314	0.12795	0.14493	0.29214	0.26042	0.027256	0.12667	-2.425	-3.2313	-2.6104	-2.9229	-2.9167	-2.9604	-3.2229	-2.5542	-2.8625	-3.0187	-2.6833	-3.0625	-3.0167	-2.8125	-3.0479	-2.7083	371.900	343.469	164.529	85.250	187.780	411.105	376.090	430.699	181.953	334.330	377.420	395.594	342.665	375.285	93.385	84.241	0.0027633	0.0014289	0.00062778	223.67	3.3888e-05	1.9158e-05	239.47	77.036	8.0622e-06	1.8564e-05	104.8	55.627	35.919	14.568	4.1023e-05	27.375	0.0048299	0.0047676	0.0012393	1239	5.505e-05	5.2026e-05	1158	374.82	5.4998e-05	5.2343e-05	642.8	213.55	191.06	68.237	4.8388e-05	97.117	350.184	312.853	349.577	89.793	212.057	290.883	87.142	95.205	263.821	374.064	92.729	97.572	98.730	102.116	340.536	101.014	-8191	255	
8469.453	1	1	0	0	0.16616	0.11239	0.068677	0.11918	0.3184	0.19769	0.086926	0.067143	0.15598	0.29825	0.075111	0.092328	0.12936	0.21323	0.11147	0.25697	-2.5604	-3.0917	-2.5333	-2.8688	-2.8458	-2.7917	-3.1562	-2.7646	-2.9521	-3.2146	-2.4646	-2.8583	-2.8854	-2.7583	-3.2542	-2.7771	280.325	105.575	253.779	272.679	221.057	331.853	321.943	99.913	224.173	394.289	90.742	108.684	134.642	383.751	355.720	306.438	0.0010492	0.0019868	0.00023114	226.59	1.0329e-05	2.0658e-05	237.52	77.631	4.0669e-05	5.2733e-06	107.2	55.966	34.378	14.866	1.4171e-05	27.066	0.0049854	0.0046885	0.0012048	1294	5.4289e-05	4.9787e-05	1109.9	385.14	5.2664e-05	4.9126e-05	603.34	214.84	179.69	63.859	4.4575e-05	96.376	411.637	262.031	357.643	87.922	353.507	295.928	88.132	95.561	340.161	392.446	93.142	96.839	98.339	103.078	204.417	100.891	-8191	255	
8469.549	1	1	0	0	0.20364	0.094372	0.25549	0.1154	0.24984	0.19031	0.070786	0.17345	0.14791	0.22198	0.099148	0.21048	0.053396	0.027467	0.062524	0.18684	-2.3688	-3.25	-2.7646	-3.0563	-2.9958	-2.5333	-3.1312	-2.7875	-2.9	-3.2229	-2.6729	-2.8646	-3.0958	-2.5271	-3.1792	-2.8833	264.462	175.898	359.491	360.736	266.226	127.739	240.291	152.588	268.845	86.708	340.598	191.484	338.748	410.879	156.248	235.764	0.00053437	0.001643	0.00040827	222.09	2.6252e-05	2.0017e-05	245.11	76.892	3.6356e-05	2.0384e-05	112.1	55.336	34.312	14.535	2.9749e-05	26.456	0.00455	0.0042995	0.0011211	1289.5	5.0228e-05	4.6608e-05	1072.4	387.6	4.942e-05	4.6365e-05	595.15	216.46	169.76	60.488	4.3317e-05	95.013	159.561	303.295	181.162	89.437	375.315	375.263	88.923	95.004	348.707	359.844	92.255	96.542	98.427	102.432	179.885	100.560	-8191	255	
8469.645	1	1	0	0	0.060211	0.05735	0.34299	0.12318	0.12876	0.085602	0.26756	0.068464	0.15411	0.35473	0.15996	0.15364	0.13937	0.17101	0.16438	0.30897	-2.2812	-3.0521	-2.5271	-2.7917	-3.1125	-2.7792	-2.9188	-2.8167	-2.9417	-3.0333	-2.9021	-2.9833	-3.2375	-2.5833	-2.9417	-2.9062	219.362	248.101	332.480	285.819	80.035	429.911	324.416	215.390	175.222	318.352	200.260	83.839	224.294	146.306	236.323	213.796	0.00049698	0.0023556	0.001059	211.35	2.2256e-05	2.1279e-05	249.78	74.966	2.8191e-05	1.4118e-05	116.38	54.252	35.106	14.568	3.5273e-05	26.488	0.0041542	0.0038939	0.0010797	1227.5	4.4316e-05	4.0836e-05	1020.8	360.51	4.2954e-05	4.0349e-05	570.14	202.62	154.66	55.566	4.2795e-05	91.377	410.110	311.516	153.480	88.532	356.059	348.162	89.116	93.638	341.476	351.357	93.805	97.054	98.664	102.906	174.650	99.185	-8191	255	
8469.741	1	1	0	0	0.13515	0.25147	0.066057	0.12411	0.23724	0.33084	0.19457	0.13	0.26267	0.32691	0.13816	0.055758	0.12406	0.056545	0.21415	0.11231	-2.1437	-3.2833	-2.6771	-2.75	-3.1708	-2.5521	-2.9354	-2.9792	-2.5438	-2.9938	-2.8708	-2.7438	-2.9708	-2.825	-2.8146	-3.0771	109.637	246.058	139.474	420.099	329.178	392.280	118.296	107.563	304.442	385.186	316.607	405.471	411.685	364.866	193.592	245.356	0.00037864	0.0021754	0.00099908	209.81	1.0533e-05	1.2026e-05	251.17	73.996	3.3262e-05	7.504e-06	116.12	53.459	34.622	14.977	3.4111e-05	26.177	0.0038881	0.0036627	0.0011209	1206.6	4.3336e-05	4.0309e-05	1081.4	360.26	4.2987e-05	4.0212e-05	606.94	200.97	153.23	55.623	4.5296e-05	89.172	92.960	297.612	128.175	89.081	75.904	296.983	89.848	93.734	332.545	110.124	93.625	96.464	98.592	102.917	167.815	99.810	-8191	255	
8469.837	1	1	0	0	0.095359	0.094306	0.086148	0.10084	0.16471	0.0715	0.12095	0.31339	0.13503	0.27092	0.22239	0.117	0.23253	0.093532	0.11751	0.28978	-2.2521	-3.1375	-2.775	-2.9167	-2.8458	-2.6958	-3.0083	-2.9667	-2.7938	-3.2125	-2.8438	-2.6042	-3.1437	-2.8375	-2.8333	-3.2854	238.139	215.852	237.938	415.844	412.672	156.202	305.636	407.044	222.059	257.142	237.935	310.687	335.484	249.985	432.947	261.563	0.00021776	0.0010582	0.00033377	203.83	2.4052e-05	1.9008e-05	247.29	73.143	2.366e-05	3.663e-05	112.02	53.421	35.166	15.35	1.3395e-05	26.24	0.0037693	0.0036105	0.0011586	1154.6	4.1247e-05	3.9565e-05	1092	344.87	4.0723e-05	4.0246e-05	615.69	193.96	148.54	56.773	4.6472e-05	87.163	380.925	124.152	157.357	88.391	392.640	192.079	88.021	93.425	398.677	181.351	93.897	96.423	98.663	102.831	179.234	99.826	-8191	255	
8469.934	1	1	0	0	0.25864	0.37768	0.22916	0.074388	0.37023	0.18579	0.17209	0.12301	0.10193	0.14566	0.18724	0.15801	0.17537	0.30679	0.14098	0.22775	-2.1667	-3.0563	-3.1396	-2.7604	-3.1583	-2.5729	-2.975	-3.1375	-2.6854	-3.0792	-3.0563	-2.8042	-3.1208	-2.8708	-2.9146	-3.0687	106.560	209.982	435.353	90.172	344.184	197.186	359.801	210.713	392.070	165.230	370.317	399.732	395.731	355.889	398.692	399.912	0.00014235	0.0031922	9.9871e-05	207.87	2.4798e-05	2.2252e-05	244.6	73.252	2.0268e-05	4.3949e-05	107.93	53.621	34.603	15.189	1.4344e-05	26.185	0.00367	0.003791	0.0011883	1133.4	4.0072e-05	4.1922e-05	1101.1	336.25	3.9566e-05	4.1986e-05	609.94	188.28	142.39	58.47	4.4746e-05	83.974	392.702	125.524	260.337	88.568	396.492	182.391	87.527	94.681	342.916	199.869	92.188	96.613	99.322	103.271	305.044	99.572	-8191	255	
8470.030	1	1	0	0	0.20624	0.051086	0.058352	0.11242	0.14822	0.2183	0.22087	0.16809	0.40773	0.15638	0.060042	0.28372	0.29158	0.09219	0.24476	0.23566	-1.8875	-2.9375	-2.9958	-2.6354	-3.0167	-2.7562	-2.9771	-3.0104	-2.6854	-3.2021	-3.0729	-2.4771	-2.9292	-2.6542	-2.8167	-3.0812	176.591	230.021	384.932	429.915	142.689	326.466	352.830	186.632	114.817	183.814	94.013	407.379	304.673	369.829	230.190	348.579	0.00095775	0.0041875	0.00076617	205.54	1.6453e-05	3.3536e-05	237.28	73.756	2.9479e-05	3.1601e-05	107.84	53.687	36.158	15.301	1.7601e-05	26.167	0.0035009	0.0038889	0.0011388	1090.7	3.8237e-05	4.352e-05	1057.8	322.84	3.8406e-05	4.3592e-05	592.29	185.29	142.57	61.222	4.3925e-05	83.137	433.044	126.253	337.487	87.002	175.276	150.037	88.343	93.954	156.872	202.868	92.649	96.694	98.911	103.029	302.471	99.750	-8191	255	
8470.149	1	1	0	0	0.18951	0.15171	0.36436	0.079643	0.10686	0.30432	0.35276	0.13327	0.077112	0.25231	0.1724	0.27237	0.10798	0.20234	0.19513	0.04391	-2.1667	-3.0583	-3.0271	-2.6354	-3.3458	-2.925	-2.7271	-3.2583	-2.9583	-3.0708	-3.0646	-2.7125	-3.2458	-2.8729	-2.5958	-3.1375	254.488	260.805	278.755	350.349	160.149	228.513	276.924	164.246	88.121	231.338	191.394	100.526	196.678	252.728	271.801	164.155	0.0014673	0.0023761	0.00058862	208.26	3.6403e-05	1.8901e-05	241.02	74.292	7.549e-05	1.944e-05	109.97	54.371	37.115	14.962	1.4607e-05	26.221	0.0036038	0.0041359	0.0011257	1087.6	3.9709e-05	4.5769e-05	1044.3	316.43	3.9494e-05	4.4198e-05	563.92	177.29	142	59.445	4.0014e-05	77.298	363.379	135.842	298.613	87.535	205.025	103.346	87.664	94.073	179.865	134.712	93.079	96.742	98.870	103.241	315.448	98.708	-8191	255	
8470.245	1	1	0	0	0.12937	0.22819	0.057324	0.12047	0.17533	0.087159	0.16102	0.073729	0.10935	0.29941	0.30647	0.070129	0.078194	0.20261	0.026356	0.15695	-2.3792	-3.025	-3.1458	-2.5167	-2.9979	-3.0667	-2.7938	-3.1417	-2.8625	-3.0854	-3.1521	-2.6271	-3.1417	-2.925	-2.6771	-3.2521	372.806	105.568	379.573	137.648	178.585	102.987	258.169	129.248	303.928	398.465	387.067	420.099	151.029	139.158	77.581	155.532	0.0023387	0.0021593	0.00047133	209.27	3.8492e-05	6.0623e-06	243.64	74.458	4.194e-05	7.8898e-06	112.33	54.196	36.464	14.732	9.7583e-07	26.308	0.0035115	0.0038547	0.0010041	992.74	3.8555e-05	4.2193e-05	965.76	293.21	3.9086e-05	4.0861e-05	524.73	166.93	142.73	56.571	3.7528e-05	73.874	345.584	316.906	328.223	88.861	180.796	265.332	88.506	93.103	195.001	297.188	92.662	96.991	97.809	104.181	151.410	99.890	-8191	255	
8470.341	1	1	0	0	0.29739	0.068148	0.061302	0.055786	0.024111	0.041959	0.3167	0.19704	0.17434	0.153	0.24355	0.31833	0.24059	0.097443	0.19103	0.15907	-2.1667	-2.7958	-3.1167	-2.6979	-2.9917	-3.1188	-2.7438	-3.2083	-2.7604	-2.8042	-3.3479	-2.5896	-2.8604	-3.2208	-2.5667	-3.0854	129.303	315.454	267.416	334.388	300.705	331.471	98.581	427.938	128.310	282.677	330.652	222.799	320.963	386.855	163.956	330.268	0.0024819	0.0030942	0.00035938	215.15	3.5923e-05	3.3522e-05	235.59	76.271	2.5548e-05	1.3764e-05	106.92	55.435	36.166	14.386	2.0942e-05	26.626	0.0035734	0.0036054	0.00094327	954.51	3.9213e-05	3.9663e-05	926.87	286.07	4.0101e-05	3.8751e-05	504.13	165.29	144.62	54.036	3.5827e-05	73.951	354.003	309.967	320.029	88.855	200.516	363.998	87.867	94.947	183.621	358.484	92.309	96.787	98.718	103.247	349.365	100.615	-8191	255	
8470.437	1	1	0	0	0.11557	0.18009	0.1569	0.20218	0.050007	0.16353	0.18557	0.22833	0.14851	0.25698	0.046422	0.1332	0.13809	0.15111	0.22973	0.096299	-2.3729	-2.5438	-2.9792	-2.7875	-2.7542	-2.8792	-2.5417	-3.0458	-2.7292	-2.5	-3.3667	-2.7958	-2.7938	-3.1208	-2.4771	-2.9208	368.753	199.725	176.362	381.311	204.496	123.624	265.790	84.328	280.547	256.167	394.305	342.090	371.072	278.928	292.529	301.364	0.0017741	0.0018183	0.00049537	218.25	1.0266e-05	2.6395e-05	241.74	77.004	1.2229e-05	1.5636e-05	109.74	55.908	35.692	14.513	1.3416e-05	27.227	0.0036552	0.003471	0.00091116	983.26	4.0919e-05	3.9213e-05	922.43	301.01	4.2127e-05	3.8964e-05	506.22	177.18	151.23	54.888	3.6613e-05	79.651	342.959	324.734	285.168	89.593	224.297	350.327	88.204	95.540	337.285	371.068	92.378	97.444	98.458	102.773	333.833	100.694	-8191	255	
8470.533	1	1	0	0	0.24385	0.19937	0.19034	0.24658	0.090456	0.2062	0.080078	0.3119	0.20077	0.10664	0.1634	0.17136	0.21374	0.11493	0.077231	0.13292	-2.6833	-2.5417	-3.1625	-2.8063	-2.9604	-2.9646	-2.6604	-3.1562	-2.9104	-2.7062	-3.0396	-2.9104	-2.8167	-3.0292	-2.6729	-3.0542	122.114	186.582	233.113	245.568	258.583	135.093	352.797	87.850	207.106	123.589	378.605	425.973	266.791	351.154	111.979	415.300	0.0001528	0.0016365	0.00025702	224.1	2.0716e-05	1.5817e-05	243.55	76.622	1.3529e-05	1.0636e-05	108.49	56.114	35.521	14.881	1.2052e-05	26.924	0.0038327	0.0035386	0.00092059	1059.7	4.1275e-05	3.8676e-05	910.62	315.29	4.1287e-05	3.8112e-05	496.73	185.05	148.68	53.747	3.5979e-05	82.496	217.893	272.912	357.877	89.543	352.109	331.636	88.067	95.145	378.778	407.476	93.009	96.810	98.813	103.323	304.608	100.336	-8191	255	
8470.654	1	1	0	0	0.10878	0.044278	0.10091	0.10444	0.19703	0.16752	0.39414	0.028094	0.08644	0.08382	0.1157	0.16118	0.18413	0.14554	0.18822	0.15449	-2.4958	-2.7167	-3.1208	-2.8854	-2.8833	-3.1792	-2.5479	-2.9979	-3.0104	-2.4896	-3.0563	-2.7729	-2.7562	-3.3292	-2.5563	-3.1042	374.407	345.050	130.651	382.906	335.545	230.203	384.635	262.431	374.866	157.498	388.578	357.833	231.183	151.381	92.319	328.224	0.00086132	0.0020317	0.00021364	220	1.5255e-05	8.5931e-06	248.18	77.252	4.7048e-05	1.4662e-05	116.52	55.733	35.544	14.84	5.9212e-05	26.858	0.0036826	0.0034212	0.00090634	1095.2	3.9601e-05	3.7091e-05	910.59	323.09	3.9371e-05	3.6385e-05	497.73	187.35	141.99	51.553	3.6142e-05	82.861	150.205	320.170	183.850	88.490	419.757	314.341	88.948	95.307	362.814	360.427	93.098	97.616	98.673	102.606	180.435	99.910	-8191	255	
8470.750	1	1	0	0	0.18685	0.21493	0.25674	0.12765	0.12592	0.16765	0.13034	0.15031	0.095781	0.03831	0.096059	0.080998	0.27577	0.14621	0.074259	0.090126	-2.5542	-2.5208	-3.1708	-2.8896	-2.5479	-3.2875	-2.725	-2.8438	-3.1771	-2.5875	-3.1083	-2.8479	-2.6396	-3.1167	-2.7833	-2.9396	324.814	204.607	295.271	239.453	153.886	271.975	429.979	352.106	306.373	146.681	367.687	112.190	325.898	418.703	162.373	406.533	0.00057746	0.002698	0.0008444	212.94	1.7175e-05	1.8475e-05	252.73	74.357	9.6341e-06	1.3259e-05	117.82	54.309	35.612	14.68	4.1955e-05	26.322	0.0034857	0.0032433	0.00092563	1095.3	3.772e-05	3.5481e-05	938.27	322.5	3.7829e-05	3.5003e-05	515.23	184.77	137.43	49.67	3.7897e-05	81.142	172.212	312.385	118.121	89.212	384.894	361.830	90.289	94.281	318.523	430.010	93.088	96.690	98.691	103.100	193.439	99.166	-8191	255	
8470.844	1	1	0	0	0.28699	0.30129	0.02672	0.050223	0.29717	0.22923	0.12882	0.058471	0.1288	0.15503	0.092166	0.14034	0.087806	0.19038	0.2622	0.35061	-2.6354	-2.7458	-2.8479	-2.8146	-2.5687	-3.1667	-2.9354	-2.9875	-3.1437	-2.5208	-3.2125	-2.9958	-2.6083	-3.1708	-2.9854	-2.8083	171.311	80.059	91.941	90.821	274.992	223.606	330.825	189.735	366.340	147.100	357.005	249.669	398.241	384.804	380.564	296.441	0.00026892	0.0011192	0.00073254	209.35	6.8542e-06	1.2033e-05	247.16	75.3	1.5283e-05	1.5618e-05	116.12	53.971	35.004	14.967	2.7995e-05	26.068	0.0033349	0.003116	0.00096049	1058.2	3.5892e-05	3.3659e-05	957.23	308.47	3.5497e-05	3.3292e-05	520.79	174.9	130.5	47.812	3.803e-05	76.728	383.656	338.208	135.881	87.968	76.512	155.092	89.450	94.210	326.302	224.005	92.557	96.687	98.743	103.496	158.991	100.129	-8191	255	
8470.941	1	1	0	0	0.10872	0.079262	0.19495	0.17167	0.15091	0.050595	0.076848	0.19549	0.15154	0.1616	0.12744	0.10236	0.091163	0.16642	0.10808	0.12275	-2.4688	-2.4542	-2.8625	-2.8917	-2.7083	-3.2979	-2.7292	-2.6333	-3.1146	-2.7958	-2.9875	-2.9729	-2.6	-2.9583	-2.8771	-2.6792	220.139	233.366	136.726	429.264	233.144	248.910	94.338	322.969	186.610	224.764	311.709	331.436	78.324	197.513	212.960	282.460	0.00079841	0.0020117	0.00025046	209	1.6645e-05	1.9275e-05	248.58	73.137	4.0321e-05	2.9065e-05	111.4	53.466	34.91	15.044	1.4518e-05	26.209	0.0030924	0.003011	0.00096132	995.36	3.395e-05	3.3311e-05	964.08	295.32	3.3803e-05	3.3929e-05	528.3	169.85	127.13	49.5	3.8906e-05	75.336	131.697	107.209	192.988	87.699	373.865	188.156	89.423	94.121	321.970	215.729	93.177	97.390	98.928	103.375	202.966	99.470	-8191	255	
8471.014	1	1	0	0	0.26008	0.2393	0.13279	0.071264	0.11588	0.11341	0.071543	0.16857	0.16856	0.28633	0.056025	0.13448	0.068174	0.22932	0.087873	0.046566	-2.7292	-2.7542	-2.6896	-2.9625	-2.5667	-3.1271	-3.0604	-2.4708	-3.1917	-2.6063	-2.9437	-2.9854	-2.7458	-2.9062	-2.8417	-2.7188	381.585	266.217	300.324	315.690	156.193	272.566	131.115	111.406	324.644	430.887	290.133	338.321	135.955	77.012	143.877	417.824	0.00082202	0.0039442	0.00014552	209.77	1.5957e-05	2.2623e-05	241.3	74.595	2.2141e-05	3.2418e-05	109.26	53.751	35.318	15.163	2.0476e-05	26.776	0.00302	0.0031877	0.00097612	973.29	3.2907e-05	3.5253e-05	966.52	288.57	3.2881e-05	3.6191e-05	524.26	167.63	125.53	51.903	3.8555e-05	74.918	220.029	108.476	84.883	88.307	304.122	187.906	88.070	93.390	283.362	188.568	92.614	96.887	98.600	103.487	330.212	99.580	-8191	255	
8471.133	1	1	0	0	0.18229	0.31947	0.26738	0.1823	0.049891	0.09543	0.23699	0.26012	0.25969	0.12115	0.029334	0.071155	0.11178	0.17289	0.18621	0.23	-2.5812	-2.8063	-2.5979	-3.1271	-2.6667	-2.8729	-2.7521	-2.4604	-3.0979	-2.7875	-2.8354	-3.2188	-2.8479	-2.8521	-3.2625	-2.6125	300.829	79.588	266.220	179.481	127.280	240.741	190.948	174.277	83.052	81.869	365.608	278.488	309.663	333.752	149.107	365.066	0.00099265	0.0031829	0.00028704	212.77	1.3851e-05	3.8899e-05	245.04	73.749	3.0534e-05	2.7524e-05	107.46	54.52	36.067	15.039	2.8383e-05	26.099	0.0029892	0.003449	0.00096707	968.22	3.2959e-05	3.7652e-05	953.58	286.18	3.3036e-05	3.8427e-05	515.82	165.11	127.04	53.771	3.7233e-05	73.576	356.409	102.347	358.066	87.941	180.846	151.663	88.244	93.935	185.859	200.377	92.809	96.936	98.429	103.754	332.058	99.675	-8191	255	
8471.229	1	1	0	0	0.17952	0.29185	0.05238	0.26684	0.30327	0.1365	0.3818	0.19548	0.19652	0.21782	0.16449	0.10693	0.26382	0.22075	0.13927	0.086937	-2.5354	-2.7229	-2.8229	-3.0771	-2.7833	-2.7917	-3.0396	-2.45	-3.0812	-2.9854	-2.6937	-3.1979	-2.6688	-2.8667	-2.9562	-2.5812	300.622	111.464	318.995	343.860	109.834	136.882	241.043	259.766	145.354	119.555	306.797	287.569	118.682	374.507	356.776	396.153	0.002155	0.0018574	0.00042955	208.92	3.938e-05	1.0746e-05	234.63	73.671	5.8321e-05	1.2257e-06	108.48	53.926	36.28	14.671	1.6078e-05	26.221	0.0030504	0.0035931	0.00094214	951.81	3.4748e-05	3.9395e-05	939.44	283.89	3.494e-05	3.9629e-05	506.25	161.88	132.29	54.218	3.5811e-05	71.56	374.184	107.806	298.234	87.806	235.778	198.911	88.019	94.210	191.220	247.115	92.478	95.450	98.829	102.436	327.022	99.965	-8191	255	
8471.325	1	1	0	0	0.058701	0.26843	0.25825	0.06329	0.31964	0.15205	0.039483	0.027784	0.059241	0.2525	0.17025	0.068862	0.060812	0.17538	0.16156	0.35058	-2.6417	-2.8792	-2.6583	-3.0479	-2.8521	-2.7521	-3.0958	-2.6521	-3.0542	-3.0312	-2.6937	-3.1583	-2.6604	-2.9771	-3.0396	-2.6354	111.387	134.611	338.950	388.576	140.657	353.665	240.558	218.451	258.464	255.969	329.208	123.563	222.773	323.653	274.306	383.018	0.0030733	0.00054567	0.00033231	208.08	3.69e-05	2.2237e-05	241.7	74.944	2.7078e-05	2.864e-06	110.58	53.672	36.681	14.772	2.4942e-05	26.554	0.00319	0.0035233	0.00089711	913.57	3.5923e-05	3.8182e-05	906.61	274.11	3.6616e-05	3.8698e-05	495.61	159.8	139.46	53.593	3.5668e-05	71.384	349.708	229.396	239.842	88.341	209.857	376.759	88.191	95.006	188.318	436.520	92.735	96.633	98.860	103.109	335.857	100.047	-8191	255	
8471.446	1	1	0	0	0.032786	0.25138	0.23014	0.18972	0.2438	0.077438	0.1615	0.055539	0.12503	0.25831	0.12673	0.082206	0.16593	0.020282	0.3426	0.21653	-2.2625	-2.9625	-2.5229	-3.0312	-2.7313	-2.6917	-3.1562	-2.6354	-3.025	-2.75	-2.7042	-3.0458	-2.8375	-2.7458	-3.1292	-2.7958	432.827	84.128	177.016	170.065	78.871	293.418	106.842	379.306	162.287	243.773	121.110	122.506	83.635	268.719	174.903	414.857	0.0021725	0.0014618	0.00026532	212.23	3.0941e-05	1.3643e-05	241.83	75.749	3.4213e-05	1.0499e-05	108.68	55.274	36.198	14.402	2.7918e-05	26.751	0.0034073	0.0034524	0.00087891	912.15	3.785e-05	3.6881e-05	885.49	274.8	3.7813e-05	3.674e-05	475.85	159.08	140.5	51.164	3.3425e-05	71.52	326.935	319.749	348.904	89.765	204.633	371.852	88.446	95.112	169.835	406.197	93.303	96.971	98.626	102.797	350.093	100.924	-8191	255	
8471.542	1	1	0	0	0.35293	0.21822	0.10549	0.18468	0.25073	0.17905	0.12248	0.094245	0.17586	0.12698	0.27862	0.17276	0.10229	0.10284	0.18146	0.18611	-2.4167	-2.775	-2.6063	-3.0292	-2.9917	-2.7333	-3.0875	-2.9167	-2.9708	-3.0229	-2.8042	-3.1188	-3.025	-2.6458	-3.2562	-2.8208	160.852	115.355	300.892	126.304	308.315	100.808	97.795	198.503	355.995	194.513	83.503	330.911	132.685	239.773	313.934	173.296	0.0016084	0.0022135	5.3148e-05	213.83	1.9164e-05	1.1261e-05	241.13	78.188	3.2165e-05	1.8422e-05	111.29	56.961	35.58	14.734	6.2377e-06	27.3	0.0033817	0.0032008	0.00081894	914.43	3.7241e-05	3.4446e-05	846.72	280.16	3.7135e-05	3.474e-05	459.37	164.54	139.81	49.833	3.2325e-05	74.696	342.166	271.307	284.849	89.108	99.976	367.576	88.240	95.878	379.637	371.626	92.717	96.653	98.971	103.176	294.728	100.472	-8191	255	
8471.638	1	1	0	0	0.21856	0.18291	0.18196	0.22251	0.14746	0.18851	0.23459	0.027147	0.19477	0.039016	0.14616	0.22546	0.073462	0.15911	0.23104	0.047044	-2.2771	-3.0521	-2.4813	-2.9437	-2.8563	-2.6979	-3.1375	-2.8083	-2.8875	-3.0167	-2.7313	-3.1479	-3.2896	-2.6167	-2.9271	-2.7917	358.778	355.891	424.349	180.024	293.649	331.482	103.090	220.465	130.516	79.292	236.356	99.615	260.498	379.171	410.305	216.156	0.00017747	0.0031263	0.00017718	221.05	2.0959e-05	7.4028e-06	242.45	78.585	3.9757e-05	1.7033e-05	113.89	56.923	35.151	14.898	1.5531e-05	27.714	0.0033563	0.0031438	0.00081266	970.57	3.7032e-05	3.396e-05	838.45	295.9	3.6594e-05	3.4122e-05	458.13	171.63	136.35	48.97	3.2133e-05	77.799	106.440	312.291	194.256	90.143	382.326	389.364	88.561	94.631	362.326	350.536	93.821	97.232	97.674	102.336	202.354	100.592	-8191	255	
8471.734	1	1	0	0	0.31645	0.029723	0.11543	0.13353	0.11191	0.046829	0.15679	0.095406	0.02941	0.022564	0.26073	0.19949	0.16341	0.23421	0.15969	0.051558	-2.4042	-3.0687	-2.6771	-2.9875	-3.1188	-2.6	-2.9542	-2.8896	-2.9583	-3.0792	-2.775	-2.9854	-2.8063	-2.5521	-3.025	-3.0646	206.189	394.566	241.626	415.407	238.826	102.561	81.109	414.313	200.709	90.257	431.465	289.361	152.955	398.357	288.444	265.396	0.0010612	0.0014508	0.00035382	217.66	1.862e-05	1.1673e-05	250.89	76.934	2.4917e-05	1.6546e-05	118.76	55.831	34.479	14.794	4.0823e-05	26.87	0.0032581	0.0030567	0.00081587	997.84	3.5373e-05	3.254e-05	842.6	299.8	3.4345e-05	3.2154e-05	459.45	171.76	130.06	46.965	3.2657e-05	77.342	117.373	295.501	130.478	89.840	397.451	362.833	89.188	94.507	322.346	421.376	93.708	96.336	99.842	103.666	196.312	100.266	-8191	255	
8471.830	1	1	0	0	0.1137	0.32202	0.014784	0.01572	0.11856	0.23314	0.12364	0.18498	0.20068	0.028656	0.12288	0.036405	0.13613	0.16662	0.19763	0.3196	-2.075	-3.1542	-2.6458	-2.6646	-3.0417	-2.5896	-3.0542	-2.7875	-2.675	-3.0604	-2.6875	-2.9479	-3.1917	-2.625	-3.0438	-3.0146	319.737	86.807	196.565	295.238	213.536	86.303	253.480	347.486	365.600	127.113	253.611	318.127	360.555	424.854	360.483	391.075	0.00028564	0.0022154	0.00082848	211.13	7.0343e-06	7.3571e-06	249.83	75.135	2.3067e-05	1.14e-05	117.9	55.166	35.529	14.77	3.4001e-05	26.284	0.0030614	0.0028902	0.0008388	989.55	3.3567e-05	3.096e-05	865.45	297.14	3.3176e-05	3.1131e-05	481.58	170.43	127.61	46.402	3.5152e-05	77.12	230.627	300.468	157.654	89.274	434.513	367.573	89.110	94.050	368.334	396.104	93.783	97.022	98.402	103.093	180.836	100.017	-8191	255	
8471.925	1	1	0	0	0.13577	0.13148	0.092615	0.29455	0.16882	0.081478	0.12888	0.02131	0.068302	0.10174	0.12573	0.15319	0.045115	0.1572	0.14005	0.16012	-2.2812	-3.1542	-2.6583	-2.8479	-3	-2.6042	-3.2208	-2.9646	-2.5958	-3.2271	-2.9938	-2.7667	-3.0854	-2.5687	-2.8625	-3.0417	392.312	364.495	218.646	106.660	113.648	253.619	286.291	156.471	205.316	270.858	331.683	86.205	156.514	140.793	338.142	379.736	0.00085835	0.00047942	0.00099673	209.98	1.7641e-05	1.2229e-05	253.66	74.693	3.4483e-05	1.0839e-05	117.47	53.794	35.756	15.02	3.4407e-05	26.537	0.0030487	0.0028869	0.00091427	988.59	3.3576e-05	3.1565e-05	923.31	297.54	3.3267e-05	3.2137e-05	518.2	171.29	129.31	48.486	3.8624e-05	78.276	101.448	110.558	141.184	87.278	332.611	168.493	89.443	93.671	420.045	172.366	93.304	97.241	99.041	103.227	156.852	98.844	-8191	255	
8472.023	1	1	0	0	0.10052	0.14908	0.19262	0.30331	0.30189	0.11071	0.15742	0.16476	0.1459	0.20071	0.162	0.06779	0.084426	0.32064	0.21157	0.11921	-2.4104	-3.1333	-2.5729	-2.6375	-3.1125	-2.8229	-2.875	-3.1042	-2.5271	-3.1729	-2.8667	-2.8396	-3.5292	-2.8417	-2.9792	-3.1896	169.151	399.964	155.887	128.608	230.103	260.289	426.652	130.326	224.226	337.372	409.759	429.743	149.919	362.178	316.943	118.348	0.00076874	0.00076689	0.00050285	210.39	9.2889e-06	3.6376e-05	249.07	74.698	2.4384e-05	2.8341e-05	111.98	55.439	35.575	15.562	1.6128e-05	26.399	0.003158	0.0031602	0.0010309	1033.1	3.5788e-05	3.5911e-05	1015.3	310.49	3.5361e-05	3.6305e-05	561.07	174.99	132.29	52.187	4.0501e-05	77.853	243.620	141.752	177.400	88.932	333.333	152.253	88.350	93.716	299.037	193.853	92.354	97.247	98.632	103.031	410.108	99.654	-8191	255	
8472.142	1	1	0	0	0.28157	0.18448	0.14588	0.13387	0.11577	0.24415	0.247	0.070946	0.25252	0.153	0.054625	0.19909	0.15257	0.16921	0.11845	0.14805	-2.0167	-3.1958	-2.9854	-2.9104	-3.3354	-2.7333	-2.9354	-3.1417	-2.6917	-3.0583	-2.8875	-2.8	-3.2583	-2.8771	-2.7812	-3.1354	416.270	154.486	393.450	214.606	400.565	400.435	143.623	395.928	408.004	140.008	173.539	112.438	416.584	341.072	149.413	244.239	0.00021077	0.0042451	0.00019221	208.88	7.784e-06	3.145e-05	244.2	74.699	4.3945e-06	2.2e-05	109.94	55.035	35.632	15.24	2.8309e-05	26.706	0.0031024	0.0033483	0.0010225	992.29	3.3833e-05	3.6881e-05	975.58	293.22	3.2745e-05	3.6525e-05	526.6	164.93	124.18	52.122	3.6991e-05	73.406	158.591	125.760	296.645	87.693	390.989	182.436	88.222	94.048	232.812	182.353	93.497	96.668	98.927	103.145	388.052	99.655	-8191	255	
8472.238	1	1	0	0	0.10413	0.092017	0.059743	0.056562	0.10607	0.043665	0.15677	0.12674	0.38956	0.37125	0.19909	0.01769	0.16102	0.19919	0.18641	0.18736	-2.1396	-2.9625	-3.0417	-2.5187	-3.1083	-2.6708	-2.8042	-3.0854	-2.7167	-2.95	-3.0812	-2.7125	-3.1979	-2.8125	-2.45	-3.2521	433.946	184.192	334.728	415.117	293.061	223.038	426.558	430.853	114.688	119.029	113.762	94.375	303.485	435.038	89.936	414.199	0.00098191	0.0044361	0.0006264	216.27	5.5113e-06	3.1198e-05	238.4	74.821	3.2906e-05	1.825e-05	108.66	54.264	36.258	15.056	3.7677e-05	26.443	0.0029068	0.0033826	0.00095119	945.63	3.2975e-05	3.8412e-05	945.93	289.01	3.3729e-05	3.9304e-05	526.48	166.15	130.32	55.844	3.7841e-05	74.728	322.696	128.288	320.438	89.646	217.482	171.264	87.225	93.445	167.052	177.356	92.543	96.799	98.779	102.906	354.967	99.329	-8191	255	
8472.334	1	1	0	0	0.23249	0.17415	0.16208	0.29753	0.03473	0.10858	0.16657	0.31966	0.13996	0.30796	0.25049	0.1524	0.24743	0.16107	0.11316	0.17436	-2.2313	-2.8	-3.1188	-2.4208	-2.9604	-2.975	-2.725	-3.1125	-2.7083	-2.9021	-2.7958	-2.6167	-2.9792	-3	-2.6521	-3.2354	372.315	412.908	348.201	108.484	96.123	339.493	379.703	398.233	89.986	175.605	192.682	251.576	147.458	402.157	107.278	253.430	0.0039224	0.0015538	0.00047981	209.01	3.2858e-05	1.1902e-05	241.67	74.215	5.0035e-05	7.8177e-06	109.4	53.753	37.13	14.813	1.3914e-05	26.367	0.0031838	0.0036777	0.00096574	960.13	3.5815e-05	4.0758e-05	943.86	288.21	3.6274e-05	4.031e-05	517.4	163.86	136.81	56.206	3.7073e-05	73.752	343.211	395.490	328.147	88.571	195.328	195.664	87.650	93.689	172.190	270.210	93.784	96.720	98.400	102.792	366.087	99.451	-8191	255	
8472.430	1	1	0	0	0.095361	0.12341	0.17114	0.26946	0.10124	0.17389	0.13036	0.11245	0.037598	0.061554	0.14835	0.12731	0.28628	0.22196	0.13231	0.1506	-2.0833	-2.7188	-2.8417	-2.6021	-3.0667	-3.0104	-2.5229	-3.2625	-2.9083	-2.8354	-3.1562	-2.5354	-2.8729	-2.9062	-2.65	-3.2208	347.283	220.578	207.024	339.573	402.329	402.554	200.447	434.431	259.478	309.616	338.318	330.939	375.507	83.514	259.889	405.737	0.0031426	0.0029641	7.1792e-05	211.45	3.0719e-05	1.1127e-05	244.33	74.806	5.5806e-05	2.5686e-05	107.93	54.969	36.871	14.635	2.9914e-06	27.163	0.0034414	0.0037037	0.00095624	958.58	3.9171e-05	4.1471e-05	951.89	293.3	4.0792e-05	4.1581e-05	530.54	169.14	149.95	57.346	3.8187e-05	76.291	359.854	274.583	239.569	88.884	203.895	362.672	87.310	94.336	191.124	382.971	93.006	97.107	98.616	103.349	324.310	100.009	-8191	255	
8472.526	1	1	0	0	0.14908	0.06539	0.18477	0.066692	0.049566	0.17	0.19262	0.16749	0.14825	0.19926	0.083953	0.28501	0.10505	0.12627	0.228	0.18575	-2.2604	-2.7938	-2.9208	-2.4792	-2.9542	-3.05	-2.7625	-3.1312	-2.6958	-2.8312	-3.0062	-2.7188	-2.9896	-2.8	-2.5667	-3.0167	138.267	433.625	86.256	230.534	154.730	393.734	248.843	91.802	337.943	208.319	176.179	341.061	430.371	189.447	79.752	153.230	0.0021273	0.0037206	0.00052594	218.12	2.5276e-05	1.8223e-05	241.96	76.437	1.6839e-05	1.3414e-05	110.58	56.826	36.246	14.55	2.257e-05	26.944	0.0038142	0.0037447	0.00097206	994.1	4.2299e-05	4.1132e-05	943.65	300.02	4.2625e-05	4.0124e-05	519.03	173.37	152.87	55.476	3.6614e-05	77.665	332.918	288.359	320.251	88.701	211.427	371.543	87.915	94.602	233.600	363.938	93.406	97.324	99.159	102.571	384.160	100.679	-8191	255	
8472.622	1	1	0	0	0.32873	0.17542	0.13032	0.18739	0.1386	0.077182	0.076159	0.087982	0.31696	0.21635	0.025848	0.16426	0.27541	0.11505	0.26142	0.12988	-2.5729	-2.5125	-3.1833	-2.6312	-2.9437	-2.9396	-2.8167	-2.9688	-2.8438	-2.775	-3.1146	-2.775	-2.7875	-2.9437	-2.6542	-2.9313	368.620	265.214	393.130	428.469	351.099	235.084	97.325	363.800	177.154	290.530	340.964	410.951	397.029	358.283	95.496	160.327	0.00059695	0.0005832	0.00022467	226.55	6.3652e-06	2.6707e-05	241.14	77.479	1.6554e-05	7.7278e-06	108.41	56.487	35.327	14.811	1.7165e-05	27.542	0.0038328	0.0035635	0.00093217	1028.4	4.2259e-05	3.9254e-05	921.17	312.53	4.298e-05	3.9214e-05	511.51	184.09	154.38	55.2	3.6758e-05	82.98	359.040	251.408	283.303	88.845	386.133	335.202	88.307	94.943	417.526	388.167	92.722	97.211	98.823	103.100	269.100	100.359	-8191	255	
8472.743	1	1	0	0	0.045964	0.17654	0.094949	0.29001	0.20216	0.058861	0.34213	0.15418	0.21409	0.042229	0.091483	0.064652	0.051324	0.23433	0.33373	0.066057	-2.3146	-2.4625	-3.0542	-2.6542	-2.8812	-3.1479	-2.6542	-2.8917	-2.9479	-2.5938	-3.225	-2.9542	-2.7812	-3.2479	-2.55	-3.0875	193.363	251.077	292.219	396.931	408.940	391.018	98.452	390.381	426.427	248.061	277.554	176.620	432.042	429.725	251.452	310.817	0.00053914	0.0011318	0.00035407	224.84	2.5007e-05	1.9272e-05	242.42	76.494	2.4347e-05	1.2641e-05	109.92	56.949	34.688	14.555	2.7569e-05	26.872	0.0038611	0.0035471	0.00093047	1103.9	4.2189e-05	3.9234e-05	927.49	331.39	4.2379e-05	3.8633e-05	510.32	192.15	150.66	54.339	3.7345e-05	86.133	182.118	229.491	266.660	89.408	376.791	329.810	88.398	95.471	403.564	336.658	92.290	97.009	97.913	103.601	180.574	100.402	-8191	255	
8472.837	1	1	0	0	0.19273	0.31068	0.12602	0.07338	0.16385	0.16373	0.058863	0.091729	0.20158	0.31869	0.14769	0.19728	0.13772	0.3206	0.012894	0.13199	-2.5604	-2.5771	-3.0542	-2.9354	-2.8708	-3.1063	-2.8187	-3.0583	-2.975	-2.7167	-3.1104	-2.8625	-2.8021	-3.3979	-2.5646	-2.9146	244.678	201.525	406.725	414.697	376.349	430.175	297.305	151.210	435.553	248.600	309.328	368.718	205.076	119.689	122.899	299.703	0.0015341	0.0010876	0.00064019	214.97	2.7087e-05	1.3673e-05	244.35	74.389	4.5659e-05	6.3233e-06	114.09	54.415	34.373	14.44	6.1815e-05	26.25	0.0037714	0.0035081	0.00095959	1153.2	4.1333e-05	3.8847e-05	964.49	346.81	4.2102e-05	3.8927e-05	544.3	200.96	150.64	54.684	4.0929e-05	89.502	156.430	341.954	145.818	87.807	382.742	317.481	88.540	94.214	368.770	396.916	93.631	96.775	98.978	102.884	164.084	99.019	-8191	255	
8472.911	1	1	0	0	0.30068	0.16703	0.041059	0.14456	0.073364	0.23675	0.19176	0.060485	0.29018	0.2523	0.17673	0.13282	0.15022	0.19688	0.13661	0.19069	-2.775	-2.5604	-3.0021	-2.9125	-2.5792	-3.1583	-2.75	-2.7771	-3.1437	-2.7354	-3.0396	-3.0833	-2.5229	-3.3438	-2.775	-2.8458	245.863	299.930	338.478	113.481	122.778	253.736	388.855	320.894	125.027	302.763	235.084	394.017	314.224	362.443	276.775	331.687	0.00024354	0.002682	0.00098773	208.06	2.4856e-05	3.5437e-05	249.07	74.637	1.5464e-05	1.6954e-05	115.84	52.985	34.769	14.655	5.4397e-05	25.928	0.0038055	0.0035587	0.0010641	1201.7	4.1881e-05	3.9511e-05	1049.1	355.8	4.2255e-05	3.8929e-05	581.34	199.35	147.63	53.354	4.2889e-05	86.188	432.882	278.608	125.489	89.166	420.374	345.796	90.110	93.994	261.787	300.335	93.478	96.168	99.790	103.228	194.942	99.596	-8191	255	
8473.005	1	1	0	0	0.2186	0.2099	0.11039	0.27276	0.095385	0.079678	0.1147	0.040722	0.23756	0.19897	0.12669	0.24379	0.07664	0.12273	0.18907	0.070449	-2.6458	-2.6354	-2.7938	-2.75	-2.775	-3.1646	-2.7583	-2.8083	-2.9792	-2.6833	-2.9292	-2.8979	-2.8146	-3.0667	-2.9604	-2.7188	119.062	417.419	313.587	316.832	421.608	356.524	384.801	391.314	160.769	93.269	156.316	428.058	138.728	374.451	92.658	286.125	0.00049754	0.0017232	0.00051006	208.4	1.6106e-05	1.8903e-05	247.85	72.549	3.3556e-05	1.975e-05	115.55	52.987	34.469	15.144	2.5439e-05	25.965	0.0035808	0.0033692	0.0010743	1122	3.8432e-05	3.6679e-05	1034.9	325.79	3.8128e-05	3.6631e-05	573.1	185.72	138.79	52.154	4.3065e-05	82.034	241.013	76.518	165.357	88.283	339.316	144.144	88.779	94.211	359.037	250.121	92.355	96.873	98.785	103.069	143.787	99.497	-8191	255	
8473.103	1	1	0	0	0.062776	0.1259	0.14468	0.17227	0.093236	0.066227	0.32805	0.33764	0.40417	0.096408	0.081802	0.09891	0.066224	0.084462	0.032133	0.24787	-2.6167	-2.7062	-2.7667	-3.1292	-2.4938	-2.9958	-2.9083	-2.7167	-3.2604	-2.7562	-3.0292	-3.0812	-2.5771	-3.375	-2.7979	-2.7021	360.359	95.624	157.977	205.479	112.463	421.942	151.423	260.310	429.595	83.597	207.365	187.162	107.333	353.931	85.155	422.817	0.00071645	0.0038525	0.00049101	205.26	1.5996e-05	3.3273e-05	241.2	72.826	2.951e-05	4.6903e-05	108.78	53.162	34.778	15.416	6.5084e-06	26.562	0.0033812	0.0034008	0.0010836	1059.9	3.6252e-05	3.7023e-05	1030.7	307.63	3.5913e-05	3.7127e-05	560.27	175.66	130.92	52.632	4.1018e-05	77.036	398.901	120.856	174.822	89.003	344.890	173.256	88.574	93.753	379.585	189.086	92.105	96.198	98.133	103.460	227.370	99.909	-8191	255	
8473.222	1	1	0	0	0.10783	0.013227	0.17903	0.35937	0.031864	0.28889	0.17128	0.04225	0.24377	0.189	0.10444	0.22689	0.14999	0.15644	0.27317	0.091037	-2.6771	-2.5958	-2.6708	-3.0375	-2.6292	-3.0271	-2.8396	-2.5167	-3.0667	-2.6333	-2.9188	-2.9562	-2.7438	-2.9375	-3.0312	-2.3958	99.202	265.816	375.631	88.382	288.313	389.004	227.400	200.322	117.843	409.646	134.173	430.357	250.545	276.946	115.148	368.926	3.6329e-05	0.0043505	0.00019945	208.2	1.886e-05	5.4533e-05	237.65	73.452	6.0099e-06	2.8927e-05	107.08	53.939	35.719	15.179	2.7233e-05	26.136	0.0030982	0.0034053	0.0010155	990.4	3.3526e-05	3.7517e-05	980.2	290.17	3.3334e-05	3.7873e-05	528.54	166.42	124.94	53.012	3.8053e-05	73.59	428.070	119.167	293.973	88.762	354.123	169.605	87.984	93.778	412.604	190.459	92.534	97.302	97.991	103.370	372.788	99.574	-8191	255	
8473.318	1	1	0	0	0.15867	0.13046	0.23893	0.26216	0.20393	0.28456	0.27299	0.18393	0.11961	0.069803	0.048416	0.29348	0.12761	0.034341	0.081379	0.050726	-2.7021	-2.7438	-2.8208	-3.0042	-2.7	-2.8292	-2.925	-2.5521	-2.9813	-2.9062	-2.8625	-3.0271	-2.4542	-2.9083	-2.9062	-2.5521	344.982	400.837	373.590	413.747	293.750	292.352	158.022	356.690	135.543	197.480	157.077	367.464	265.565	344.633	255.108	143.428	0.0013824	0.0029751	0.00055371	207.97	2.2522e-05	2.1065e-05	236.68	73.574	4.2414e-05	1.5249e-05	105.92	53.006	35.593	14.857	1.5718e-05	25.854	0.0029546	0.0034808	0.00094824	944.28	3.2787e-05	3.8305e-05	933.7	278.97	3.3154e-05	3.8727e-05	503.65	160.93	126.8	54.051	3.6307e-05	71.478	381.643	109.859	316.603	88.488	213.958	164.216	87.508	92.783	168.897	193.325	93.495	96.549	100.026	103.256	385.768	99.536	-8191	255	
8473.414	1	1	0	0	0.25231	0.215	0.1554	0.057221	0.11259	0.23346	0.029662	0.2146	0.44484	0.10083	0.26627	0.049518	0.031465	0.067963	0.25822	0.14273	-2.7583	-2.8229	-2.6958	-2.85	-2.6188	-3.0062	-2.9583	-2.5604	-3.1646	-2.8354	-2.8	-3.0563	-2.4792	-2.8417	-3.0687	-2.4729	298.867	314.858	106.850	176.895	156.042	327.139	100.839	397.345	159.116	422.624	146.450	191.664	132.882	248.011	121.975	369.216	0.0025421	0.0012951	0.00045831	206.47	4.1603e-05	2.7417e-06	235.04	71.888	7.8513e-05	1.1388e-06	105.93	53.079	35.68	14.418	1.6954e-05	26.136	0.0030628	0.0035595	0.00090985	920	3.4679e-05	3.9018e-05	906.33	273.8	3.5283e-05	3.9292e-05	493.29	158.65	134.06	54.088	3.5399e-05	70.714	329.341	386.352	325.294	88.448	218.098	282.587	88.079	94.502	189.469	351.720	93.330	96.845	99.476	102.841	342.620	99.675	-8191	255	
8473.535	1	1	0	0	0.16124	0.24786	0.099397	0.077518	0.069286	0.18146	0.17862	0.29716	0.12975	0.20821	0.16437	0.30082	0.20463	0.08509	0.24973	0.14685	-2.6437	-2.7771	-2.6146	-3.2604	-2.5083	-2.95	-3.0875	-2.5646	-2.9354	-3.0417	-2.6208	-2.9354	-2.6958	-2.8125	-3.2604	-2.5771	280.022	265.245	119.924	407.580	198.860	289.010	319.300	419.511	164.298	409.747	256.214	149.599	422.548	202.060	188.291	108.821	0.003008	0.0028617	0.00049348	203.97	3.1201e-05	3.1158e-05	237.57	73.137	4.9495e-05	2.3194e-05	104.89	54.251	36.199	14.493	1.9501e-05	26.528	0.0033041	0.0035371	0.00089021	910.69	3.7364e-05	3.8397e-05	897.1	272.75	3.8069e-05	3.8526e-05	487.32	160.08	141.83	53.245	3.5206e-05	72.051	352.239	280.326	328.173	89.010	190.570	327.473	88.034	95.368	179.307	367.853	92.230	97.462	99.092	102.736	372.972	100.794	-8191	255	
8473.607	1	1	0	0	0.34833	0.10683	0.20898	0.14664	0.21283	0.20529	0.078631	0.051564	0.10882	0.1149	0.10891	0.15041	0.24278	0.06896	0.29542	0.12036	-2.2938	-2.9958	-2.6292	-2.9646	-2.7354	-2.7521	-3.2042	-2.4708	-3.0083	-2.9708	-2.5667	-3.0479	-2.9229	-2.6542	-3.0542	-2.6396	322.446	139.050	396.104	433.482	228.014	194.275	148.086	284.407	301.082	177.355	410.888	210.661	117.291	272.546	267.900	206.173	0.0017022	0.0025442	0.00045644	216.36	2.4179e-05	1.9396e-05	240.82	75.265	3.5233e-05	1.5708e-05	106.44	55.868	35.729	14.505	1.2555e-05	27.131	0.003546	0.0034628	0.00087959	933.68	3.9351e-05	3.6938e-05	881.69	279.42	3.9264e-05	3.6904e-05	473.92	164.32	144.71	51.372	3.3665e-05	73.908	340.674	312.802	363.595	88.917	195.103	336.987	88.354	94.969	165.755	383.847	92.462	97.801	98.689	102.677	359.180	100.547	-8191	255	
8473.703	1	1	0	0	0.16095	0.1731	0.18134	0.14231	0.15971	0.14606	0.17993	0.022784	0.26521	0.068241	0.1343	0.22527	0.21595	0.1433	0.22043	0.25923	-2.4188	-2.8312	-2.4167	-3.0292	-3.0521	-2.2771	-3.1937	-2.6042	-2.6958	-2.9667	-2.3417	-3.0417	-2.9375	-2.3417	-3.075	-2.7229	307.587	102.064	291.271	392.307	185.835	252.792	349.720	101.288	272.004	366.033	408.895	435.120	109.266	152.906	328.910	270.530	0.00014181	0.0017354	0.00037208	215.81	1.6872e-05	1.11e-05	237.79	76.785	2.1471e-05	1.2196e-05	108.42	55.43	34.554	14.476	5.2069e-06	27.235	0.0035106	0.0032264	0.00082679	949.08	3.8197e-05	3.446e-05	840.58	287.64	3.7765e-05	3.4522e-05	455.27	167.92	139.37	49.237	3.2175e-05	76.47	342.066	286.665	312.998	88.184	94.593	337.868	87.733	94.875	390.133	415.949	93.269	97.148	98.905	103.787	209.801	100.074	-8191	255	
8473.823	1	1	0	0	0.19611	0.21497	0.27768	0.14324	0.1257	0.13198	0.11504	0.21149	0.11341	0.20885	0.22402	0.17803	0.13026	0.18919	0.26209	0.29148	-2.3271	-2.925	-2.4875	-3.1854	-2.9104	-2.525	-3.1625	-2.7917	-2.7438	-2.9896	-2.6562	-2.9708	-2.9104	-2.4229	-3.1333	-2.8917	85.887	266.818	174.322	292.158	78.739	173.989	267.419	383.855	312.403	429.304	397.482	360.748	137.727	412.390	400.786	123.598	0.0010097	0.0014827	2.4198e-05	219.54	2.4481e-05	1.0759e-05	246.55	74.733	4.6209e-05	1.6222e-05	110.87	54.794	34.395	14.562	3.941e-05	26.409	0.0033854	0.003126	0.00082123	1002.6	3.7236e-05	3.3693e-05	836.85	299.04	3.5981e-05	3.3264e-05	450.41	171.75	133.09	47.425	3.1842e-05	77.039	149.340	297.445	239.547	89.723	389.477	339.754	88.788	94.361	351.854	368.900	93.243	97.421	98.417	102.907	166.375	100.676	-8191	255	
8473.918	1	1	0	0	0.039497	0.41886	0.022505	0.12889	0.074914	0.019101	0.09721	0.057062	0.17271	0.11793	0.24364	0.16081	0.084675	0.037787	0.27589	0.19824	-2.1396	-3.0708	-2.6021	-2.8312	-3.0271	-2.6771	-3.0521	-2.875	-2.6229	-3.1021	-2.75	-2.9521	-2.8875	-2.5042	-2.9458	-2.975	119.548	395.503	339.860	360.245	209.330	126.783	310.712	347.932	211.283	396.134	347.131	362.465	269.189	198.940	243.660	244.009	0.00058411	0.0003474	0.00054056	211.65	1.7553e-05	1.8617e-05	247.29	73.395	1.336e-05	1.1992e-05	117.19	54.373	34.417	14.418	4.6211e-05	25.945	0.00314	0.0029461	0.00081203	998.29	3.4302e-05	3.1352e-05	837.65	297.32	3.3162e-05	3.1064e-05	453.69	168.23	124.72	44.886	3.217e-05	74.937	186.680	273.972	157.497	88.728	390.128	318.524	89.561	94.964	363.050	397.309	93.589	97.042	99.033	102.651	181.705	99.821	-8191	255	
8474.016	1	1	0	0	0.11241	0.1633	0.014418	0.14089	0.10909	0.43771	0.20399	0.13483	0.28073	0.16184	0.047412	0.18697	0.23474	0.16254	0.1015	0.085937	-2.1583	-3	-2.5333	-2.7458	-3.0375	-2.6125	-2.7271	-2.7354	-2.5708	-3.0396	-2.6875	-2.6813	-3.0604	-2.4708	-2.9208	-2.7375	333.722	288.507	220.921	434.530	361.698	194.430	124.938	425.926	128.360	336.326	349.516	145.832	80.660	299.979	166.863	221.418	0.0008722	0.001334	0.00101	207.02	1.2634e-05	9.5931e-06	249.99	72.927	2.8095e-05	8.9231e-06	114.26	53.461	34.732	14.749	5.0357e-05	25.881	0.0029044	0.0027369	0.00083422	962.75	3.212e-05	2.9758e-05	861.21	288.58	3.1642e-05	2.9894e-05	477.24	164.81	122.44	44.722	3.4373e-05	73.866	427.366	294.635	150.999	88.325	346.484	311.926	90.128	93.725	383.741	337.861	93.744	97.264	98.944	103.234	177.502	99.711	-8191	255	
8474.135	1	1	0	0	0.18928	0.10368	0.20165	0.26242	0.11541	0.30742	0.099351	0.072345	0.28887	0.20222	0.095472	0.14413	0.20187	0.33018	0.10814	0.14444	-1.8729	-3.0583	-2.775	-2.475	-2.9979	-2.4854	-2.6604	-2.875	-2.2729	-2.9938	-2.8729	-2.5187	-2.9938	-2.4813	-2.8542	-3.0875	270.622	373.033	245.802	433.858	286.313	283.282	274.404	429.820	82.938	163.669	105.667	267.574	399.558	97.788	278.479	321.019	0.00041289	0.00066064	0.00078765	205.83	1.504e-05	1.6234e-05	247.91	73.754	2.0143e-05	2.9929e-05	113.88	54.471	35.37	15.207	1.0134e-05	26.58	0.0028562	0.0027424	0.00089179	943.44	3.1457e-05	3.0236e-05	901.77	281.84	3.1122e-05	3.0516e-05	498.22	161.84	120.71	45.94	3.5683e-05	72.134	94.316	173.977	168.237	88.030	349.485	145.126	89.382	93.857	367.375	187.388	93.213	96.933	99.085	102.825	173.723	98.911	-8191	255	
8474.206	1	1	0	0	0.23506	0.067533	0.096587	0.2678	0.25939	0.26769	0.17951	0.18233	0.27073	0.25733	0.071109	0.18851	0.1134	0.35681	0.092839	0.096831	-1.9438	-2.9354	-2.7625	-2.6375	-3.1667	-2.8125	-2.6979	-2.9646	-2.6208	-2.9521	-2.7354	-2.7125	-3.1167	-2.6771	-2.9479	-3.0979	394.721	238.305	394.205	379.490	243.940	340.340	367.736	143.157	417.641	352.727	89.257	178.521	146.000	399.591	85.232	413.008	0.00049597	0.0043275	0.00033779	206.88	6.4293e-06	3.2152e-05	245.86	74.839	2.113e-05	3.0234e-05	111.68	54.533	35.108	15.35	1.5837e-05	26.647	0.0027761	0.0028364	0.00091306	913.63	3.0542e-05	3.1798e-05	912.14	274.56	3.0206e-05	3.2128e-05	498.6	156.44	117.02	47.555	3.4884e-05	69.362	319.687	120.900	140.458	88.696	399.413	161.158	87.636	93.454	299.760	188.746	91.972	97.066	99.206	103.371	357.980	99.781	-8191	255	
8474.302	1	1	0	0	0.24225	0.042412	0.090965	0.090877	0.11566	0.21398	0.26829	0.060892	0.20436	0.24707	0.11343	0.21037	0.0903	0.12962	0.058717	0.021945	-2.1042	-2.9417	-3.0104	-2.5875	-3.1083	-2.8125	-2.8979	-3.0104	-2.4125	-2.9437	-2.9792	-2.7333	-3.1146	-2.5417	-2.6813	-3.1833	363.735	146.703	189.079	77.801	109.284	268.382	322.186	156.099	357.268	148.446	411.658	259.461	263.738	113.845	155.530	291.912	9.5432e-05	0.0039357	0.0005835	208.35	1.8463e-05	3.1503e-05	245.11	74.776	1.7199e-05	2.3878e-05	110.92	54.428	35.776	15.096	1.7915e-05	26.522	0.0026333	0.0029436	0.0008681	867.74	2.8569e-05	3.2293e-05	860.2	257.29	2.795e-05	3.2202e-05	463.58	147.28	111.67	47.687	3.2043e-05	66.306	233.364	128.719	318.513	88.150	351.533	168.804	88.240	94.258	163.165	199.418	91.287	97.146	99.000	102.961	334.677	99.778	-8191	255	
8474.423	1	1	0	0	0.32334	0.20314	0.2006	0.20073	0.10495	0.2538	0.20463	0.17044	0.043181	0.19588	0.13519	0.30255	0.16305	0.035116	0.06189	0.21153	-1.9813	-2.8917	-2.7854	-2.3625	-2.9583	-2.85	-2.6813	-2.95	-2.6208	-2.9188	-2.975	-2.6646	-3.3083	-2.7271	-2.325	-3.1375	213.932	358.155	123.771	344.341	134.389	317.814	285.439	347.914	298.162	173.168	407.428	353.609	248.773	113.584	316.091	420.913	0.0017228	0.0023418	0.00047977	212.06	1.614e-05	1.8568e-05	245.52	73.635	4.0925e-05	5.0734e-06	108.82	54.142	36.454	14.91	2.7119e-05	26.159	0.0025853	0.003074	0.00084416	864.41	3.0064e-05	3.5531e-05	875.42	266.46	3.134e-05	3.6461e-05	482.96	154.47	123.38	52.375	3.3983e-05	69.079	354.039	139.856	359.405	89.019	226.323	150.751	88.240	93.543	147.891	168.884	91.608	97.224	98.840	103.363	358.763	99.531	-8191	255	
8474.519	1	1	0	0	0.33384	0.068974	0.25515	0.13853	0.2749	0.17868	0.19064	0.13498	0.17661	0.21917	0.12449	0.13758	0.081783	0.12149	0.011444	0.079048	-2.2188	-2.7896	-2.9313	-2.4292	-3.0708	-3.0146	-2.7021	-3.1396	-2.6833	-2.5896	-3.0312	-2.7458	-3.1813	-2.7854	-2.3812	-3.0833	76.712	416.420	412.929	422.461	270.454	93.503	93.182	153.359	143.227	236.211	110.554	195.254	134.417	209.088	400.045	254.523	0.0027081	0.00017296	0.00049601	211.4	2.0542e-05	1.2555e-05	243.81	75.418	6.4603e-05	1.3609e-05	110.7	55.209	37.467	14.931	7.2753e-06	26.436	0.0029448	0.0033356	0.00084937	873.71	3.2641e-05	3.6477e-05	861.82	262.4	3.3384e-05	3.6267e-05	470.75	151.91	129.81	51.864	3.2756e-05	67.952	349.923	421.165	344.234	88.521	227.450	327.015	87.634	94.294	215.561	388.978	92.329	96.718	98.636	103.473	354.527	100.353	-8191	255	
8474.615	1	1	0	0	0.18954	0.45832	0.27062	0.099171	0.23105	0.13162	0.21613	0.15972	0.09058	0.21393	0.16424	0.27866	0.17911	0.12519	0.12405	0.11385	-2.2083	-2.5438	-2.8479	-2.5	-3.0146	-2.8479	-2.4625	-3.1312	-2.8063	-2.5958	-2.9437	-2.3521	-3.0167	-2.8729	-2.4813	-2.9042	348.008	416.633	210.231	431.671	162.261	379.189	278.212	357.175	233.313	425.766	214.317	197.892	420.546	272.354	279.262	114.716	0.002693	0.0017638	0.0003459	215.3	3.5524e-05	1.2157e-05	245.48	76.327	5.2244e-05	1.2603e-05	111.2	56.585	36.765	14.675	4.2972e-06	27.338	0.0031073	0.0032137	0.00081498	851.82	3.4106e-05	3.4609e-05	835.34	256.93	3.4614e-05	3.414e-05	452.09	150.33	132.5	49.593	3.131e-05	67.945	341.417	322.764	294.047	89.261	210.244	339.194	88.272	94.620	168.136	373.836	91.630	97.206	99.038	103.115	384.057	100.106	-8191	255	
8474.711	1	1	0	0	0.10803	0.26941	0.16818	0.15865	0.095705	0.094748	0.15396	0.10022	0.34153	0.25682	0.14919	0.24588	0.22821	0.051052	0.085127	0.19744	-2.0687	-2.7438	-3.1146	-2.5896	-2.7687	-2.9146	-2.3521	-2.8125	-2.95	-2.6312	-3	-2.4875	-2.775	-3.1458	-2.4229	-2.9	301.404	340.359	78.168	140.130	351.078	373.029	292.586	128.250	116.407	377.926	273.016	429.614	280.826	376.451	262.297	267.413	0.0014175	0.0025226	0.00031669	223.07	2.6119e-05	2.8016e-05	247.71	78.397	2.09e-05	1.4333e-05	109.29	57.082	36.084	14.837	1.6581e-05	27.527	0.0032145	0.0030675	0.00079016	872.56	3.5521e-05	3.3431e-05	820.97	264.61	3.579e-05	3.3004e-05	444.77	156.08	134.92	48.38	3.0695e-05	70.669	349.931	301.508	335.351	88.668	160.464	366.914	87.516	95.413	431.161	365.108	93.666	96.940	98.842	102.658	360.587	100.640	-8191	255	
8474.808	1	1	0	0	0.28326	0.10815	0.24556	0.15649	0.060979	0.1419	0.21134	0.094995	0.099251	0.21402	0.22702	0.11486	0.050168	0.039019	0.14904	0.20633	-2.4396	-2.6979	-3.0458	-2.6667	-2.5438	-2.9271	-2.5729	-2.9979	-2.95	-2.5271	-2.8667	-2.7062	-3.075	-3.1583	-2.5167	-2.8271	345.352	278.663	412.306	95.047	347.623	118.306	247.690	394.549	396.193	190.038	280.780	404.429	336.677	411.709	86.791	77.872	0.00015575	0.0015184	0.0001925	223	3.1563e-06	1.5077e-05	247.62	78.794	2.874e-05	1.6274e-05	112.94	56.815	35.898	14.619	1.3308e-05	27.115	0.0032644	0.0029918	0.00077911	928.2	3.6254e-05	3.3219e-05	823.58	284.46	3.6522e-05	3.3169e-05	448.35	167.02	136.2	48.776	3.1475e-05	75.856	132.115	295.015	350.658	89.260	307.241	327.330	88.717	94.747	317.159	388.272	92.470	97.323	98.336	103.292	247.383	100.243	-8191	255	
8474.902	1	1	0	0	0.098771	0.17361	0.11535	0.20167	0.13372	0.10381	0.25802	0.086349	0.11507	0.18023	0.22275	0.14132	0.063774	0.28432	0.0068686	0.19606	-2.4146	-2.6	-3.1521	-2.6667	-2.6896	-2.8812	-2.5146	-2.9396	-2.8271	-2.7083	-2.9625	-2.7958	-2.5583	-3.1	-2.4167	-2.9833	347.194	321.978	132.241	322.572	166.669	314.604	200.170	272.371	269.597	254.039	273.563	144.992	78.100	394.034	362.241	360.058	0.00080822	0.0012806	0.0002789	223.27	2.1431e-05	5.0704e-06	248.48	77.509	3.6714e-05	1.7353e-05	115.33	56.021	35.822	14.892	3.2559e-05	27.291	0.0033131	0.0030574	0.00080942	1010.3	3.6465e-05	3.344e-05	842.45	301.03	3.5699e-05	3.2664e-05	454.44	172.95	131.73	47.505	3.1774e-05	76.937	114.255	269.412	432.968	88.972	358.848	341.668	88.975	94.820	346.986	375.327	93.151	97.123	99.102	103.325	168.991	99.992	-8191	255	
8474.998	1	1	0	0	0.046996	0.12216	0.13629	0.25109	0.16241	0.034142	0.11051	0.23039	0.075877	0.25227	0.13281	0.21268	0.13886	0.089654	0.19815	0.10447	-2.5625	-2.6917	-3.0125	-2.7	-2.7104	-3.2354	-2.4729	-2.7771	-2.8375	-2.25	-3.0375	-2.9437	-2.5125	-3.0062	-2.5146	-3.0583	371.587	348.312	268.149	401.837	211.125	340.783	78.643	359.002	322.372	257.751	360.652	415.877	76.968	267.662	226.650	422.632	9.472e-05	0.0018125	0.00063566	218.06	1.6227e-05	1.16e-05	255.71	76.977	2.7687e-05	1.1686e-05	119.42	55.485	36.11	14.905	5.7962e-05	26.738	0.0031129	0.0028997	0.00081779	1011.9	3.4196e-05	3.1996e-05	864.69	304.39	3.4266e-05	3.1815e-05	477.08	175.98	129.81	47.157	3.468e-05	78.282	327.850	311.637	159.955	89.079	384.288	366.626	89.674	94.570	350.504	79.636	92.733	96.806	98.560	102.456	164.966	99.636	-8191	255	
8475.096	1	1	0	0	0.24833	0.18953	0.022086	0.18124	0.33419	0.21823	0.20915	0.17276	0.1617	0.062418	0.12912	0.22595	0.14085	0.15538	0.011115	0.073035	-2.3729	-2.6458	-2.8479	-2.9167	-2.5229	-3.0458	-2.6396	-2.875	-3.1208	-2.5292	-3.0292	-2.9188	-2.5083	-3.125	-2.7354	-2.7438	242.781	91.521	131.884	381.446	180.462	240.011	416.299	173.567	433.487	408.810	275.033	155.217	308.515	281.162	110.813	358.830	0.00063246	0.00057301	0.0011526	214.35	5.6015e-06	1.1156e-05	258.53	74.356	6.4534e-06	8.0343e-06	118.49	55.389	36.204	15.037	2.9119e-05	26.856	0.0031002	0.002913	0.00089719	1024.9	3.3952e-05	3.1887e-05	926.9	304.85	3.4327e-05	3.2069e-05	511.67	175.26	129.47	47.554	3.7361e-05	77.276	215.625	195.642	138.971	88.452	310.159	321.916	89.703	94.512	384.586	390.557	92.323	96.344	99.337	103.675	163.578	98.945	-8191	255	
8475.215	1	1	0	0	0.34122	0.16699	0.10731	0.15129	0.26469	0.22731	0.23995	0.19367	0.14701	0.14881	0.33168	0.23735	0.23739	0.09211	0.096268	0.10258	-2.5333	-2.6063	-2.875	-2.9979	-2.5687	-2.9854	-2.8083	-2.6542	-3.1771	-2.6521	-2.8063	-3	-2.4771	-3.0125	-2.7792	-2.5833	314.607	265.463	292.076	344.375	311.607	189.107	282.476	103.577	141.102	82.918	347.414	317.285	289.132	373.915	266.228	102.637	0.0013598	0.0031507	0.00059792	213.76	2.1685e-05	1.4327e-05	254.31	74.621	1.6698e-05	3.0199e-05	117.25	54.759	35.817	15.499	1.8329e-05	26.404	0.0030426	0.0029328	0.00095089	996.13	3.3077e-05	3.222e-05	953.55	292.87	3.2972e-05	3.2434e-05	523.3	168.42	124.76	48.192	3.8103e-05	74.173	159.092	123.796	153.012	87.886	383.599	194.924	88.851	94.244	343.331	214.545	93.194	96.587	98.637	103.105	153.115	99.878	-8191	255	
8475.311	1	1	0	0	0.20245	0.24284	0.049117	0.25655	0.15928	0.13713	0.17142	0.52926	0.12422	0.079483	0.07071	0.21328	0.070601	0.13791	0.17106	0.22682	-2.7729	-2.5792	-2.8187	-2.9396	-2.4375	-3.1312	-2.7812	-2.4958	-3.05	-2.6188	-2.7292	-3.0875	-2.4188	-2.9542	-3.0042	-2.5646	359.708	233.587	388.785	378.322	130.507	147.366	350.342	241.210	325.658	342.354	367.260	234.690	127.964	271.211	229.630	397.565	0.0007319	0.0037091	5.9023e-05	209.27	1.1291e-05	3.1135e-05	250.13	75.07	1.5446e-06	3.0477e-05	109.21	54.732	35.408	15.414	2.2939e-05	26.344	0.0029269	0.0030537	0.00096765	963.59	3.2254e-05	3.4283e-05	966.69	284.92	3.2208e-05	3.4747e-05	522.14	163.91	122.37	50.254	3.7402e-05	72.118	197.631	132.787	346.458	88.116	426.126	177.544	88.045	94.288	428.079	203.826	91.996	96.644	98.054	102.936	368.200	99.466	-8191	255	
8475.407	1	1	0	0	0.17924	0.049173	0.23728	0.039155	0.1175	0.17226	0.15755	0.16773	0.073229	0.040152	0.27997	0.24455	0.10382	0.33181	0.16358	0.010755	-2.5729	-2.5917	-2.9146	-2.9938	-2.5375	-3.0146	-2.8021	-2.5917	-3.1458	-2.9021	-2.725	-3.0812	-2.5	-3.0792	-3.1188	-2.5875	375.229	171.809	212.982	397.983	382.951	357.342	428.021	215.306	350.938	281.297	258.511	381.021	225.461	343.517	370.651	320.658	0.00039129	0.0023282	0.00046722	210.35	1.1842e-05	3.317e-05	243.57	73.342	2.778e-05	3.0451e-05	109.82	54.453	36.626	15.21	2.4522e-05	26.201	0.002829	0.0032238	0.00093124	923.85	3.1053e-05	3.5606e-05	925.38	274.24	3.0986e-05	3.6178e-05	501.09	158.91	121.57	52.139	3.593e-05	70.934	374.975	117.333	342.986	88.546	277.036	165.316	87.446	94.285	181.699	170.061	92.597	96.964	98.595	103.588	357.914	99.536	-8191	255	
8475.503	1	1	0	0	0.085882	0.17894	0.07974	0.30848	0.27403	0.25549	0.10456	0.19854	0.15289	0.27819	0.25465	0.35594	0.11814	0.035656	0.16316	0.16235	-2.7104	-2.5563	-2.6167	-3.0375	-2.5812	-2.8896	-2.8396	-2.6	-2.8625	-2.7896	-2.4854	-3.0542	-2.4729	-2.7083	-3.0354	-2.7375	276.134	402.121	226.839	269.972	155.041	96.411	346.518	101.169	137.487	83.901	263.178	338.790	358.220	281.624	83.884	343.760	0.0017499	0.0022339	0.00053285	212.18	2.8306e-05	8.7665e-06	243.45	74.092	4.0731e-05	5.8577e-06	109.8	55.001	37.065	14.88	2.5439e-05	26.482	0.0028745	0.0034218	0.00091061	920.02	3.2694e-05	3.8208e-05	918.07	275.14	3.3117e-05	3.8637e-05	496.29	159.61	128.97	54.47	3.5711e-05	71.192	351.446	111.019	326.058	88.490	196.333	159.622	87.684	94.498	185.251	123.204	92.366	96.257	99.370	102.488	405.227	99.704	-8191	255	
8475.599	1	1	0	0	0.23926	0.20937	0.058354	0.35719	0.13297	0.054335	0.25165	0.056563	0.09849	0.19306	0.29508	0.16504	0.1557	0.14663	0.24449	0.20324	-2.5667	-2.9854	-2.5146	-2.9562	-2.6875	-2.9417	-3.125	-2.4146	-2.9667	-3.0479	-2.6437	-2.9833	-2.8271	-2.6417	-2.8875	-2.5583	228.851	262.092	394.691	375.258	419.136	376.476	361.008	189.937	264.484	205.625	407.148	351.997	369.784	97.694	371.607	364.449	0.0025528	0.00075263	0.00053849	214.83	4.8339e-05	8.1801e-06	244.87	74.127	4.5995e-05	1.5502e-05	109.75	55.505	37.768	14.789	1.5628e-05	27.063	0.0031443	0.0035808	0.00090377	921.98	3.5643e-05	3.9234e-05	915.2	275.37	3.6557e-05	3.9486e-05	496.11	161.06	139.17	54.858	3.5939e-05	72.118	346.039	414.342	392.310	88.588	193.310	381.780	87.462	94.695	178.602	367.867	92.715	96.716	99.312	102.668	298.006	99.747	-8191	255	
8475.696	1	1	0	0	0.1434	0.25272	0.21976	0.033009	0.26356	0.019913	0.20034	0.23291	0.14136	0.31152	0.068833	0.28962	0.15814	0.30665	0.2097	0.17533	-2.4979	-2.9729	-2.5396	-3.2521	-2.6979	-2.9146	-3.075	-2.725	-3.0604	-2.9646	-2.7146	-3.0396	-2.9688	-2.6958	-3.0625	-2.7375	349.531	175.367	272.208	198.522	301.833	360.701	317.590	255.946	409.108	353.091	179.626	275.264	371.965	131.746	287.862	365.792	0.0035728	0.0017562	0.00029871	216.04	4.0787e-05	2.7235e-05	244.87	76.581	3.3969e-05	2.1257e-05	111.28	56.539	36.983	14.578	1.8776e-05	27.079	0.0034654	0.0036159	0.0009142	942.19	3.9623e-05	3.9458e-05	919.8	283.31	3.9734e-05	3.8907e-05	494.09	163.24	146.05	53.516	3.5107e-05	73.704	338.438	300.354	331.336	88.763	201.613	351.951	88.111	94.506	192.404	379.397	92.227	97.650	99.090	103.324	347.046	100.749	-8191	255	
8475.816	1	1	0	0	0.15398	0.39287	0.13313	0.2747	0.11867	0.05793	0.1781	0.19172	0.20587	0.19495	0.16481	0.09891	0.1578	0.10884	0.22518	0.39665	-2.3104	-2.9854	-2.3458	-2.9979	-2.8854	-2.7313	-3.0042	-2.7208	-2.8458	-2.9208	-2.7271	-2.9938	-2.7208	-2.6875	-3.1354	-2.7625	165.003	372.647	383.971	354.883	166.453	131.336	156.077	355.663	144.469	282.074	314.426	106.510	93.856	305.118	153.606	169.747	0.0015622	0.0027052	0.00041266	224.12	8.0874e-06	2.5202e-05	243.8	77.5	1.3029e-05	1.7308e-05	109.98	56.727	36.221	14.676	2.3073e-05	27.122	0.0036328	0.0034638	0.00088999	963.33	4.0582e-05	3.7399e-05	891.01	289.56	3.9813e-05	3.636e-05	473.14	166.54	144.91	50.887	3.3265e-05	75.368	340.923	306.076	344.522	89.781	281.145	342.341	87.949	95.775	252.746	355.162	93.616	97.187	97.967	103.597	320.094	100.122	-8191	255	
8475.912	1	1	0	0	0.066551	0.23896	0.15132	0.11556	0.22018	0.18135	0.15121	0.21174	0.077163	0.25622	0.089396	0.053755	0.33296	0.27298	0.10222	0.082008	-2.45	-2.9646	-2.4979	-3.125	-2.9896	-2.75	-3.0146	-2.8125	-2.9021	-2.9771	-2.6708	-2.9958	-2.6833	-2.7583	-3.2479	-2.6729	411.088	140.380	405.476	79.796	156.992	346.650	282.114	143.763	292.423	337.187	268.127	247.208	168.657	291.336	257.878	373.911	0.00046597	0.0019783	0.00038532	228.31	1.628e-05	1.7656e-05	247.24	78.803	4.5514e-05	4.1386e-06	111.22	56.529	35.419	14.638	6.6113e-06	27.266	0.0035393	0.0032509	0.00084549	996.11	3.9297e-05	3.5474e-05	861.54	301.53	3.8584e-05	3.4986e-05	463.56	173.45	140.24	49.446	3.2322e-05	77.597	262.102	312.899	362.169	88.501	369.247	296.503	87.406	95.642	311.029	368.279	93.129	97.295	98.411	103.141	216.878	99.798	-8191	255	
8476.007	1	1	0	0	0.029952	0.2129	0.3277	0.19882	0.058324	0.009723	0.17238	0.064363	0.19493	0.043544	0.045921	0.18588	0.13976	0.081621	0.11955	0.37531	-2.2667	-2.9792	-2.6354	-3.1042	-2.9729	-2.5479	-3.1625	-2.7	-2.6937	-3.1292	-2.6125	-3.0229	-2.9646	-2.675	-2.9792	-2.8542	111.679	127.140	185.444	392.278	317.856	206.617	245.295	387.840	96.870	320.767	196.411	413.883	425.352	421.859	254.793	387.259	0.0011419	0.0013946	0.00023962	224.37	2.2052e-05	1.0212e-05	248.84	77.209	3.3342e-05	1.4641e-05	115.47	56.428	35.268	14.61	3.0569e-05	26.926	0.003312	0.0030566	0.0008075	1001.8	3.5818e-05	3.2607e-05	831.52	298.47	3.4567e-05	3.1846e-05	446.4	169.87	128.54	45.858	3.0958e-05	75.59	162.652	278.036	158.548	89.449	379.233	347.325	89.155	95.248	350.776	412.214	93.165	96.906	98.833	103.274	177.800	99.950	-8191	255	
8476.078	1	1	0	0	0.046427	0.13538	0.19023	0.16418	0.23997	0.20591	0.1492	0.23935	0.0090829	0.11261	0.076124	0.15084	0.067093	0.081985	0.22159	0.081365	-2.3312	-2.9917	-2.6875	-2.7542	-2.9938	-2.6021	-3.0187	-2.7958	-2.6875	-3.1083	-2.7917	-2.9958	-3.1146	-2.6479	-3.0458	-2.7917	185.038	391.858	160.679	397.857	410.754	119.798	342.316	79.204	202.651	324.786	378.372	173.303	145.626	115.583	292.136	315.940	0.0015977	0.0005114	0.00093275	217.67	1.9967e-05	2.375e-05	255.72	76.286	2.9646e-05	1.4603e-05	118.41	55.712	35.553	14.981	4.7565e-05	26.93	0.002963	0.0027672	0.00078962	969.13	3.2169e-05	2.9778e-05	831.29	289.9	3.1717e-05	2.964e-05	458.24	167.45	123.42	44.628	3.2545e-05	74.848	115.346	324.236	138.486	88.896	389.048	343.681	89.272	94.544	361.859	337.535	92.899	96.857	98.695	102.723	164.660	99.343	-8191	255	
8476.199	1	1	0	0	0.021886	0.49919	0.22621	0.22586	0.12338	0.24765	0.055967	0.1944	0.2324	0.14474	0.12339	0.23392	0.19872	0.078873	0.11113	0.23549	-2.0458	-2.9396	-2.6271	-2.6896	-3.2042	-2.6292	-2.9	-2.9542	-2.5479	-2.9229	-2.8563	-2.8333	-2.8625	-2.5542	-2.9313	-3.0792	394.262	377.032	323.204	113.643	159.123	159.814	397.415	336.722	205.009	216.096	165.656	403.265	309.024	333.152	92.523	392.561	0.0004529	0.00092928	0.0008725	211.16	6.1978e-06	3.0446e-06	256.73	74.951	1.7077e-05	1.1226e-05	118.72	55.479	35.633	15.057	2.8371e-05	26.428	0.0028446	0.0026781	0.00083804	949.06	3.1035e-05	2.8992e-05	867.67	282.09	3.0452e-05	2.8892e-05	476.31	162.01	119.91	44.247	3.3957e-05	72.083	203.347	325.848	169.966	89.236	331.357	208.350	89.787	93.318	372.178	172.676	92.610	96.874	98.845	102.719	175.185	99.163	-8191	255	
8476.295	1	1	0	0	0.13693	0.16568	0.029655	0.33955	0.012609	0.26759	0.1954	0.22649	0.16045	0.079456	0.14957	0.23742	0.023078	0.029088	0.076263	0.20099	-1.95	-2.8854	-2.6688	-2.5687	-2.975	-2.5375	-2.6958	-3.0563	-2.4667	-3.0917	-2.7979	-2.5854	-3.1604	-2.7104	-2.8542	-3.0917	392.934	143.445	184.703	386.782	321.937	160.077	305.239	412.527	239.989	298.861	178.728	411.124	311.893	386.151	227.969	115.329	0.0007986	0.0011796	0.00046752	214.79	7.403e-06	1.896e-05	252.35	75.158	1.687e-05	2.378e-05	113.89	55.123	36.126	15.35	7.8768e-06	26.238	0.00274	0.0026659	0.00086934	909.76	2.973e-05	2.914e-05	880.99	268.66	2.9169e-05	2.9271e-05	482.9	155.26	116.24	45.22	3.4434e-05	69.55	190.866	135.240	143.641	88.516	353.719	177.059	88.913	94.086	340.060	202.692	93.229	96.218	98.524	102.284	260.109	99.742	-8191	255	
8476.391	1	1	0	0	0.37252	0.088397	0.095741	0.12454	0.11391	0.18378	0.19414	0.073016	0.21964	0.21776	0.13805	0.15182	0.057034	0.20688	0.10395	0.20409	-2.0792	-3.0396	-2.9333	-2.5187	-3.0917	-2.5771	-2.8167	-3.0604	-2.2438	-2.9333	-3.0104	-2.4958	-3.1437	-2.8063	-2.8583	-2.9292	401.713	219.305	316.890	107.029	324.552	171.184	270.534	210.043	407.254	330.898	131.356	355.976	292.241	406.815	318.667	182.860	0.00079496	0.0031629	8.2817e-05	214.26	1.2266e-05	3.4034e-05	247.9	75.158	1.7558e-05	1.9313e-05	110.17	55.346	35.754	15.405	2.1193e-05	26.563	0.0026502	0.0027864	0.00087779	880.94	2.8767e-05	3.0836e-05	875.15	259.95	2.8032e-05	3.0617e-05	469.69	148.86	111.32	46.187	3.2562e-05	66.581	381.463	136.017	341.043	88.833	361.725	171.160	88.992	94.128	368.052	197.973	92.922	96.300	99.085	103.216	329.361	100.038	-8191	255	
8476.488	1	1	0	0	0.26242	0.19179	0.22327	0.23522	0.15733	0.061755	0.20005	0.12828	0.12984	0.099876	0.18321	0.27755	0.11618	0.067029	0.021649	0.12053	-2.0271	-2.7729	-2.7833	-2.5187	-3.1604	-2.5187	-2.8563	-2.8229	-2.5062	-3.0812	-2.8396	-2.7604	-3.0167	-2.6833	-2.5104	-3.2313	286.679	276.249	253.246	433.095	345.415	431.523	303.244	353.989	98.038	424.874	340.901	359.531	377.557	352.853	294.749	249.324	0.00053789	0.0033323	0.00048678	214.03	5.8057e-06	2.0687e-05	248.21	75.504	3.2088e-05	2.1525e-05	112.42	55.395	37.077	15.096	3.0059e-05	26.906	0.0024982	0.0028679	0.00082379	840.81	2.7442e-05	3.1882e-05	841.71	251.5	2.7517e-05	3.1993e-05	451.93	145.62	110.96	47.306	3.0629e-05	64.601	435.138	127.953	292.309	88.034	274.807	157.919	87.512	93.412	213.635	187.620	92.740	96.501	99.158	103.508	350.451	99.907	-8191	255	
8476.608	1	1	0	0	0.10641	0.23902	0.096104	0.072818	0.24093	0.26303	0.17696	0.097572	0.21977	0.29923	0.080321	0.22399	0.22366	0.13663	0.14825	0.26021	-1.9688	-2.6771	-2.8917	-2.4688	-3.2875	-2.6771	-2.8625	-3.1875	-2.5667	-2.8875	-3.0417	-2.5458	-2.9771	-2.7542	-2.6583	-2.9062	435.040	434.642	290.567	118.745	350.966	203.374	139.679	224.955	317.240	181.338	396.101	267.680	193.194	229.893	195.670	309.553	0.0017555	0.002024	0.00065329	214.37	3.1343e-05	1.3419e-05	247.39	75.882	3.2991e-05	6.5068e-06	113.06	56.281	37.429	14.812	1.905e-05	26.679	0.0024911	0.0028993	0.00076248	798.11	2.698e-05	3.1245e-05	784.65	235.91	2.683e-05	3.0308e-05	412.12	135.81	107.69	44.747	2.6845e-05	59.88	336.122	112.152	335.198	89.035	200.883	224.839	87.487	93.914	159.997	291.009	92.302	96.249	99.160	103.951	314.871	99.460	-8191	255	
8476.704	1	1	0	0	0.17534	0.012993	0.092252	0.071418	0.213	0.22322	0.24832	0.21043	0.3015	0.12778	0.17108	0.26218	0.10372	0.21506	0.25748	0.12897	-2.1917	-2.8312	-3	-2.4771	-2.8187	-2.825	-2.6896	-2.9688	-2.5396	-2.6542	-3.1354	-2.6396	-2.8063	-2.7896	-2.3875	-2.9021	101.670	181.270	113.479	348.373	124.792	197.652	354.612	422.709	321.273	360.589	414.159	246.902	295.086	158.120	149.095	370.530	0.0028437	9.3266e-05	0.00033938	213.04	1.7693e-05	9.4305e-06	249.12	76.383	3.8309e-05	1.5373e-05	112.26	56.099	37.139	14.866	1.5511e-05	26.961	0.0024042	0.0026477	0.00067032	734.06	2.645e-05	2.8638e-05	732.37	220.75	2.6875e-05	2.814e-05	388.21	130.07	109.21	42.713	2.5139e-05	57.969	364.510	429.473	349.978	88.500	201.445	331.634	88.437	94.075	176.390	334.159	92.746	97.138	98.759	102.336	335.062	100.228	-8191	255	
8476.776	1	1	0	0	0.060759	0.088157	0.18753	0.075921	0.12156	0.095825	0.08533	0.1079	0.055691	0.2568	0.29631	0.090787	0.054475	0.0098912	0.12657	0.38379	-1.9312	-2.6146	-2.8937	-2.4771	-2.9104	-2.7729	-2.5687	-3.0938	-2.4833	-2.75	-3.0812	-2.2438	-2.75	-3.0417	-2.4313	-3.0792	133.633	305.882	420.544	79.207	128.896	299.908	417.611	179.573	241.290	388.086	414.001	329.109	163.833	391.100	80.008	404.920	0.00099246	0.0010345	0.0001222	215.27	2.0356e-05	1.1555e-05	249.3	77.096	2.3781e-05	1.3823e-05	113.6	57.325	36.238	14.636	2.1574e-05	27.117	0.0024568	0.0024696	0.000631	712.09	2.7e-05	2.6581e-05	703.72	216.12	2.7312e-05	2.6272e-05	372.21	129.63	110.81	40.999	2.4233e-05	58.534	349.055	304.142	151.462	89.149	200.082	321.062	87.780	94.425	169.289	390.497	93.462	97.123	98.923	103.007	359.500	100.544	-8191	255	
8476.897	1	1	0	0	0.081379	0.069119	0.21393	0.14636	0.22227	0.12957	0.16498	0.11215	0.20772	0.15089	0.075182	0.0077622	0.156	0.21178	0.22401	0.20664	-2.3563	-2.4583	-2.9417	-2.5458	-2.7083	-2.9396	-2.5312	-3.0708	-2.7958	-2.6	-2.9979	-2.6562	-2.6646	-2.9479	-2.4375	-2.8146	255.430	296.038	282.389	405.900	419.061	413.125	366.749	177.923	204.072	279.184	123.841	371.634	320.750	88.723	103.051	190.664	0.0011386	0.0021546	0.00033878	225.14	4.8282e-06	1.4039e-05	249.64	79.049	6.4209e-06	6.982e-06	112.91	57.582	36.499	14.6	1.4763e-05	27.29	0.0025341	0.0023749	0.00061248	738.82	2.7846e-05	2.5683e-05	693.3	224.51	2.773e-05	2.5285e-05	362.75	133.68	110.3	39.41	2.2836e-05	59.484	334.529	318.067	363.720	88.942	402.389	321.302	88.681	95.291	188.313	425.761	94.021	97.034	99.266	103.132	103.484	100.494	-8191	255	
8476.993	1	1	0	0	0.080262	0.05633	0.10573	0.036732	0.086515	0.042946	0.33989	0.13088	0.08129	0.097519	0.14641	0.23867	0.062241	0.085617	0.10074	0.026091	-2.4729	-2.4396	-3.1063	-2.6542	-2.7938	-2.8333	-2.45	-3.0146	-3.0667	-2.4875	-2.9	-2.7958	-2.7917	-3.0083	-2.5146	-2.9667	311.447	305.408	161.114	180.014	129.961	196.737	345.768	137.116	177.987	126.662	152.910	291.172	346.027	129.150	173.078	181.341	0.00080766	0.00098037	0.00016814	220.64	8.1491e-06	6.5241e-06	250.59	78.174	2.6561e-05	2.292e-06	118.32	56.888	36.243	14.645	1.291e-05	27.178	0.0024044	0.0021913	0.00056596	743.71	2.598e-05	2.3718e-05	663.55	227.87	2.5846e-05	2.3578e-05	349.87	135.71	105.2	37.92	2.215e-05	60.864	131.935	259.631	327.915	89.110	430.698	333.975	88.731	94.757	312.011	421.010	92.483	97.086	99.613	103.228	158.567	100.878	-8191	255	
8477.087	1	1	0	0	0.085597	0.094598	0.011798	0.077322	0.14998	0.1009	0.26948	0.16973	0.3373	0.044161	0.021965	0.12964	0.040183	0.21791	0.23484	0.24316	-2.5271	-2.5687	-2.8333	-2.8708	-2.7667	-2.9625	-2.5875	-2.9146	-2.9208	-2.5604	-3.0125	-2.8563	-2.8271	-3.0292	-2.7687	-2.8604	405.450	367.096	386.190	103.167	115.987	229.573	304.294	354.193	427.370	208.684	262.423	205.381	329.584	92.391	93.046	378.445	0.00022742	0.00056302	0.0001086	218.31	1.5093e-05	7.8118e-06	258.64	78.001	2.5493e-05	1.1116e-05	118.17	57.795	36.068	14.941	2.361e-05	27.409	0.0022702	0.0021046	0.00055865	761.68	2.4595e-05	2.258e-05	667.01	232.41	2.4394e-05	2.2604e-05	352.98	137.94	101.58	36.975	2.2837e-05	61.857	391.585	262.647	154.145	88.649	349.419	329.422	88.586	94.700	350.049	408.212	93.054	97.340	99.612	103.443	170.553	100.162	-8191	255	
8477.183	1	1	0	0	0.20685	0.19294	0.21255	0.23621	0.14144	0.087216	0.25519	0.030899	0.16397	0.11856	0.16358	0.10771	0.40408	0.020795	0.15766	0.17097	-2.4396	-2.4188	-2.8104	-2.7646	-2.8271	-3.125	-2.6208	-2.8229	-2.8542	-2.6667	-3.0271	-2.6917	-2.7146	-3.0417	-2.6083	-2.8125	176.046	404.894	402.502	203.492	277.501	262.481	198.310	112.512	153.112	372.833	382.235	317.227	386.972	381.659	365.214	77.526	0.00048131	0.0013252	0.00055144	220.47	1.6773e-05	1.2488e-05	262.05	76.836	2.5362e-05	1.0743e-05	120.24	56.682	36.038	14.795	4.0303e-05	26.887	0.0021718	0.0020379	0.00058924	776.65	2.4098e-05	2.2421e-05	702.2	238	2.4236e-05	2.2763e-05	378.56	140.75	102.03	37.236	2.5215e-05	62.345	426.649	239.867	143.857	88.907	363.756	407.040	89.194	94.853	382.301	389.696	92.927	96.832	99.607	103.598	186.995	100.035	-8191	255	
#DATA ENDS
