BOXY.EXE: ISS Imagent and Oximeter Data Acquisition Program Version 0.80
Ascii Record File

#ACQ INFORMATION
2  Detector Channels 
16  External MUX Channels 
1  Auxiliary Channels 
5000  Waveform (CCF) Frequency (Hz)
1  Waveforms Skipped 
30  Waveforms Averaged 
1  Cycles Averaged 
16  Acquisitions per Waveform 
10.0806  Updata Rate (Hz) 

#FILE INFORMATION
TRUE -- External MUX Channel results are PARSED.
FALSE -- AC DC and Phase are NOT grouped.
TRUE -- Companion Program Settings File CREATED.
FALSE -- AC data not excluded
FALSE -- DC data not excluded
FALSE -- Phase data not excluded
FALSE -- Auxillary Chn. data not excluded
Tab delimiters

#CALIBRATION STATE
TRUE -- Waveform Calibration Values APPLIED.


#AUX CALIBRATION VALUES
Val Type	aux-1	

Term	1.0000e+00	
Factor	0.0000e+00	


#WF CALIBRATION VALUES
A = Detector Channel
Val Type	A-AC1	A-AC2	A-AC3	A-AC4	A-AC5	A-AC6	A-AC7	A-AC8	A-AC9	A-AC10	A-AC11	A-AC12	A-AC13	A-AC14	A-AC15	A-AC16	A-DC1	A-DC2	A-DC3	A-DC4	A-DC5	A-DC6	A-DC7	A-DC8	A-DC9	A-DC10	A-DC11	A-DC12	A-DC13	A-DC14	A-DC15	A-DC16	A-Ph1	A-Ph2	A-Ph3	A-Ph4	A-Ph5	A-Ph6	A-Ph7	A-Ph8	A-Ph9	A-Ph10	A-Ph11	A-Ph12	A-Ph13	A-Ph14	A-Ph15	A-Ph16	

Term	0.00000e+00	0.00000e+00	0.00000e+00	0.00000e+00	0.00000e+00	0.00000e+00	0.00000e+00	0.00000e+00	0.00000e+00	0.00000e+00	0.00000e+00	0.00000e+00	0.00000e+00	0.00000e+00	0.00000e+00	0.00000e+00	0.00000e+00	0.00000e+00	0.00000e+00	0.00000e+00	0.00000e+00	0.00000e+00	0.00000e+00	0.00000e+00	0.00000e+00	0.00000e+00	0.00000e+00	0.00000e+00	0.00000e+00	0.00000e+00	0.00000e+00	0.00000e+00	0.00000e+00	0.00000e+00	0.00000e+00	0.00000e+00	0.00000e+00	0.00000e+00	0.00000e+00	0.00000e+00	0.00000e+00	0.00000e+00	0.00000e+00	0.00000e+00	0.00000e+00	0.00000e+00	0.00000e+00	0.00000e+00	
Factor	1.00000e+00	1.00000e+00	1.00000e+00	1.00000e+00	1.00000e+00	1.00000e+00	1.00000e+00	1.00000e+00	1.00000e+00	1.00000e+00	1.00000e+00	1.00000e+00	1.00000e+00	1.00000e+00	1.00000e+00	1.00000e+00	1.00000e+00	1.00000e+00	1.00000e+00	1.00000e+00	1.00000e+00	1.00000e+00	1.00000e+00	1.00000e+00	1.00000e+00	1.00000e+00	1.00000e+00	1.00000e+00	1.00000e+00	1.00000e+00	1.00000e+00	1.00000e+00	X	X	X	X	X	X	X	X	X	X	X	X	X	X	X	X	

B = Detector Channel
Val Type	B-AC1	B-AC2	B-AC3	B-AC4	B-AC5	B-AC6	B-AC7	B-AC8	B-AC9	B-AC10	B-AC11	B-AC12	B-AC13	B-AC14	B-AC15	B-AC16	B-DC1	B-DC2	B-DC3	B-DC4	B-DC5	B-DC6	B-DC7	B-DC8	B-DC9	B-DC10	B-DC11	B-DC12	B-DC13	B-DC14	B-DC15	B-DC16	B-Ph1	B-Ph2	B-Ph3	B-Ph4	B-Ph5	B-Ph6	B-Ph7	B-Ph8	B-Ph9	B-Ph10	B-Ph11	B-Ph12	B-Ph13	B-Ph14	B-Ph15	B-Ph16	

Term	0.00000e+00	0.00000e+00	0.00000e+00	0.00000e+00	0.00000e+00	0.00000e+00	0.00000e+00	0.00000e+00	0.00000e+00	0.00000e+00	0.00000e+00	0.00000e+00	0.00000e+00	0.00000e+00	0.00000e+00	0.00000e+00	0.00000e+00	0.00000e+00	0.00000e+00	0.00000e+00	0.00000e+00	0.00000e+00	0.00000e+00	0.00000e+00	0.00000e+00	0.00000e+00	0.00000e+00	0.00000e+00	0.00000e+00	0.00000e+00	0.00000e+00	0.00000e+00	6.26660e+01	-1.60708e+02	-1.38034e+02	-1.81640e+02	-8.09839e+01	-1.13405e+02	-1.57973e+02	-1.62015e+02	-1.03025e+02	-8.37485e+01	-1.80409e+02	-1.70637e+02	-1.81506e+02	-1.76090e+02	-1.06331e+02	-1.49360e+02	
Factor	4.46417e-05	7.40306e-05	1.66068e-05	1.80300e-01	6.95920e-07	6.52801e-07	1.65304e-01	5.16653e-02	1.08927e-06	6.59530e-07	1.02996e-01	2.98071e-02	2.44284e-02	9.16901e-03	8.66652e-07	1.32262e-02	3.52392e-07	3.56068e-07	9.93150e-08	8.43590e-02	3.89487e-09	3.90538e-09	7.38614e-02	2.41382e-02	3.89876e-09	3.90770e-09	4.36374e-02	1.29438e-02	1.10597e-02	4.10157e-03	3.91558e-09	5.63340e-03	X	X	X	X	X	X	X	X	X	X	X	X	X	X	X	X	



#DISTANCE SETTINGS
A = Detector Channel
A-1	A-2	A-3	A-4	A-5	A-6	A-7	A-8	A-9	A-10	A-11	A-12	A-13	A-14	A-15	A-16	

2.5000e+00	3.0000e+00	2.5000e+00	3.0000e+00	2.0000e+00	3.0000e+00	1.5000e+00	3.0000e+00	3.0000e+00	3.0000e+00	3.0000e+00	3.0000e+00	3.0000e+00	3.0000e+00	1.5000e+00	3.0000e+00	

B = Detector Channel
B-1	B-2	B-3	B-4	B-5	B-6	B-7	B-8	B-9	B-10	B-11	B-12	B-13	B-14	B-15	B-16	

1.0000e+01	1.0000e+01	1.0000e+01	1.4400e+00	1.0000e+01	1.0000e+01	1.5100e+00	1.9400e+00	1.0000e+01	1.0000e+01	1.9900e+00	2.4900e+00	2.4100e+00	2.9000e+00	1.0000e+01	2.9800e+00	




#DATA BEGINS
time	group	step	mark	flag	A-AC1	A-AC2	A-AC3	A-AC4	A-AC5	A-AC6	A-AC7	A-AC8	A-AC9	A-AC10	A-AC11	A-AC12	A-AC13	A-AC14	A-AC15	A-AC16	A-DC1	A-DC2	A-DC3	A-DC4	A-DC5	A-DC6	A-DC7	A-DC8	A-DC9	A-DC10	A-DC11	A-DC12	A-DC13	A-DC14	A-DC15	A-DC16	A-Ph1	A-Ph2	A-Ph3	A-Ph4	A-Ph5	A-Ph6	A-Ph7	A-Ph8	A-Ph9	A-Ph10	A-Ph11	A-Ph12	A-Ph13	A-Ph14	A-Ph15	A-Ph16	B-AC1	B-AC2	B-AC3	B-AC4	B-AC5	B-AC6	B-AC7	B-AC8	B-AC9	B-AC10	B-AC11	B-AC12	B-AC13	B-AC14	B-AC15	B-AC16	B-DC1	B-DC2	B-DC3	B-DC4	B-DC5	B-DC6	B-DC7	B-DC8	B-DC9	B-DC10	B-DC11	B-DC12	B-DC13	B-DC14	B-DC15	B-DC16	B-Ph1	B-Ph2	B-Ph3	B-Ph4	B-Ph5	B-Ph6	B-Ph7	B-Ph8	B-Ph9	B-Ph10	B-Ph11	B-Ph12	B-Ph13	B-Ph14	B-Ph15	B-Ph16	aux-1	digaux	

6959.354	1	1	0	256	0.17931	0.25364	0.22049	0.23929	0.15854	0.021613	0.13505	0.060279	0.12499	0.13654	0.13748	0.33096	0.19708	0.081	0.073143	0.13129	-1.6562	-2.7125	-2.6729	-2.4229	-2.6229	-2.6354	-2.5292	-3.0062	-2.2875	-2.5208	-2.7979	-2.4583	-2.7854	-2.4729	-2.2396	-2.9938	170.921	95.486	284.021	361.503	154.653	253.039	395.948	107.284	75.920	176.220	353.964	412.332	264.187	207.816	200.123	304.632	0.0012002	0.00060425	9.0959e-05	1246.6	5.667e-06	5.7465e-06	1255.6	336.27	7.2671e-06	2.6669e-06	392.5	131.63	112.71	38.812	5.5523e-06	48.601	0.00031657	0.00035088	0.00010084	1225.9	3.4221e-06	3.9227e-06	1246	331.95	3.4382e-06	3.9487e-06	381.56	127.13	109.14	38.339	3.8181e-06	47.1	362.414	129.802	353.229	78.669	148.691	181.444	78.710	83.842	174.456	190.855	83.465	87.590	88.341	92.675	165.450	91.677	-8191	255	
6959.450	1	1	0	0	0.075316	0.24339	0.098661	0.40527	0.18924	0.15577	0.039354	0.050135	0.10311	0.032347	0.1862	0.17094	0.31352	0.20059	0.15369	0.065366	-1.8333	-2.525	-2.775	-2.2875	-2.9354	-2.4354	-2.3958	-2.9688	-2.3542	-2.5062	-2.7188	-2.2396	-2.8646	-2.8792	-2.2438	-3.0875	161.451	255.897	186.642	406.157	68.030	186.417	202.167	257.683	113.009	150.701	91.254	357.538	390.112	283.493	241.617	367.991	0.0013338	0.00089408	8.0716e-05	1249.3	3.4376e-06	3.9424e-06	1253.9	336.94	1.4703e-05	7.4958e-07	393.16	131.54	112.97	38.764	4.4599e-06	48.945	0.00032182	0.00036526	9.6993e-05	1225.8	3.5301e-06	4.0193e-06	1243.4	331.62	3.5848e-06	4.0267e-06	379.86	126.92	109.83	38.346	3.6745e-06	47.063	359.193	78.525	313.491	78.778	210.955	175.492	78.662	83.758	172.652	325.585	83.155	87.492	88.240	92.756	94.838	91.608	-8191	255	
6959.546	1	1	0	0	0.15151	0.19175	0.085342	0.27467	0.13164	0.090968	0.27324	0.090433	0.05991	0.05972	0.11648	0.21119	0.19782	0.17457	0.16092	0.3128	-1.875	-2.0146	-2.9562	-2.0354	-2.7542	-2.6167	-2.4375	-3.1146	-2.3833	-2.5875	-2.9875	-2.3104	-2.7896	-2.9229	-2.3083	-2.8958	158.940	411.396	68.504	336.281	306.991	420.178	338.870	268.756	240.455	251.605	250.910	386.483	254.095	68.225	377.832	393.732	0.0012372	0.00058658	2.7688e-05	1246.5	6.3356e-06	2.0339e-06	1261.1	337.7	1.8463e-05	3.313e-06	393.77	132.13	113.16	38.87	2.1967e-06	48.749	0.0003403	0.00036141	9.293e-05	1223	3.7454e-06	3.9638e-06	1244.1	331.31	3.8119e-06	3.9077e-06	379.22	126.81	110.72	38.309	3.5795e-06	46.979	347.170	109.689	129.582	78.684	225.180	115.243	78.527	83.671	205.272	244.031	83.043	87.568	88.301	93.023	302.752	91.969	-8191	255	
6959.667	1	1	0	0	0.17747	0.15207	0.1502	0.40909	0.047226	0.20371	0.21014	0.15966	0.21872	0.26428	0.059882	0.24245	0.11938	0.10904	0.24471	0.077202	-2.1146	-2.3479	-3.0125	-2.3292	-2.7333	-2.5833	-2.4292	-2.7729	-2.6542	-2.2729	-3.0667	-2.2396	-2.5187	-2.9208	-2.0667	-2.9917	327.749	338.053	221.212	75.192	179.454	102.344	405.928	359.782	378.225	175.399	335.189	107.037	342.690	214.026	304.978	420.490	0.0014285	0.00068121	0.00011506	1243.1	7.7241e-06	3.7841e-06	1261.5	337.93	6.0956e-06	6.5032e-07	393.62	132.02	112.41	38.962	3.3572e-06	48.789	0.00035992	0.00034972	9.1101e-05	1224.4	3.9378e-06	3.8105e-06	1241.9	331.43	3.9936e-06	3.7515e-06	378.08	127.19	110.83	38.109	3.503e-06	47.251	346.561	235.383	88.271	78.704	201.374	352.035	78.645	83.553	160.093	92.056	82.976	87.665	88.250	92.983	189.785	91.847	-8191	255	
6959.763	1	1	0	0	0.039587	0.10431	0.12255	0.30449	0.10274	0.077952	0.20242	0.21647	0.17144	0.072961	0.19098	0.14897	0.33972	0.34829	0.19615	0.11303	-2.1188	-2.3479	-2.875	-2.4917	-2.5479	-2.8375	-2.4375	-2.8604	-2.6063	-2.3083	-2.7812	-2.5396	-2.4062	-2.8688	-1.9458	-2.75	407.108	389.134	245.632	364.639	389.396	118.977	369.389	359.936	346.698	154.668	405.755	164.936	424.810	387.730	286.696	325.871	0.00091735	0.00019581	5.1575e-05	1252.3	2.7827e-06	1.089e-06	1260.8	339.01	7.7652e-06	5.2984e-06	393.25	131.74	113.64	38.885	1.6937e-06	48.947	0.00037072	0.00033825	8.8967e-05	1232.6	4.0066e-06	3.7043e-06	1242.6	334.16	4.0103e-06	3.6559e-06	377.8	128.19	111.21	38.116	3.4333e-06	47.737	352.139	67.818	111.277	78.936	303.603	78.314	78.469	83.762	216.582	219.399	83.098	87.681	88.119	92.636	183.282	91.701	-8191	255	
6959.859	1	1	0	0	0.063598	0.16239	0.19288	0.27362	0.19432	0.063583	0.070928	0.10363	0.1603	0.094842	0.055348	0.15151	0.093647	0.12211	0.16157	0.083021	-2.2	-2.2021	-2.975	-2.3583	-2.4729	-2.6854	-2.3479	-2.5917	-2.6417	-2.2938	-2.9188	-2.6396	-2.525	-3.0125	-2.3333	-2.5167	374.264	200.569	271.699	321.019	331.095	313.769	371.500	425.081	128.590	186.059	303.991	250.563	317.237	319.532	242.176	288.159	0.00096531	0.00035162	6.7676e-05	1249.5	1.7333e-06	3.6156e-06	1262.4	339.85	5.521e-06	4.8826e-06	392.57	132.04	113.03	38.9	5.4536e-06	48.601	0.00036564	0.00033263	8.7718e-05	1239	3.9337e-06	3.6495e-06	1243.8	336.53	3.9172e-06	3.6183e-06	378.33	129.32	110.68	38.008	3.5165e-06	47.908	347.669	118.752	184.002	78.570	255.496	189.377	78.724	83.792	161.911	271.430	82.816	87.778	88.367	92.883	205.128	91.711	-8191	255	
6959.955	1	1	0	0	0.18553	0.24058	0.33516	0.026063	0.26679	0.090027	0.16965	0.055927	0.17975	0.38643	0.11149	0.11749	0.08871	0.23399	0.24496	0.16451	-2.1042	-2.0958	-2.5458	-2.6063	-2.2729	-2.9813	-2.25	-2.5042	-2.7188	-2.1229	-2.8104	-2.5708	-2.5	-2.8271	-2.4479	-2.4292	397.017	337.242	349.582	374.925	190.120	233.380	401.298	401.600	401.529	242.199	361.849	325.947	218.048	411.588	90.835	399.526	0.00062903	0.00033362	0.00013026	1251.1	5.0843e-06	2.1994e-06	1265.2	338.97	3.9141e-06	1.8261e-06	396.24	131.78	113.4	38.935	1.002e-05	48.929	0.00035467	0.00032713	9.0248e-05	1241.8	3.7755e-06	3.5484e-06	1245.9	336.48	3.7404e-06	3.5125e-06	380.74	129.3	110.37	37.905	3.7167e-06	47.958	327.737	99.986	134.550	78.831	304.283	271.934	78.502	83.744	233.236	237.811	82.931	87.529	88.217	92.480	187.093	91.705	-8191	255	
6960.074	1	1	0	0	0.20079	0.15969	0.077685	0.30492	0.24023	0.132	0.16464	0.30736	0.2883	0.26728	0.057373	0.21213	0.032764	0.4258	0.20338	0.15057	-2.4771	-2.225	-2.75	-2.6604	-2.1458	-3.0187	-2.4021	-2.5771	-2.7729	-2.4021	-2.7083	-2.6979	-2.3063	-2.7979	-2.5604	-2.5812	320.362	403.873	156.712	390.122	129.813	323.182	68.225	257.120	150.239	79.400	159.204	69.462	350.680	309.989	109.508	286.300	0.00073459	0.00025204	0.00013932	1249.9	1.2086e-06	8.0736e-07	1267.8	337.81	2.7841e-06	1.3584e-06	398.05	131.98	113.34	39.08	9.0784e-06	48.827	0.00033837	0.00031293	9.5743e-05	1242.6	3.6452e-06	3.4347e-06	1251.6	335.98	3.6365e-06	3.4323e-06	384.49	129.22	110.14	37.886	3.9473e-06	47.772	348.369	149.527	146.118	78.859	231.578	187.184	78.705	83.583	250.647	359.593	83.183	87.491	88.073	92.890	153.538	91.726	-8191	255	
6960.146	1	1	0	0	0.16784	0.1047	0.18634	0.27698	0.22563	0.1611	0.32826	0.16836	0.096448	0.12206	0.13896	0.17794	0.28762	0.22479	0.2312	0.18268	-2.4771	-2.2667	-2.6604	-2.9813	-2.0292	-2.7438	-2.7625	-2.3583	-2.8875	-2.3354	-2.3854	-3.0187	-2.2188	-2.8333	-2.65	-2.4479	115.246	144.171	313.258	362.475	291.015	208.502	70.293	370.810	167.760	370.436	411.897	376.342	348.401	378.220	398.515	398.769	0.00088864	0.00059825	0.00012899	1246.5	4.4565e-06	3.974e-06	1266	338.58	5.3235e-06	3.1005e-06	394.76	132.03	113.49	39.138	4.7852e-06	48.991	0.00033223	0.00031408	0.0001007	1237.7	3.5721e-06	3.4877e-06	1254.8	335.35	3.5704e-06	3.5368e-06	385.41	128.73	110.05	38.136	4.1274e-06	47.714	349.490	102.995	140.132	78.786	282.762	142.165	78.754	83.938	324.310	207.303	83.034	87.414	87.929	92.795	210.602	91.537	-8191	255	
6960.242	1	1	0	0	0.21116	0.20611	0.24531	0.17617	0.15273	0.074625	0.42236	0.23764	0.038548	0.062011	0.25557	0.085364	0.28937	0.38504	0.092741	0.19453	-2.4667	-2.3729	-2.4021	-2.6896	-2.3167	-2.8021	-2.7292	-2.525	-2.8667	-2.4646	-2.6063	-2.8625	-2.3187	-2.8417	-2.5729	-2.2708	312.642	206.462	199.180	403.716	299.292	213.344	335.260	368.816	282.861	128.998	240.588	74.339	372.896	415.478	386.657	334.347	0.00096235	0.00074435	0.00011779	1253.9	2.3535e-06	2.7424e-06	1271.7	342.86	3.2105e-06	3.862e-06	399.02	133.15	114.86	39.655	3.0887e-06	49.722	0.00033098	0.00033917	0.00010534	1242.1	3.6177e-06	3.8482e-06	1268.5	339.11	3.7197e-06	4.0618e-06	393.42	130.72	112.12	39.347	4.5586e-06	48.897	360.960	158.387	140.836	78.816	154.320	173.175	78.652	83.764	314.691	168.139	83.147	87.742	88.204	92.784	350.134	91.594	-8191	255	
6960.338	1	1	0	0	0.087605	0.10608	0.11648	0.33685	0.18748	0.16392	0.31774	0.27083	0.24965	0.14171	0.25299	0.25754	0.47985	0.12603	0.20724	0.22752	-2.5375	-2.1729	-2.3521	-2.9479	-2.1083	-2.7292	-2.8583	-2.4625	-2.8812	-2.4813	-2.7667	-3.0104	-2.4979	-2.6542	-2.7542	-2.2292	93.811	273.516	123.819	328.492	182.988	172.652	392.709	285.559	271.475	237.245	97.868	287.543	71.728	144.492	127.724	342.502	0.00096199	0.0004481	9.0571e-05	1286.1	1.9798e-06	4.5314e-06	1304.9	349.41	6.0014e-06	3.1452e-06	404.98	136.82	117.83	40.278	2.8304e-06	50.516	0.00036713	0.00041419	0.00011807	1280.3	4.071e-06	4.6808e-06	1303.8	348.97	4.1051e-06	4.7812e-06	402	134.11	115.16	40.56	4.6639e-06	49.799	352.885	111.884	326.879	78.665	115.640	167.931	78.676	83.570	170.425	173.361	82.771	87.597	87.938	92.628	395.486	91.657	-8191	255	
6960.459	1	1	0	0	0.096009	0.1028	0.097875	0.40235	0.18539	0.16637	0.086788	0.1477	0.26854	0.27905	0.26952	0.24162	0.15135	0.17517	0.30527	0.22468	-2.4104	-2.5479	-2.325	-2.85	-2.1646	-2.7667	-2.9062	-2.3146	-2.8521	-2.775	-2.3771	-2.9292	-2.5021	-2.4396	-2.675	-2.1813	249.287	319.189	155.642	373.475	153.705	387.607	333.318	369.658	133.776	134.009	117.122	387.345	402.021	390.229	155.856	300.814	0.001529	0.0004821	8.4477e-05	1297.6	9.2734e-06	8.3755e-07	1312.6	353.7	1.4285e-05	6.2566e-06	408.04	138.68	119.4	40.815	7.5682e-07	51.487	0.00039146	0.00044976	0.0001175	1293	4.3378e-06	4.9113e-06	1312.8	352.25	4.3323e-06	4.8978e-06	403.53	135.71	117.59	41.213	4.432e-06	50.286	357.362	132.574	354.298	78.650	198.356	154.649	78.573	83.637	223.714	148.384	82.838	87.413	87.687	92.279	286.749	91.429	-8191	255	
6960.555	1	1	0	0	0.17864	0.15688	0.17053	0.1583	0.17649	0.10668	0.51494	0.20071	0.24436	0.069695	0.21922	0.27948	0.15686	0.4933	0.11101	0.36956	-2.2104	-2.4813	-2.2604	-3.0375	-2.3292	-2.4938	-2.9688	-2.4437	-2.8167	-2.8604	-2.3042	-2.7812	-2.4896	-2.4646	-2.8542	-2.2938	146.008	367.395	186.816	395.612	182.270	208.599	347.041	415.706	402.738	411.533	378.677	91.687	334.021	399.709	127.669	381.817	0.0016415	0.00033589	6.6856e-05	1315.4	7.0756e-06	2.7013e-06	1329.8	356.86	1.0894e-05	2.8083e-06	413.62	141.07	121.23	41.936	4.5926e-06	51.907	0.00040614	0.00043932	0.00011165	1300.7	4.5586e-06	4.826e-06	1323.6	355.16	4.721e-06	4.9427e-06	408.09	138.08	121.09	42.101	4.7002e-06	51.263	345.583	106.794	199.269	78.629	225.499	274.937	78.440	83.564	210.991	291.370	83.109	87.499	88.022	92.313	158.081	91.315	-8191	255	
6960.651	1	1	0	0	0.079495	0.25116	0.11141	0.18047	0.10459	0.14974	0.21099	0.077146	0.15965	0.036195	0.19383	0.15431	0.28057	0.159	0.21678	0.056705	-2.0104	-2.7729	-2.2104	-2.7833	-2.5396	-2.4188	-3.125	-2.5917	-2.6479	-2.7	-2.425	-2.7562	-2.6188	-2.6229	-2.7917	-2.2896	68.078	369.642	144.027	350.689	236.659	246.240	371.997	409.377	269.046	86.702	155.227	184.187	394.708	397.736	226.759	224.471	0.0013784	0.00040878	9.3727e-05	1324.5	3.564e-06	3.6011e-06	1334.8	361.55	3.4133e-06	3.9759e-06	416.96	141.43	121.87	41.835	3.0054e-06	52.49	0.00047276	0.00046771	0.00012055	1321.6	5.3085e-06	5.0911e-06	1336.6	360.7	5.3168e-06	5.0843e-06	411.88	139.69	122.63	42.239	4.6695e-06	52.054	351.844	368.836	413.100	78.751	243.480	187.245	78.506	83.561	101.683	383.134	83.142	87.389	87.964	92.313	173.857	91.617	-8191	255	
6960.747	1	1	0	0	0.089507	0.14485	0.22849	0.31897	0.28952	0.1892	0.15458	0.42003	0.31257	0.040812	0.080364	0.11161	0.15125	0.13397	0.05953	0.39534	-1.9667	-2.7271	-2.05	-2.9292	-2.7188	-2.275	-3.1271	-2.3688	-2.3625	-2.8521	-2.2562	-2.8063	-2.7125	-2.3646	-3.0104	-2.325	194.565	219.456	285.170	393.840	397.892	377.526	67.001	332.235	381.987	90.887	355.495	314.615	219.187	416.398	325.901	342.315	0.0011651	0.00025899	8.6675e-05	1334.6	4.1829e-06	5.3494e-06	1341.5	363.65	6.1624e-06	2.3415e-06	419.31	144.29	123.54	42.801	9.463e-06	53.208	0.00048494	0.00044605	0.00011593	1330.4	5.2529e-06	4.7597e-06	1336.2	363.9	5.1258e-06	4.6889e-06	410.37	141.95	123.2	42.518	4.3099e-06	52.623	347.340	153.062	202.998	78.572	190.762	170.776	78.331	83.377	252.537	109.297	82.994	87.443	87.977	92.115	181.206	91.496	-8191	255	
6960.843	1	1	0	0	0.084858	0.2351	0.078295	0.18401	0.062022	0.1315	0.099303	0.24514	0.21637	0.071575	0.274	0.32076	0.075272	0.15915	0.27113	0.094383	-2.2021	-2.7771	-2.1333	-2.8937	-2.7208	-2	-3.0104	-2.5125	-2.4333	-3.2333	-2.4271	-2.7062	-2.925	-2.3167	-2.8792	-2.5812	251.649	215.237	351.865	75.058	415.569	162.802	386.862	233.220	244.921	72.338	394.711	412.771	261.357	288.499	68.960	200.698	0.00083	0.00035824	2.4504e-05	1331.9	2.6126e-06	2.3358e-06	1346.5	364.05	1.6333e-06	2.1964e-06	422.38	145.07	123.66	42.841	3.2242e-06	53.478	0.00044612	0.00040636	0.00010679	1330.5	4.7394e-06	4.344e-06	1333.3	364.02	4.6102e-06	4.2787e-06	408.41	142.16	122.17	42.134	4.1169e-06	52.778	371.830	130.568	118.353	78.639	303.497	199.539	78.542	83.559	228.854	139.874	82.901	87.407	87.955	92.601	155.074	91.114	-8191	255	
6960.940	1	1	0	0	0.20273	0.21117	0.24254	0.15797	0.074179	0.18645	0.03121	0.12424	0.23641	0.071719	0.41175	0.22925	0.20277	0.25383	0.075815	0.18483	-1.7667	-3.0667	-2.2583	-2.5375	-2.6813	-2.2417	-3.0625	-2.5583	-2.2854	-2.8604	-2.2604	-2.5958	-2.9167	-2.2333	-2.7104	-2.9521	157.944	359.187	148.942	291.484	169.780	313.533	329.220	159.494	259.913	420.811	113.361	77.025	400.413	183.172	259.793	377.223	0.0012128	0.00053987	0.00027036	1335.6	3.6286e-06	3.4437e-06	1350.6	364.91	6.6728e-06	1.259e-06	420.23	143.65	123.65	42.553	1.0787e-05	52.861	0.00040848	0.00038044	0.00010488	1333.5	4.3936e-06	4.0937e-06	1337.3	364.45	4.32e-06	4.0386e-06	409.49	141.67	120.97	41.733	4.2057e-06	52.249	365.938	104.354	142.689	78.750	417.866	202.509	78.516	83.469	178.085	346.203	82.998	87.408	87.681	92.129	189.223	91.318	-8191	255	
6961.036	1	1	0	0	0.21099	0.1496	0.26511	0.041464	0.015568	0.30081	0.21115	0.28725	0.22768	0.16928	0.1495	0.091394	0.10352	0.30083	0.15982	0.19641	-1.8042	-2.8917	-2.4688	-2.6833	-2.65	-2.2271	-2.8104	-2.6458	-2.5458	-2.6792	-2.4542	-2.5479	-3.0792	-2.2708	-2.7292	-2.85	246.844	332.653	196.726	309.192	118.592	355.112	312.956	397.355	321.592	158.592	397.219	334.351	346.919	120.656	135.988	415.307	0.0013249	0.00031513	0.00014254	1330.2	2.9041e-06	1.9962e-06	1345.8	363.41	1.5655e-06	2.3403e-06	419.46	143.33	122.91	42.517	1.1874e-05	52.726	0.00038432	0.0003562	0.00010846	1325.5	4.1101e-06	3.8523e-06	1334.8	361.32	4.0465e-06	3.8036e-06	409.89	139.96	119.74	41.402	4.2546e-06	51.572	346.148	182.036	148.864	78.727	273.847	217.895	78.611	83.574	153.969	218.170	83.237	87.457	88.072	92.247	188.593	91.441	-8191	255	
6961.156	1	1	0	0	0.1742	0.027004	0.091021	0.26963	0.19659	0.015193	0.173	0.1747	0.055073	0.08477	0.2411	0.086528	0.19537	0.16945	0.15579	0.19197	-1.5063	-2.8958	-2.3458	-2.5667	-2.8937	-2.1771	-2.8937	-2.9542	-1.8604	-2.8667	-2.6104	-2.3771	-3.0187	-2.3333	-2.55	-2.8479	379.895	229.874	330.527	346.453	165.964	155.789	365.988	360.591	83.840	290.969	346.994	217.160	99.579	364.937	295.486	390.913	0.0012165	0.00020914	0.00012525	1329.9	1.69e-06	8.5231e-06	1347.3	362.32	3.2784e-06	5.204e-06	419.87	143.14	122.65	42.403	4.2185e-06	52.68	0.00035678	0.00033919	0.00010816	1316.3	3.7947e-06	3.7195e-06	1335.8	358.58	3.7707e-06	3.7331e-06	409.38	138.94	118.88	41.287	4.2654e-06	51.12	352.246	325.200	174.737	78.639	91.027	174.974	78.469	83.489	270.249	207.675	82.874	87.383	87.965	92.423	221.696	91.462	-8191	255	
6961.251	1	1	0	0	0.26328	0.16662	0.13374	0.47427	0.069402	0.2888	0.090315	0.24485	0.24275	0.14382	0.062004	0.18355	0.13218	0.15309	0.082126	0.038839	-1.9354	-2.5542	-2.4437	-2.3271	-2.8667	-2.2542	-2.8937	-2.8333	-2.1188	-2.7875	-2.5458	-2.2167	-3.0958	-2.5125	-2.4771	-2.9792	267.059	135.249	149.215	375.927	147.882	151.310	326.539	361.923	333.958	381.043	350.423	107.659	323.674	322.199	196.861	148.304	0.00096236	0.00050299	3.6773e-05	1328.9	5.3025e-06	5.8714e-06	1351.8	362.11	4.675e-06	3.511e-06	419.98	143.01	123.24	42.436	5.5335e-06	52.561	0.00033745	0.00034639	0.00010783	1310	3.6289e-06	3.8544e-06	1334.6	357.5	3.5934e-06	3.891e-06	407.63	138.23	118.49	41.47	4.0934e-06	50.775	358.268	422.719	212.689	78.672	257.268	199.617	78.517	83.716	205.028	247.255	82.729	87.231	87.947	92.170	158.939	91.471	-8191	255	
6961.347	1	1	0	0	0.10275	0.057018	0.12249	0.20319	0.25527	0.20486	0.33471	0.17384	0.12871	0.2999	0.027216	0.20126	0.24472	0.21269	0.22138	0.13351	-1.5	-2.5812	-2.8375	-2.3229	-2.7292	-2.5083	-2.5563	-2.7792	-2.3646	-2.7875	-2.8521	-2.325	-3.0979	-2.3875	-2.4104	-2.8917	317.532	239.353	119.633	403.447	199.879	404.754	366.316	91.852	340.663	351.181	404.595	376.989	90.882	381.884	104.494	103.417	0.0010839	0.00042487	0.00010374	1327.4	3.5929e-06	2.466e-06	1342.2	361.58	1.0369e-05	5.1117e-06	417.59	141.95	122.59	42.089	1.4519e-06	52.236	0.00032541	0.0003629	0.0001037	1306.7	3.5313e-06	4.0286e-06	1328.6	355.58	3.5566e-06	4.0667e-06	404.08	136.81	117.76	41.329	3.9399e-06	50.262	351.514	108.261	186.817	78.739	196.037	179.713	78.343	83.671	173.972	251.753	82.833	87.436	88.023	92.342	367.745	91.391	-8191	255	
6961.443	1	1	0	0	0.13427	0.17994	0.22344	0.41955	0.17269	0.14742	0.25722	0.080351	0.16718	0.088901	0.1751	0.32967	0.11114	0.20822	0.16464	0.069263	-1.7396	-2.5479	-2.925	-2.2333	-2.8417	-2.6646	-2.4396	-3.0271	-2.4562	-2.2708	-3.0229	-2.2812	-2.8021	-2.7833	-2.1479	-3.0833	393.013	208.118	66.111	422.591	158.328	115.557	354.230	303.807	81.089	424.498	81.597	368.878	245.679	230.995	348.548	98.977	0.0011278	0.0005402	2.6935e-05	1327	5.814e-06	2.112e-06	1331.9	360.49	9.9958e-06	5.545e-06	416.74	140.31	121.66	41.452	1.166e-05	51.521	0.00033545	0.00038021	9.9945e-05	1302.8	3.6809e-06	4.2268e-06	1321	353.64	3.7719e-06	4.207e-06	401.52	135.5	117.55	40.953	3.8589e-06	49.706	352.951	122.028	250.234	78.637	193.876	91.679	78.317	83.635	167.662	277.832	83.041	87.516	88.105	92.411	170.747	91.456	-8191	255	
6961.539	1	1	0	0	0.2714	0.20459	0.17008	0.18503	0.049811	0.11398	0.048433	0.065298	0.23385	0.30716	0.19282	0.20785	0.22516	0.062683	0.19068	0.39473	-1.9521	-2.3458	-2.9667	-2.275	-2.7417	-2.6792	-2.5083	-3.0354	-2.4042	-2.3312	-2.9667	-2.3563	-2.7313	-2.9167	-2.0312	-2.8167	341.375	151.203	393.404	72.729	288.620	110.711	181.329	160.728	202.798	71.613	91.014	395.175	250.694	131.188	124.294	368.106	0.0014051	0.00039144	3.675e-05	1317.9	4.4975e-06	5.0866e-06	1334.4	358.8	1.0253e-05	6.7183e-07	415.86	140.22	120.58	41.104	1.312e-06	51.58	0.00036088	0.00038149	9.711e-05	1297.7	3.9535e-06	4.1391e-06	1317	352.24	4.0301e-06	4.0842e-06	399.92	134.7	117.45	40.514	3.6849e-06	49.44	343.423	321.209	124.591	78.698	171.457	317.884	78.546	83.601	177.220	318.250	82.692	87.561	87.887	92.572	149.284	91.704	-8191	255	
6961.635	1	1	0	0	0.16776	0.041263	0.32064	0.21719	0.16385	0.37934	0.12811	0.34668	0.066235	0.16424	0.14021	0.16713	0.069789	0.20606	0.13022	0.26326	-2.0625	-2.2979	-2.9625	-2.3208	-2.6083	-3.0187	-2.3625	-3.0896	-2.6958	-2.2479	-2.9625	-2.3146	-2.6521	-3.0208	-1.9292	-2.9333	225.565	282.815	302.903	354.290	163.217	298.215	75.587	419.730	154.490	192.337	390.980	256.409	379.547	336.825	374.241	380.371	0.0012908	0.0002967	5.8605e-05	1319.8	5.3955e-06	1.7729e-06	1331.2	358.65	1.2286e-05	4.5822e-06	413.24	140.15	119.97	41.087	2.4671e-06	51.392	0.000373	0.00035977	9.3367e-05	1293.3	4.052e-06	3.9232e-06	1309.4	350.91	4.1088e-06	3.8578e-06	396.55	134.72	117.41	40.193	3.5858e-06	49.457	359.326	198.830	132.730	78.939	217.454	344.822	78.357	83.586	201.479	342.188	82.819	87.448	87.781	92.435	397.568	91.560	-8191	255	
6961.756	1	1	0	0	0.12449	0.10121	0.13048	0.15741	0.25137	0.13828	0.20225	0.18729	0.15992	0.20598	0.11073	0.20572	0.11574	0.2079	0.1077	0.18575	-2.1375	-2.1958	-2.8583	-2.5062	-2.4792	-2.8187	-2.3083	-2.9437	-2.5833	-2.1646	-2.9854	-2.3438	-2.5021	-2.9771	-2.4125	-2.8125	205.039	171.829	134.563	410.262	265.823	179.903	357.193	99.235	281.648	258.491	364.015	334.786	208.009	410.385	339.616	261.811	0.0012275	0.00035828	6.0935e-05	1316.9	3.0236e-06	3.2824e-06	1324.9	358.01	3.8285e-06	2.8069e-06	411.14	139.27	120.13	40.916	6.3718e-06	51.325	0.00037869	0.00034458	9.0472e-05	1294.2	4.0887e-06	3.7641e-06	1305.2	352.17	4.0996e-06	3.7282e-06	395.2	135.23	117.08	39.99	3.5051e-06	49.835	351.135	205.579	420.430	78.567	305.503	366.072	78.521	83.649	222.940	99.510	82.877	87.562	87.954	92.295	164.438	91.613	-8191	255	
6961.852	1	1	0	0	0.29355	0.15625	0.29829	0.18047	0.20398	0.25434	0.28584	0.42465	0.072938	0.12043	0.38906	0.3514	0.15285	0.11124	0.171	0.046478	-2.1937	-2.0979	-2.5958	-2.7417	-2.4583	-2.8146	-2.4188	-2.6521	-2.7542	-2.1104	-2.8792	-2.6562	-2.4313	-3.0708	-2.2917	-2.7562	319.372	262.585	336.338	105.821	159.018	215.726	372.377	83.198	264.373	397.218	413.545	416.900	107.272	401.133	280.184	78.686	0.00083441	0.00015039	3.3102e-05	1314.4	9.2718e-06	2.1008e-06	1331.1	357.75	6.6921e-06	3.5835e-06	412.64	139.42	119.43	40.942	6.8546e-06	51.075	0.00037201	0.00033755	8.8992e-05	1300	3.9766e-06	3.6867e-06	1305.2	353.73	3.9541e-06	3.672e-06	394.45	135.91	116.53	39.869	3.5877e-06	49.984	340.519	174.527	125.566	78.682	279.836	244.161	78.400	83.680	111.638	308.245	83.081	87.362	88.066	92.376	172.616	91.458	-8191	255	
6961.948	1	1	0	0	0.14495	0.065227	0.13366	0.47846	0.27872	0.18392	0.17003	0.31228	0.068951	0.028777	0.24077	0.16233	0.16548	0.33032	0.065722	0.060749	-2.1521	-2.1458	-2.8563	-2.6708	-2.3167	-3.0563	-2.4958	-2.5062	-2.875	-2.0458	-2.8146	-2.7812	-2.4292	-3.0021	-2.3479	-2.5438	122.316	343.928	347.944	381.182	229.368	202.822	388.266	361.887	349.228	246.261	388.123	383.486	402.866	415.250	77.953	78.948	0.00084535	0.00038796	9.6057e-05	1312.7	3.3278e-06	4.0103e-06	1331.5	358.3	2.6961e-06	2.7818e-06	414	138.91	119.4	40.874	1.1854e-05	51.029	0.00036156	0.00033004	9.2564e-05	1302.9	3.8488e-06	3.6187e-06	1307.3	354.06	3.8439e-06	3.6001e-06	398.19	135.81	115.99	39.71	3.8414e-06	49.974	357.905	285.654	142.183	78.789	127.339	342.370	78.606	83.570	370.141	354.141	82.868	87.459	88.099	92.642	230.010	91.515	-8191	255	
6962.020	1	1	0	0	0.11695	0.099042	0.34438	0.08011	0.062547	0.073113	0.13035	0.34224	0.2134	0.076561	0.23288	0.20537	0.14325	0.16499	0.11645	0.16308	-2.3771	-2.0604	-2.6021	-2.8688	-2.1437	-2.8688	-2.5563	-2.5771	-2.8708	-2.2354	-2.8229	-2.6625	-2.35	-2.9562	-2.4604	-2.2458	219.510	265.449	291.397	368.982	352.645	251.629	368.904	140.271	139.476	422.314	319.824	389.130	381.826	335.227	330.370	87.752	0.0011294	0.00021319	9.3931e-05	1315.7	2.4762e-06	4.2398e-06	1329.4	355.85	3.2199e-06	3.5289e-06	414.73	139.04	118.71	40.781	7.4376e-06	50.875	0.00034956	0.00032333	9.8746e-05	1301.1	3.7432e-06	3.5533e-06	1312.7	352.75	3.7487e-06	3.5107e-06	400.25	135.35	115.64	39.646	4.0692e-06	49.734	374.575	177.147	125.767	78.749	249.046	78.275	78.568	83.574	214.345	207.991	83.037	87.630	88.064	92.308	134.692	91.406	-8191	255	
6962.139	1	1	0	0	0.062812	0.15785	0.32992	0.11286	0.28271	0.096931	0.32297	0.11339	0.052813	0.20848	0.19465	0.099117	0.34021	0.09533	0.24821	0.27072	-2.3125	-2.1729	-2.4	-3.0125	-2.1	-2.9875	-2.6479	-2.5125	-3.0292	-2.3042	-2.6042	-2.7854	-2.5125	-2.7625	-2.6458	-2.2812	271.592	140.604	305.395	399.550	264.801	107.870	325.489	307.805	237.756	106.891	122.553	398.046	342.528	416.471	117.433	378.496	0.0010142	0.00037148	0.00015039	1311	1.7006e-06	3.4202e-06	1328.2	356.12	8.3267e-06	9.3184e-06	411.52	138.75	119.21	40.773	5.1446e-06	50.765	0.00034146	0.00032745	0.00010442	1296.6	3.6905e-06	3.6012e-06	1315.3	351.97	3.6758e-06	3.6779e-06	401	134.67	115.17	39.723	4.2129e-06	49.421	354.405	146.845	155.889	78.726	204.232	316.935	78.481	83.522	217.749	190.480	83.012	87.591	88.008	92.462	162.837	91.808	-8191	255	
6962.235	1	1	0	0	0.20921	0.16335	0.13004	0.048264	0.18624	0.099309	0.32286	0.20483	0.14022	0.17099	0.1839	0.17917	0.063877	0.14741	0.29374	0.085357	-2.5104	-2.125	-2.5062	-2.9313	-2.1417	-2.7729	-2.7104	-2.2375	-3.0042	-2.3563	-2.4417	-3.1604	-2.0958	-2.7417	-2.4938	-2.2417	195.499	90.301	365.338	219.634	144.974	415.661	375.390	387.089	127.731	247.345	387.247	101.546	379.333	87.925	411.999	154.698	0.0010013	0.00038582	7.3246e-05	1310.2	2.2462e-06	5.9192e-06	1325.7	355.6	4.9555e-06	7.4142e-06	410.74	137.98	118.49	40.595	3.3828e-06	50.786	0.0003358	0.00034382	0.0001059	1292.7	3.5977e-06	3.8143e-06	1314.8	350.67	3.608e-06	3.9391e-06	401.01	134.07	114.82	39.996	4.221e-06	49.293	358.319	105.203	418.820	78.468	378.833	146.657	78.320	83.520	246.762	207.957	82.961	87.477	88.214	92.849	391.978	91.785	-8191	255	
6962.331	1	1	0	0	0.29714	0.0695	0.23194	0.32833	0.23127	0.098574	0.083175	0.15234	0.17576	0.09879	0.16393	0.073993	0.22102	0.19001	0.25629	0.2892	-2.1667	-2.3854	-2.25	-3.175	-2.3063	-2.8229	-2.8896	-2.3021	-2.775	-2.3479	-2.4583	-2.9375	-2.1833	-2.5958	-2.7875	-2.2125	163.931	119.712	347.671	347.403	316.197	315.248	75.056	376.264	275.497	417.582	337.236	310.326	74.607	285.844	420.774	319.326	0.0011232	0.00074432	2.902e-05	1312.6	5.1e-06	6.7018e-06	1326.2	356.4	5.8179e-06	8.5597e-06	411.16	137.42	118.61	40.498	4.4362e-06	50.72	0.00033598	0.00037881	0.00010612	1293.2	3.6646e-06	4.1996e-06	1315	350.66	3.6921e-06	4.2644e-06	399.84	133.64	114.97	40.139	4.0976e-06	49.147	356.965	89.409	230.324	78.420	155.267	150.608	78.541	83.870	181.586	221.016	83.004	87.415	87.983	92.616	156.737	91.617	-8191	255	
6962.427	1	1	0	0	0.13254	0.09337	0.098849	0.17922	0.20091	0.057447	0.21477	0.34459	0.37212	0.16427	0.35239	0.11539	0.13771	0.11929	0.12994	0.14373	-2.2479	-2.5333	-2.0812	-3.2021	-2.1	-2.6063	-2.9188	-2.1167	-2.8333	-2.5458	-2.0979	-2.9146	-2.5042	-2.5771	-2.775	-2.0625	250.633	312.074	119.303	282.103	224.831	350.604	336.691	375.269	78.453	70.159	405.385	321.040	387.726	347.711	335.160	178.693	0.0013544	0.00042225	5.2183e-05	1315.4	6.4198e-06	3.4035e-06	1326.7	356.59	2.9585e-06	3.3863e-06	412.58	138.96	119.87	40.755	2.8042e-06	51.026	0.00034678	0.00039314	0.00010199	1292.7	3.768e-06	4.2502e-06	1314.1	350.72	3.8133e-06	4.2744e-06	399.06	133.83	116.02	40.351	3.8739e-06	49.112	347.557	148.485	312.916	78.594	238.712	237.954	78.437	83.603	162.252	145.481	83.016	87.623	87.975	92.509	353.188	91.598	-8191	255	
6962.548	1	1	0	0	0.13804	0.17094	0.20864	0.27246	0.11993	0.16149	0.18708	0.3254	0.07002	0.32772	0.22393	0.26014	0.26383	0.34401	0.069859	0.095649	-2.3146	-2.5271	-2.2687	-2.9708	-2.4604	-2.4542	-2.9458	-2.2667	-2.4854	-2.6229	-2.2583	-3.0354	-2.5208	-2.4958	-2.6083	-2.3042	274.586	233.893	191.794	394.636	248.103	374.974	377.542	67.251	290.365	210.772	409.927	106.045	209.725	99.476	349.835	88.309	0.0012164	0.00070861	0.00012742	1313	4.3462e-06	4.4773e-06	1322.5	357.99	1.4748e-05	4.4482e-06	412.06	138.41	119.27	40.64	2.4985e-06	51.03	0.00036271	0.00038372	9.7427e-05	1291.2	3.9675e-06	4.1247e-06	1308.6	350.23	3.9873e-06	4.063e-06	396.5	133.23	116.29	39.966	3.6964e-06	48.956	349.312	143.834	96.364	78.609	186.632	338.395	78.559	83.323	146.356	157.377	82.868	87.570	88.054	92.635	246.788	91.514	-8191	255	
6962.620	1	1	0	0	0.064946	0.064535	0.17562	0.06365	0.18393	0.21044	0.29383	0.15395	0.072731	0.13031	0.16372	0.026033	0.15918	0.15507	0.1113	0.051722	-2.1354	-2.7375	-2.3104	-3.1396	-2.3583	-2.2583	-3.0167	-2.3875	-2.5104	-2.9354	-2.1771	-2.9271	-2.5854	-2.2062	-2.8271	-2.5542	385.624	119.798	97.445	68.910	403.633	357.169	404.921	390.038	344.185	355.987	107.087	365.214	409.795	136.310	373.857	273.055	0.0012771	9.8565e-05	5.8229e-05	1314.5	6.3444e-06	2.4893e-06	1322.4	355.3	1.1571e-05	3.0081e-06	410.03	138.27	119.02	40.526	2.8005e-06	50.619	0.00037201	0.00036057	9.3011e-05	1287.8	4.1121e-06	3.9202e-06	1302.9	349.21	4.1647e-06	3.9472e-06	395.16	133.69	116.7	39.869	3.7017e-06	49.216	348.848	156.163	418.975	78.727	203.645	189.042	78.482	83.705	210.633	95.660	83.274	87.713	88.108	92.512	271.131	91.526	-8191	255	
6962.716	1	1	0	0	0.13774	0.18379	0.057612	0.13508	0.15954	0.21473	0.33569	0.11067	0.11508	0.20849	0.19885	0.089878	0.077052	0.15368	0.093509	0.12778	-1.9667	-2.7917	-1.9417	-2.7438	-2.5292	-2.1646	-2.9208	-2.2958	-2.3354	-2.7667	-2.1396	-2.7208	-2.925	-2.2208	-2.8458	-2.4604	348.150	212.231	73.539	369.271	228.477	349.972	327.611	365.336	373.178	420.317	293.889	364.419	289.075	93.709	108.008	215.314	0.0011172	0.00042547	0.00016668	1310.7	3.7866e-06	2.42e-06	1319.5	356.88	3.7236e-06	1.7069e-06	409.61	138.57	119.27	40.468	8.1822e-06	50.789	0.00039051	0.00035997	9.3844e-05	1293.9	4.2804e-06	3.9152e-06	1305	352.13	4.3046e-06	3.986e-06	396.04	135.16	117.09	39.828	3.7721e-06	49.87	353.545	415.907	185.610	78.873	179.901	258.157	78.598	83.623	82.257	369.302	83.061	87.546	87.942	92.707	198.404	91.715	-8191	255	
6962.836	1	1	0	0	0.092863	0.094434	0.13219	0.30572	0.087091	0.14032	0.2363	0.22306	0.12064	0.18044	0.38056	0.22146	0.32533	0.19561	0.30908	0.24556	-1.8188	-2.6604	-2.2313	-2.8167	-2.5917	-2.1479	-2.9708	-2.6646	-2.3958	-2.9688	-2.2687	-2.5146	-2.7667	-2.0312	-2.9792	-2.6354	283.361	423.309	177.865	424.120	381.812	94.260	327.497	67.771	413.104	90.693	369.957	88.493	403.883	369.602	277.681	410.143	0.0010939	0.00028444	6.694e-05	1316.5	1.5688e-06	1.0229e-06	1328.5	356.78	4.1245e-06	4.3211e-06	411.41	138.19	118.33	40.507	5.8359e-06	50.517	0.00039388	0.00036093	9.5201e-05	1303.8	4.2183e-06	3.8582e-06	1307.3	354.19	4.1008e-06	3.8277e-06	395.41	135.26	116.13	39.736	3.7377e-06	49.913	352.375	404.684	152.509	78.799	204.889	88.000	78.646	83.572	358.156	82.007	82.982	87.633	88.356	92.566	201.401	91.558	-8191	255	
6962.933	1	1	0	0	0.20443	0.16124	0.23768	0.21709	0.080998	0.015688	0.36267	0.15014	0.15137	0.19132	0.18295	0.14235	0.081659	0.088631	0.14576	0.13482	-1.5771	-2.9083	-2.0708	-2.6667	-2.8187	-2.3771	-2.8792	-2.7	-2.2604	-2.7687	-2.5646	-2.6146	-2.6729	-2.2167	-2.6083	-2.8083	108.821	173.794	69.203	96.946	248.369	321.689	390.454	424.469	140.858	310.253	379.658	324.303	218.927	295.370	259.206	419.623	0.00099873	4.0858e-05	0.000109	1313.3	4.6597e-06	2.0241e-06	1330.1	355.48	3.5885e-06	5.9666e-07	412.26	138.64	119.19	40.59	7.6356e-06	50.965	0.0003667	0.00034262	9.6264e-05	1304.9	3.9832e-06	3.7083e-06	1309.6	353.83	3.9584e-06	3.6973e-06	398.33	135.81	116.02	39.66	3.9425e-06	50.068	356.619	230.035	124.768	78.662	210.729	288.125	78.572	83.629	345.894	287.737	82.914	87.513	88.010	92.472	169.439	91.726	-8191	255	
6963.029	1	1	0	0	0.077264	0.2139	0.17558	0.27402	0.13962	0.15053	0.26735	0.18742	0.152	0.10654	0.34076	0.25467	0.17637	0.063973	0.27397	0.10515	-1.5938	-2.8208	-2.2417	-2.7042	-2.7396	-2.2167	-2.8792	-2.5833	-2.1562	-2.7292	-2.5958	-2.3917	-3.1146	-2.1958	-2.6042	-2.5417	312.026	259.624	220.892	423.721	85.925	211.035	387.213	409.096	192.246	306.178	353.710	392.296	403.606	281.894	165.116	332.951	0.0011154	0.00048086	0.00012457	1308	2.7653e-06	3.6182e-06	1328.9	356.67	4.8111e-06	5.6049e-06	413.4	138.72	119.47	40.785	7.2265e-06	51.093	0.00035514	0.00033259	0.00010235	1304.7	3.8508e-06	3.63e-06	1318.1	354.18	3.8018e-06	3.6114e-06	401.91	135.7	116.02	39.69	4.1612e-06	49.854	354.097	99.605	175.888	78.716	194.445	111.414	78.535	83.513	158.171	177.275	83.103	87.356	88.121	92.681	186.580	91.510	-8191	255	
6963.148	1	1	0	0	0.12868	0.1277	0.16494	0.31665	0.082317	0.25873	0.46669	0.24276	0.13189	0.19585	0.15292	0.10518	0.22608	0.11524	0.32776	0.349	-1.7271	-2.8125	-2.3146	-2.3688	-2.9167	-2.1458	-2.7708	-2.8	-2.1063	-2.8208	-2.4188	-2.2313	-3.15	-2.4521	-2.4562	-2.95	352.894	152.880	102.007	384.498	159.035	420.694	373.724	341.800	410.277	174.324	295.593	313.101	72.196	127.450	278.856	370.436	0.0010096	0.00058343	0.00018536	1315.7	4.3539e-06	5.259e-06	1333.7	356.93	4.0483e-06	4.355e-06	411.73	138.54	119.48	40.817	1.0388e-06	50.897	0.00034767	0.00033548	0.00010794	1304.2	3.8031e-06	3.7699e-06	1323.9	353.49	3.8222e-06	3.8248e-06	404.46	135.2	115.78	39.937	4.3564e-06	49.7	354.089	108.054	151.123	78.650	254.833	176.935	78.389	83.435	223.703	213.620	83.182	87.631	88.062	92.484	340.531	91.618	-8191	255	
6963.244	1	1	0	0	0.27982	0.15906	0.12674	0.19997	0.12829	0.069255	0.30008	0.28689	0.05339	0.17661	0.14107	0.16688	0.17991	0.39303	0.1737	0.20321	-1.6792	-2.6375	-2.3063	-2.3375	-2.8542	-2.2625	-2.6125	-2.9938	-2.1271	-2.5667	-2.7354	-2.5146	-2.9813	-2.3438	-2.3292	-2.9854	345.552	68.375	392.840	387.940	170.176	384.086	335.555	367.729	167.110	245.462	341.824	390.482	183.417	395.994	346.084	362.929	0.00106	0.00067467	3.1132e-05	1311.2	2.3065e-06	7.8116e-06	1330.1	355.08	8.6849e-06	6.2598e-06	411.32	139.11	119.12	41.001	9.0405e-06	50.974	0.00034344	0.0003559	0.00010966	1298.2	3.645e-06	3.9199e-06	1318.4	350.9	3.561e-06	3.8966e-06	400.59	134.25	114.84	40.051	4.0273e-06	49.226	355.357	114.286	211.934	78.752	278.135	167.272	78.451	83.586	239.345	188.567	82.933	87.604	88.134	92.580	226.757	91.538	-8191	255	
6963.315	1	1	0	0	0.090528	0.14918	0.1672	0.17304	0.22797	0.20064	0.37865	0.073568	0.047035	0.10971	0.11169	0.043897	0.14194	0.14798	0.079292	0.066876	-1.6271	-2.5604	-2.6542	-2.1958	-2.7417	-2.5	-2.5542	-3.0667	-2.2604	-2.7	-2.8333	-2.3125	-2.8458	-2.5167	-2.5333	-2.9583	397.462	378.855	92.587	108.649	86.270	121.599	294.223	161.132	229.312	99.477	357.622	244.950	396.458	401.100	317.432	328.394	0.0011546	0.0011322	0.00011123	1316.8	3.5972e-06	6.5469e-06	1321	356.77	8.1376e-06	4.1335e-06	411.51	138.58	120.15	40.937	4.5063e-06	50.922	0.00032318	0.00036001	0.00010148	1294.1	3.4798e-06	4.0341e-06	1311.1	350.79	3.5382e-06	4.057e-06	398.98	133.86	115.28	40.26	3.894e-06	49.147	341.724	110.672	158.410	78.584	244.605	211.903	78.505	83.517	176.771	133.310	82.872	87.410	88.071	92.511	304.166	91.373	-8191	255	
6963.436	1	1	0	0	0.17637	0.076581	0.28801	0.20893	0.12321	0.23209	0.3432	0.23555	0.28764	0.22439	0.058816	0.078085	0.23905	0.10197	0.26532	0.074864	-1.7479	-2.6271	-2.6708	-2.5812	-2.7708	-2.4604	-2.5167	-2.9875	-2.3521	-2.5812	-2.8542	-2.2979	-2.8708	-2.6417	-2.1146	-2.9729	386.869	414.659	420.356	344.632	149.480	136.993	422.991	319.932	294.697	200.026	401.896	333.646	397.980	147.794	185.514	392.652	0.0014681	0.00068986	8.2475e-05	1313	4.1215e-06	3.9475e-06	1329.2	355.28	6.7313e-06	2.1659e-06	412.31	138.96	119.54	40.807	8.8663e-06	50.791	0.00033454	0.00037714	9.8161e-05	1289.9	3.6657e-06	4.1634e-06	1312.1	349.69	3.7114e-06	4.1079e-06	397.54	133.63	115.93	40.273	3.7598e-06	48.969	349.511	162.875	337.726	78.674	189.213	159.054	78.448	83.583	236.600	225.392	82.990	87.430	88.062	92.191	176.781	91.498	-8191	255	
6963.532	1	1	0	0	0.30074	0.042901	0.065406	0.1023	0.078107	0.28696	0.17947	0.11611	0.30819	0.19887	0.089524	0.16965	0.145	0.18423	0.037593	0.32239	-1.6083	-2.4042	-2.7354	-2.2812	-2.7146	-2.6333	-2.3479	-3.0396	-2.3771	-2.2958	-2.95	-2.1104	-2.7458	-2.8438	-2.1729	-2.7562	214.110	237.467	98.818	367.363	294.931	81.156	331.827	151.499	161.141	394.111	414.244	352.071	352.624	373.333	413.268	321.209	0.0017153	0.00032215	6.6876e-05	1314.4	8.2912e-06	1.0616e-06	1326.1	357.19	1.2565e-05	2.6961e-06	410.34	138.5	119.5	40.636	2.8404e-06	51.027	0.00035383	0.00036913	9.4211e-05	1288.7	3.8761e-06	4.0396e-06	1307.5	349.41	3.9982e-06	4.0351e-06	395.61	133.58	116.6	40.101	3.764e-06	49.173	349.026	234.567	398.767	78.608	215.591	331.201	78.438	83.633	164.762	104.528	83.076	87.236	88.099	92.351	175.377	91.558	-8191	255	
6963.628	1	1	0	0	0.13906	0.36824	0.088574	0.2278	0.12225	0.15761	0.38059	0.23842	0.21139	0.097293	0.3813	0.40792	0.18546	0.34853	0.18415	0.27587	-2.05	-2.0854	-2.7042	-2.4313	-2.4729	-2.6562	-2.5104	-2.8479	-2.4021	-2.3958	-2.8979	-2.3042	-2.6437	-2.7646	-2.0146	-2.6417	334.722	265.950	101.270	398.732	128.857	339.354	352.146	351.417	142.535	242.760	119.125	381.643	409.316	74.676	389.589	83.896	0.0012377	0.00012661	6.101e-05	1313.7	3.8193e-06	1.8175e-06	1330.6	357.02	5.7373e-06	1.5923e-06	414.14	138.75	119.39	40.903	4.8677e-07	51.144	0.00038169	0.00036819	9.4593e-05	1293.4	4.205e-06	4.0294e-06	1310.1	350.68	4.2956e-06	4.0341e-06	397.48	134.56	117.43	40.166	3.8405e-06	49.675	357.059	379.504	342.595	78.867	200.906	153.395	78.660	83.621	220.688	240.318	83.047	87.568	87.859	92.453	174.316	91.714	-8191	255	
6963.724	1	1	0	0	0.20796	0.077265	0.095292	0.28386	0.15325	0.1978	0.21314	0.090064	0.14493	0.42147	0.28052	0.22363	0.19016	0.142	0.08183	0.095894	-2.1292	-2.3063	-2.7271	-2.3125	-2.2667	-2.8729	-2.25	-2.6292	-2.4458	-2.0583	-2.9042	-2.2396	-2.5792	-2.8521	-2.3	-2.5667	346.586	337.827	334.839	118.224	275.764	116.460	349.488	74.362	350.066	121.300	419.025	382.732	415.160	398.310	171.170	290.875	0.0010393	0.0001961	4.4384e-05	1324.3	1.6507e-06	6.1415e-06	1333.8	358.36	2.5541e-06	3.5878e-06	414.65	139.74	119.65	40.955	2.3448e-06	51.1	0.00040844	0.00037152	9.7437e-05	1307	4.4529e-06	4.1233e-06	1318.4	355.55	4.548e-06	4.2205e-06	401.4	137.49	119.03	40.656	4.1423e-06	50.928	351.460	243.269	100.632	78.812	324.592	178.067	78.507	83.630	341.138	139.098	82.971	87.713	87.943	92.480	105.172	91.737	-8191	255	
6963.845	1	1	0	0	0.13699	0.29488	0.16182	0.36886	0.08837	0.19751	0.13142	0.050685	0.22158	0.2297	0.1629	0.5323	0.40328	0.041259	0.2663	0.3739	-2.3229	-1.9604	-2.9333	-2.525	-2.3583	-2.8958	-2.4896	-2.6083	-2.7687	-2.2375	-2.9208	-2.4979	-2.3625	-3.1292	-2.2188	-2.5458	181.588	364.866	72.997	371.270	413.503	309.966	315.848	81.901	168.785	84.436	107.600	345.039	389.139	150.754	173.941	347.309	0.00080103	0.0002088	0.00016244	1329.3	1.7482e-06	1.4114e-06	1339.8	359.77	1.4681e-06	2.3806e-06	415.11	139.87	120.09	41.158	8.0031e-06	51.256	0.0004431	0.0004102	0.00010797	1334.1	4.9271e-06	4.5645e-06	1335.4	362.58	4.9796e-06	4.6597e-06	408.05	140.36	120.11	41.09	4.6175e-06	51.951	344.186	249.069	213.594	78.715	388.313	140.948	78.769	83.558	208.802	178.718	83.053	87.487	88.109	92.410	244.524	91.353	-8191	255	
6963.917	1	1	0	0	0.23755	0.090205	0.045144	0.17265	0.10072	0.10679	0.36405	0.24655	0.19435	0.066087	0.24147	0.11256	0.074438	0.23731	0.16476	0.06322	-2.05	-1.9146	-2.6958	-2.6979	-2.3417	-2.8521	-2.3583	-2.6229	-2.7146	-2.2188	-2.8146	-2.8208	-2.1458	-2.8354	-2.1917	-2.4854	295.283	348.890	223.126	411.467	413.711	322.042	357.764	368.252	108.467	166.975	370.165	300.767	386.795	78.311	235.409	408.574	0.00075459	0.00031575	0.00016515	1330.3	1.2061e-06	4.0972e-06	1346.7	360.17	3.6507e-06	5.1104e-07	415.73	140.35	120	41.404	1.0341e-05	51.682	0.00045141	0.00042167	0.00011779	1342.2	4.8294e-06	4.4947e-06	1343.7	363.64	4.7337e-06	4.4452e-06	410.77	140.29	119.61	40.96	4.7671e-06	51.819	342.845	302.403	101.270	78.582	255.434	200.070	78.646	83.598	168.690	423.304	82.914	87.360	88.285	92.549	171.023	91.465	-8191	255	
6964.013	1	1	0	0	0.13805	0.18604	0.082429	0.13084	0.22239	0.079641	0.096604	0.22702	0.33577	0.35206	0.042102	0.31911	0.22348	0.1934	0.15475	0.27686	-2.3	-2.1729	-2.7313	-2.6708	-2.2646	-2.8646	-2.7271	-2.3583	-2.9708	-2.0438	-2.8	-2.9271	-2.2917	-3.0604	-2.3583	-2.4479	67.801	320.012	159.542	314.043	178.243	226.889	334.922	351.916	140.100	106.233	156.832	422.452	388.468	134.836	131.506	366.150	0.0011062	0.00042134	0.00024964	1328.1	3.2225e-06	2.5053e-06	1345.8	359.71	4.9998e-06	2.0734e-06	416.65	139.65	120.28	41.269	1.5013e-05	51.302	0.00042342	0.00039911	0.000122	1337.7	4.6101e-06	4.3578e-06	1347.8	362.42	4.6574e-06	4.4396e-06	414.78	140.03	119.55	41.067	5.1833e-06	51.709	354.947	142.572	153.193	78.572	246.480	201.562	78.452	83.712	250.788	135.825	83.087	87.294	87.970	92.535	198.856	91.392	-8191	255	
6964.109	1	1	0	0	0.22217	0.052782	0.20988	0.33716	0.10608	0.21313	0.12912	0.24397	0.18539	0.16356	0.25143	0.10765	0.11384	0.25717	0.13292	0.084464	-2.4167	-2.2792	-2.7021	-2.9042	-2.2104	-2.7167	-2.7604	-2.3146	-2.95	-2.2604	-2.5583	-2.7021	-2.225	-2.8875	-2.5854	-2.4083	335.783	125.362	128.401	410.347	169.949	126.116	92.617	381.606	100.930	187.042	217.519	353.824	72.457	136.667	103.813	75.753	0.0010377	0.0013023	5.288e-05	1333.4	2.6762e-06	1.0747e-05	1346.9	359.69	1.565e-06	6.8349e-06	418.25	140.61	121.27	41.547	5.2849e-06	51.613	0.00042671	0.00041369	0.00013304	1339.7	4.6237e-06	4.5825e-06	1356.1	361.75	4.553e-06	4.6384e-06	417.96	139.52	119.47	41.398	5.2508e-06	51.486	352.821	138.318	158.175	78.755	115.333	202.935	78.336	83.758	246.727	197.008	83.112	87.555	87.974	92.509	109.371	91.341	-8191	255	
6964.228	1	1	0	0	0.37566	0.17423	0.072348	0.24132	0.19428	0.064788	0.27236	0.2242	0.12347	0.23415	0.1162	0.2021	0.11201	0.084823	0.10343	0.35126	-2.3812	-2.2792	-2.4417	-2.9271	-2.1375	-2.8646	-2.7417	-2.1167	-2.7854	-2.2438	-2.6729	-3.0854	-2.175	-2.7208	-2.5625	-2.1958	368.318	328.604	213.985	376.242	409.240	315.198	373.233	306.914	265.647	278.850	257.918	317.495	406.410	138.765	423.315	419.843	0.0012763	0.0012023	6.9225e-05	1333.8	3.6167e-06	6.6949e-06	1343.3	360.7	7.1068e-06	1.1077e-05	417.48	141.34	121.6	41.816	4.3637e-06	51.774	0.00040979	0.00043125	0.0001317	1333.3	4.4291e-06	4.7684e-06	1354.2	360.87	4.3749e-06	4.8717e-06	416.7	139.39	119.62	41.851	5.068e-06	51.414	351.418	98.807	103.408	78.680	130.906	152.373	78.431	83.540	165.115	188.984	82.863	87.366	87.888	92.375	253.360	91.647	-8191	255	
6964.324	1	1	0	0	0.12913	0.19522	0.085984	0.1176	0.14803	0.1542	0.18267	0.28579	0.038956	0.10028	0.28852	0.029826	0.26113	0.13234	0.2599	0.20805	-2.3937	-2.4458	-2.3396	-2.8875	-2.0896	-2.5375	-2.825	-2.0708	-2.7271	-2.5062	-2.225	-2.9437	-2.3104	-2.6417	-2.7604	-2.0896	276.189	315.680	359.846	120.349	72.529	233.754	316.115	378.698	139.436	401.123	314.636	131.216	70.497	393.122	245.818	185.674	0.00099005	0.00044412	9.482e-05	1340.4	4.6877e-06	6.0124e-06	1347.9	362.12	1.1038e-05	6.9339e-06	416.47	141.38	121.86	41.915	1.3363e-06	51.846	0.0004001	0.00045903	0.00012764	1333.8	4.4113e-06	5.0627e-06	1352.7	361.09	4.4278e-06	5.1333e-06	415.35	139.38	120.21	42.265	4.8812e-06	51.41	352.822	155.960	229.327	78.572	188.086	164.274	78.361	83.658	180.912	191.941	82.814	87.247	87.986	92.436	425.274	91.373	-8191	255	
6964.420	1	1	0	0	0.23122	0.1502	0.074762	0.11194	0.018023	0.19409	0.29776	0.14648	0.07834	0.094019	0.16789	0.36474	0.24069	0.44406	0.11355	0.17926	-2.45	-2.4646	-2.25	-3.0104	-2.2313	-2.4646	-2.9938	-2.1125	-2.5729	-2.5938	-2.2542	-3.0187	-2.3333	-2.5333	-2.7792	-2.1979	394.878	392.834	401.994	321.606	226.305	121.558	331.508	341.431	364.219	172.592	265.821	397.017	104.407	403.457	382.822	303.056	0.00141	0.00087534	2.9334e-05	1339.9	9.2421e-06	2.8453e-06	1350	361.19	1.346e-05	1.2427e-06	415.88	141.32	122	41.77	3.6149e-06	52.042	0.0004171	0.00047716	0.00012363	1332.4	4.6732e-06	5.2236e-06	1351.5	361.01	4.7127e-06	5.2364e-06	413.36	139.17	121.16	42.255	4.7689e-06	51.285	339.101	197.327	299.349	78.741	181.627	160.267	78.308	83.527	176.290	203.912	83.081	87.311	87.844	92.435	397.066	91.394	-8191	255	
6964.516	1	1	0	0	0.068268	0.18019	0.23531	0.26377	0.12829	0.22631	0.26178	0.24926	0.13173	0.068188	0.15818	0.15457	0.12168	0.31904	0.24678	0.09834	-2.1937	-2.4688	-2.0687	-2.8083	-2.3396	-2.3229	-2.9875	-2.3375	-2.6167	-2.7917	-2.1667	-2.9	-2.5021	-2.4146	-2.95	-2.2646	215.206	315.965	238.081	72.683	166.116	109.208	362.095	103.616	239.874	273.228	126.195	365.390	320.980	379.464	218.707	392.648	0.0015128	0.00027103	6.4603e-05	1341	4.1909e-06	2.9111e-06	1352.1	362.88	1.3371e-05	3.8051e-06	419.13	142.03	121.76	41.803	6.4348e-06	52.182	0.00044853	0.00047078	0.00012057	1332.9	4.9879e-06	5.0734e-06	1349.6	360.86	5.0026e-06	5.0467e-06	412.89	139.15	121.98	42.132	4.6299e-06	51.471	342.979	242.356	322.308	78.673	230.659	86.455	78.314	83.506	191.874	183.611	83.130	87.634	87.742	92.260	308.423	91.441	-8191	255	
6964.613	1	1	0	0	0.16221	0.117	0.029151	0.14149	0.025584	0.055587	0.23856	0.24576	0.080369	0.12749	0.072418	0.14306	0.24739	0.16267	0.20482	0.29825	-2.0563	-2.6625	-2.1312	-2.8104	-2.3979	-2.1875	-3.1208	-2.4208	-2.4208	-2.8875	-2.1167	-2.8042	-2.5979	-2.2917	-2.8875	-2.3563	285.228	393.303	160.320	411.493	148.282	188.986	359.893	299.295	100.014	249.702	369.873	104.641	350.535	78.781	293.759	371.734	0.0011417	0.00042989	0.0001052	1343.7	4.528e-07	2.9854e-06	1351.2	362.39	1.5412e-05	2.3062e-06	416.34	142.25	122.08	41.716	8.3743e-06	51.92	0.00047326	0.00045492	0.00011769	1337	5.2448e-06	4.971e-06	1349.4	361.96	5.2856e-06	4.9598e-06	412.18	140.29	123.13	42.093	4.6139e-06	52.005	369.483	218.879	71.157	78.810	179.890	383.671	78.464	83.651	170.423	414.951	83.316	87.548	88.019	92.465	265.745	91.310	-8191	255	
6964.709	1	1	0	0	0.39135	0.021037	0.32496	0.19644	0.15743	0.14334	0.084682	0.16734	0.17432	0.14538	0.28886	0.11324	0.11004	0.24133	0.20092	0.19406	-1.9937	-2.6625	-2.075	-2.8417	-2.4083	-2.1729	-2.8354	-2.6188	-2.3708	-2.6979	-2.1188	-2.7854	-2.6146	-2.0771	-2.6792	-2.2542	208.399	275.819	75.306	402.378	145.233	389.556	320.447	318.808	309.139	195.175	358.887	381.939	390.069	331.832	417.477	407.482	0.0011511	0.0003243	2.0491e-05	1335.9	4.2603e-06	1.4673e-06	1351.3	363.38	5.76e-06	3.011e-06	417.41	142.58	121.91	41.824	2.1288e-06	52.344	0.00048984	0.000448	0.00011765	1341.5	5.3261e-06	4.8819e-06	1348.5	365.11	5.2903e-06	4.8423e-06	412.35	141.77	122.63	42.041	4.5577e-06	52.445	371.015	106.862	211.389	78.778	223.546	395.886	78.480	83.437	231.211	165.593	83.153	87.382	88.127	92.380	274.640	91.341	-8191	255	
6964.829	1	1	0	0	0.22689	0.15158	0.22703	0.19252	0.029059	0.12238	0.12003	0.34784	0.25564	0.035626	0.31683	0.20189	0.21558	0.19079	0.043102	0.35409	-1.9604	-2.7708	-2.075	-2.4708	-2.7729	-2.25	-3.0958	-2.6667	-2.375	-2.9771	-2.1437	-2.7792	-2.5812	-2.2167	-2.7521	-2.6271	324.729	291.587	366.253	345.255	164.885	132.830	343.547	414.982	117.977	126.065	416.571	266.394	115.568	94.568	311.282	398.082	0.0011761	0.00012248	0.00010711	1338.7	4.7294e-06	2.3327e-06	1351.6	362.72	7.4984e-06	4.2404e-06	417.58	141.65	121.52	41.838	8.1656e-06	52.204	0.00047268	0.00043304	0.00011623	1350.1	5.1038e-06	4.7719e-06	1348.9	366.47	5.1163e-06	4.7423e-06	412.09	142.12	121.87	41.824	4.7507e-06	52.769	343.477	307.412	346.902	78.758	209.531	331.818	78.593	83.415	314.122	338.716	82.987	87.339	87.723	92.469	169.217	91.238	-8191	255	
6964.925	1	1	0	0	0.12491	0.32781	0.31374	0.33241	0.0090965	0.25643	0.30615	0.16204	0.11401	0.19596	0.26698	0.45899	0.25603	0.39984	0.088429	0.28562	-1.6375	-2.8208	-2.0958	-2.7354	-2.8187	-2.1667	-3.0938	-2.7646	-2.25	-2.9771	-2.4667	-2.3396	-2.7958	-2.2354	-2.6354	-2.8771	343.972	363.148	193.521	412.968	328.013	175.404	379.648	92.465	278.449	282.489	417.653	373.030	368.997	79.279	193.604	286.824	0.0012532	0.00021059	0.00025525	1342.4	4.0975e-06	2.3489e-06	1354.3	362.79	1.2006e-05	3.0479e-06	421.31	141.93	122.02	41.844	7.1982e-06	52.516	0.00046604	0.00043273	0.00012444	1356.7	5.0265e-06	4.7333e-06	1354.6	367.65	4.9919e-06	4.6538e-06	416.93	142.57	121.9	41.778	5.1197e-06	52.866	355.969	353.202	138.862	78.580	154.752	83.543	78.349	83.513	231.589	194.929	82.883	87.583	87.970	92.434	203.711	91.594	-8191	255	
6965.022	1	1	0	0	0.16873	0.10898	0.15312	0.13168	0.38424	0.12859	0.2765	0.22224	0.10355	0.29472	0.066562	0.13342	0.22256	0.20677	0.1565	0.27115	-1.5542	-2.6562	-2.3625	-2.6104	-2.8042	-2.1583	-2.8521	-2.7938	-2.1063	-2.6958	-2.4854	-2.5792	-2.8729	-2.3521	-2.4896	-2.8021	293.143	403.408	256.378	70.581	153.825	335.581	345.237	107.148	310.050	323.089	337.551	415.189	99.608	400.209	348.171	416.281	0.0010018	0.00029728	0.0001194	1339.7	2.8461e-06	4.0059e-06	1347.5	363.42	6.1624e-06	7.1998e-06	420.04	142.21	122.01	41.918	1.1654e-06	52.164	0.00045559	0.0004234	0.00013332	1354.4	4.9191e-06	4.6877e-06	1360.7	366.44	4.9051e-06	4.643e-06	421.19	142.27	121.44	41.786	5.3509e-06	52.434	350.014	137.693	141.073	78.625	421.066	157.974	78.604	83.495	197.004	146.217	82.959	87.308	87.805	92.623	254.763	91.413	-8191	255	
6965.118	1	1	0	0	0.24665	0.13089	0.11481	0.14721	0.098007	0.24197	0.21605	0.28551	0.089736	0.38656	0.3718	0.1743	0.34253	0.36409	0.16511	0.18499	-1.4042	-2.9208	-2.4104	-2.4958	-2.9292	-2.3333	-2.8208	-2.8042	-2.2958	-2.825	-2.8229	-2.3292	-2.8646	-2.4667	-2.1083	-3.0146	133.681	258.609	166.533	388.211	271.870	397.468	406.114	387.324	76.161	70.385	379.381	406.704	320.830	424.485	122.574	359.806	0.0011031	0.00030656	0.00015872	1339.9	5.6916e-06	3.2864e-06	1358.1	363.68	1.3909e-06	5.0126e-06	417.82	142.53	122.17	41.985	4.5984e-06	52.247	0.00044238	0.00042835	0.00013794	1348.7	4.7215e-06	4.753e-06	1365.6	364.99	4.7332e-06	4.7622e-06	422.19	141.45	120.88	42.067	5.4052e-06	52.161	350.851	124.159	163.720	78.560	336.617	138.853	78.539	83.421	135.214	182.623	83.039	87.478	88.053	92.247	137.769	91.363	-8191	255	
6965.212	1	1	0	0	0.14133	0.15666	0.33787	0.38113	0.14312	0.14828	0.1471	0.024364	0.095692	0.20795	0.22704	0.34767	0.1475	0.23564	0.1189	0.051979	-1.5271	-2.5604	-2.2333	-2.325	-3.05	-2.3271	-2.575	-3.0563	-2.0979	-2.5042	-2.6917	-2.3542	-2.8542	-2.5083	-2.5271	-2.9146	181.174	72.749	374.699	392.247	424.753	402.341	371.300	125.352	382.771	108.186	326.924	375.862	345.513	335.172	337.582	69.286	0.001302	0.00041436	8.6688e-05	1340.6	5.8368e-06	7.9983e-06	1353.2	362.73	1.0344e-05	1.0874e-05	419.94	142.65	122.82	42.224	3.8747e-06	52.354	0.0004257	0.00044631	0.00013685	1343.6	4.521e-06	4.953e-06	1363.3	363.5	4.5114e-06	4.9751e-06	420.09	140.9	120.72	42.462	5.1373e-06	51.909	350.985	116.790	190.083	78.718	251.621	162.803	78.439	83.348	190.143	196.185	82.914	87.317	87.856	92.486	375.998	91.233	-8191	255	
6965.308	1	1	0	0	0.29514	0.2484	0.022263	0.18219	0.1895	0.27696	0.31331	0.19532	0.062791	0.064161	0.35657	0.040454	0.2754	0.20427	0.16874	0.10738	-1.8979	-2.7458	-2.5354	-2.4437	-2.8875	-2.4396	-2.6292	-3	-2.1937	-2.4562	-3.0208	-2.1792	-2.9521	-2.6375	-2.35	-3.0479	110.227	382.691	355.314	270.485	383.742	318.591	347.195	424.340	158.992	179.877	395.290	365.246	320.672	339.411	237.073	376.741	0.0011036	0.00092823	6.634e-05	1344.7	3.9655e-06	4.621e-06	1355.8	363.51	1.5307e-05	3.624e-06	419.32	142.44	122.93	42.094	3.962e-06	52.346	0.00041084	0.00046104	0.00012839	1341.4	4.4076e-06	5.1306e-06	1359.7	362.68	4.4926e-06	5.1523e-06	416.88	140.46	120.95	42.623	4.8812e-06	51.694	357.056	136.243	199.069	78.713	280.672	143.745	78.422	83.374	206.757	222.347	82.797	87.521	88.157	92.213	418.640	91.378	-8191	255	
6965.404	1	1	0	0	0.18885	0.10804	0.28399	0.11654	0.15646	0.23801	0.19149	0.086052	0.3235	0.28248	0.47868	0.24472	0.17748	0.26336	0.16609	0.17262	-1.65	-2.5271	-2.6292	-2.2917	-2.8604	-2.7229	-2.6	-3.0812	-2.0771	-2.3958	-2.9938	-2.2542	-2.7979	-2.9375	-2.45	-2.9042	325.421	296.109	188.907	280.718	378.883	179.779	374.776	209.743	281.326	319.380	414.188	341.639	398.800	349.364	87.769	355.214	0.0012721	0.00040551	0.00013758	1343.6	8.4024e-06	6.0968e-06	1353.1	363.12	1.3277e-05	2.9717e-06	419.38	142.55	122.63	42.263	4.4901e-06	51.939	0.00042383	0.00047699	0.00012306	1337.5	4.668e-06	5.2877e-06	1355.4	361.85	4.8101e-06	5.2561e-06	415.87	140.21	122.07	42.695	4.8437e-06	51.494	344.141	245.754	295.425	78.740	206.162	175.561	78.613	83.559	192.146	307.915	82.800	87.548	87.972	92.250	126.222	91.347	-8191	255	
6965.525	1	1	0	0	0.090294	0.20195	0.13166	0.1472	0.16702	0.079728	0.18395	0.27558	0.16884	0.24048	0.15775	0.20827	0.090008	0.18194	0.13116	0.111	-2	-2.2854	-2.7562	-2.6688	-2.4125	-2.625	-2.3604	-2.9167	-2.5062	-2.2313	-3	-2.2188	-2.6583	-2.6833	-2.0667	-2.9021	176.937	287.531	270.969	395.519	93.843	202.542	287.776	345.685	157.020	74.130	82.537	352.035	209.729	391.392	355.949	327.068	0.001562	5.5042e-05	3.7404e-05	1341.2	7.7016e-06	3.3457e-06	1354.1	364.11	1.1685e-05	5.4757e-06	418.92	142.12	122.55	42.051	5.71e-06	52.441	0.00046072	0.00047836	0.00012109	1337.2	5.0732e-06	5.2186e-06	1354.4	362.09	5.2047e-06	5.1715e-06	414.41	140.15	122.99	42.479	4.7724e-06	51.767	347.105	300.489	252.274	78.683	209.815	87.824	78.402	83.504	135.881	368.474	82.966	87.568	87.675	92.217	69.200	91.462	-8191	255	
6965.621	1	1	0	0	0.14912	0.26651	0.097105	0.50652	0.077377	0.087054	0.11888	0.18169	0.20138	0.21427	0.13105	0.1859	0.17625	0.15738	0.21938	0.12155	-1.925	-2.2521	-2.675	-2.4354	-2.4188	-2.8229	-2.3396	-2.7958	-2.6604	-2.1667	-3.0417	-2.3979	-2.6375	-2.7479	-1.9833	-2.7583	401.316	399.475	425.213	68.002	153.347	385.510	417.822	360.143	364.480	248.814	368.449	84.702	402.033	324.700	309.170	288.042	0.0012402	7.5672e-05	0.00012059	1344.8	2.3704e-06	4.7897e-06	1355.2	362.48	5.9725e-06	4.9644e-06	417.82	142.57	122.63	42.024	4.1413e-06	52.343	0.00048419	0.00046243	0.00011921	1338.8	5.3018e-06	5.0337e-06	1352.3	363.21	5.3757e-06	5.0044e-06	413.7	141.4	123.64	42.317	4.7117e-06	52.277	349.275	348.072	337.484	78.516	116.745	218.518	78.615	83.539	135.279	135.728	82.873	87.412	87.940	92.304	381.173	91.077	-8191	255	
6965.717	1	1	0	0	0.32339	0.25207	0.19404	0.28311	0.32293	0.096807	0.087861	0.2487	0.10865	0.054636	0.17817	0.23122	0.10056	0.13691	0.12078	0.21092	-2.15	-1.9646	-2.9979	-2.2938	-2.4062	-2.7396	-2.325	-2.7562	-2.5958	-2.2854	-2.9333	-2.4083	-2.4875	-2.8771	-2.1437	-2.8125	316.680	119.359	118.908	340.552	274.016	299.023	87.163	355.778	205.991	353.405	137.082	389.792	247.546	421.940	208.774	354.073	0.0011621	0.00040257	3.382e-05	1346.7	3.8646e-06	2.8047e-06	1353.6	364.88	3.9235e-06	5.0028e-06	418.94	142.33	122.05	41.993	5.2677e-06	52.379	0.00049797	0.00045539	0.00011905	1350.4	5.4234e-06	4.987e-06	1353.3	366.71	5.501e-06	5.0891e-06	414.37	142.72	123.46	42.302	4.8524e-06	53.066	357.925	198.784	275.920	78.653	245.149	85.628	78.563	83.583	288.842	185.074	82.830	87.782	87.966	92.167	187.915	91.586	-8191	255	
6965.789	1	1	0	0	0.12585	0.27543	0.023672	0.11997	0.1716	0.033042	0.54757	0.28269	0.13088	0.27959	0.096507	0.29882	0.149	0.20578	0.21728	0.1376	-2.225	-2.15	-2.9313	-2.5333	-2.2104	-2.9542	-2.1188	-2.9708	-2.6042	-2.1208	-2.9771	-2.7062	-2.1813	-2.8292	-2.1375	-2.6312	383.413	167.797	388.596	326.006	128.606	408.425	75.992	392.802	180.421	87.190	134.817	409.125	99.011	399.786	377.418	288.065	0.00067551	0.00071169	7.136e-05	1347.1	3.4827e-06	4.4665e-06	1357.1	364.14	1.9207e-06	3.0934e-06	422.87	142.19	122.33	41.813	1.4875e-05	51.944	0.00050295	0.00046523	0.00012333	1362.7	5.4495e-06	5.0818e-06	1359.6	369.46	5.4589e-06	5.0806e-06	417.87	143.77	123.17	42.085	5.0999e-06	53.247	365.655	190.795	97.932	78.699	292.878	303.465	78.486	83.663	185.362	160.887	83.045	87.578	88.058	92.158	191.564	91.400	-8191	255	
6965.910	1	1	0	0	0.093081	0.10383	0.085388	0.16516	0.24734	0.13848	0.083345	0.34893	0.16774	0.044785	0.13259	0.051318	0.31832	0.2573	0.18389	0.12433	-2.2854	-2.1146	-2.8563	-2.4208	-2.2562	-2.7396	-2.45	-2.5125	-2.7417	-1.9813	-2.725	-2.4021	-2.2333	-2.8271	-2.3271	-2.3937	388.502	225.721	313.385	384.353	309.967	139.127	275.555	92.767	369.465	136.108	350.002	373.230	68.799	370.644	185.152	339.751	0.00097295	0.00036318	0.0001719	1341.4	3.4647e-06	4.051e-06	1354.7	362.17	1.552e-06	1.4832e-06	419.78	141.29	121.54	41.705	1.497e-05	51.649	0.00049416	0.00046183	0.00013115	1368.4	5.3502e-06	5.049e-06	1365.3	370.82	5.3515e-06	5.0235e-06	422.17	143.76	122.59	41.986	5.5453e-06	53.147	350.013	421.413	170.079	78.571	224.741	257.359	78.382	83.316	155.304	297.508	83.033	87.519	88.164	92.432	179.472	91.158	-8191	255	
6966.006	1	1	0	0	0.281	0.12798	0.16225	0.083214	0.18609	0.13048	0.28522	0.14982	0.12067	0.16867	0.023212	0.16968	0.21946	0.11524	0.14109	0.089856	-2.3708	-2.0875	-2.6833	-2.8	-1.9729	-2.9562	-2.5146	-2.5479	-2.7208	-2.2083	-2.7396	-2.8083	-2.2979	-2.7188	-2.6354	-2.4688	181.027	232.135	346.056	142.621	163.973	304.659	375.021	353.937	335.859	416.259	148.122	307.261	346.653	72.778	356.240	275.586	0.0013111	0.00016619	0.00017859	1342	4.3161e-06	1.7043e-06	1355.3	363.62	2.076e-06	6.422e-06	419.99	141.27	121.72	41.811	7.449e-06	51.598	0.00048399	0.00045622	0.00014112	1367	5.2365e-06	4.9296e-06	1373.7	370.18	5.1893e-06	4.9878e-06	425.37	142.88	122.21	42.065	5.7593e-06	52.736	363.730	143.139	143.501	78.501	219.392	119.979	78.416	83.463	345.640	238.131	82.995	87.498	87.839	92.476	165.106	91.720	-8191	255	
6966.102	1	1	0	0	0.10953	0.20844	0.2201	0.26722	0.1457	0.06341	0.20432	0.12907	0.24976	0.12371	0.058162	0.19436	0.31325	0.2748	0.20906	0.30377	-2.4417	-1.9083	-2.6729	-2.9167	-2.1771	-2.7083	-2.7771	-2.2542	-2.9083	-2.2271	-2.575	-2.7625	-2.0687	-2.8271	-2.4396	-2.35	255.472	96.382	340.740	425.203	331.856	338.509	374.504	415.213	174.125	167.068	362.214	97.973	391.110	352.532	115.466	290.367	0.0011495	0.000378	4.5369e-05	1345.9	1.4546e-06	8.6034e-06	1353.5	362.7	5.3338e-06	7.7074e-06	417.59	141.62	121.81	41.747	1.3749e-06	51.879	0.00047027	0.00046139	0.00014635	1361	5.0799e-06	5.0395e-06	1375.5	367.54	4.9751e-06	5.1081e-06	425.5	141.93	121.37	42.087	5.709e-06	52.258	340.830	147.427	274.833	78.767	201.029	146.292	78.516	83.448	200.653	172.288	82.823	87.426	88.088	92.315	115.916	91.457	-8191	255	
6966.198	1	1	0	0	0.087838	0.12026	0.016457	0.1975	0.16073	0.091868	0.23145	0.36839	0.10758	0.057182	0.11924	0.14482	0.040703	0.056995	0.16005	0.13276	-2.2229	-2.5208	-2.3063	-2.9875	-2.1104	-2.5438	-2.8	-2.4396	-2.9208	-2.2354	-2.2562	-2.9729	-2.0667	-2.6854	-2.6542	-2.0458	422.886	309.491	282.306	305.582	131.898	264.360	373.311	363.299	286.342	295.530	247.704	252.861	356.304	310.980	223.594	65.734	0.0011177	0.00042055	0.00011994	1340.6	3.7469e-06	4.8531e-06	1359.6	364.45	2.076e-06	3.4081e-06	418.02	141.58	122.13	41.742	2.7089e-06	51.808	0.00044352	0.00047302	0.00014249	1352.3	4.79e-06	5.2544e-06	1373.2	366.72	4.7601e-06	5.3754e-06	423.28	141.2	120.98	42.418	5.4236e-06	52.018	352.705	102.273	389.833	78.634	267.622	148.038	78.144	83.424	368.453	199.640	83.000	87.418	87.820	92.305	99.156	91.393	-8191	255	
6966.317	1	1	0	0	0.16955	0.16411	0.069047	0.096646	0.062142	0.10777	0.057049	0.14775	0.094688	0.092075	0.16881	0.15755	0.1818	0.27473	0.27934	0.10338	-2.1896	-2.35	-2.4417	-2.9062	-2.3521	-2.5875	-2.9813	-2.3333	-2.7583	-2.4354	-2.3479	-2.8354	-2.3063	-2.55	-2.6396	-2.2188	118.624	414.052	416.211	337.737	71.902	152.147	303.727	396.179	359.207	266.521	312.657	386.051	105.130	348.197	177.588	102.363	0.0012465	0.0011192	8.0481e-05	1344.1	1.0695e-05	9.3089e-06	1355.2	364.39	8.1392e-06	5.143e-06	418.18	141.94	122.61	41.762	3.1269e-06	51.953	0.00043503	0.00049752	0.00013621	1349	4.7637e-06	5.4687e-06	1368.6	365.56	4.7798e-06	5.5739e-06	420.58	140.53	121.5	42.633	5.2179e-06	51.799	347.601	114.766	348.506	78.750	260.224	178.017	78.435	83.448	145.338	205.288	83.191	87.452	87.946	92.571	84.067	91.283	-8191	255	
6966.413	1	1	0	0	0.15183	0.10638	0.089747	0.079248	0.14719	0.098174	0.26441	0.30119	0.15099	0.06593	0.22221	0.27231	0.26128	0.1851	0.054884	0.11207	-2.0896	-2.375	-2.1208	-3.1896	-2.2479	-2.4917	-2.9542	-2.1625	-2.5708	-2.6521	-2.1667	-2.9958	-2.4938	-2.4208	-2.8812	-2.1917	210.029	160.781	268.144	394.747	182.089	338.725	339.575	379.872	93.881	79.505	295.831	388.119	69.264	366.304	236.237	90.520	0.0014349	0.00068798	3.8854e-05	1339.4	8.8862e-06	1.4799e-06	1359.3	363.11	1.4415e-05	2.4632e-06	420.76	141.48	122.27	41.736	2.352e-06	51.756	0.0004517	0.00050768	0.0001301	1344.8	5.0152e-06	5.5526e-06	1364	364.28	5.0643e-06	5.5811e-06	419.34	140.32	122.43	42.614	5.0781e-06	51.644	345.136	126.097	370.265	78.453	203.619	300.575	78.385	83.497	173.294	367.366	83.008	87.371	87.961	92.507	154.974	91.350	-8191	255	
6966.509	1	1	0	0	0.33796	0.33509	0.28546	0.24951	0.18523	0.092802	0.28133	0.15709	0.095465	0.11978	0.068832	0.2003	0.14406	0.22887	0.187	0.12781	-2.1208	-2.4688	-1.8854	-2.8729	-2.3917	-2.1583	-3.0708	-2.0917	-2.6688	-2.4792	-2.25	-2.9292	-2.375	-2.2188	-2.5229	-2.3042	396.264	281.742	296.971	345.547	135.209	409.781	386.855	386.235	303.806	291.295	103.626	114.708	337.734	153.943	310.476	372.557	0.0012836	0.00010196	0.00010715	1349.6	7.4096e-06	5.1995e-06	1356.1	365.04	1.7613e-05	1.7827e-06	418.38	141.42	122.16	41.619	4.7013e-06	51.864	0.00048463	0.00050291	0.00012831	1345.1	5.3827e-06	5.427e-06	1362	364.31	5.3735e-06	5.3517e-06	417.63	140.04	123.13	42.316	4.8766e-06	51.756	344.825	139.478	184.950	78.527	234.914	120.240	78.403	83.619	179.220	276.105	82.975	87.337	87.900	92.544	223.704	91.145	-8191	255	
6966.605	1	1	0	0	0.10001	0.32436	0.14343	0.16519	0.1159	0.16849	0.29147	0.17999	0.15051	0.086699	0.37759	0.12521	0.15529	0.20728	0.12691	0.092061	-2.0354	-2.4813	-2.1333	-2.9229	-2.3917	-2.2521	-3.1188	-2.3104	-2.6312	-2.7271	-2.1937	-3.0021	-2.6875	-2.1042	-2.9313	-2.3187	126.989	423.955	123.063	350.086	94.685	114.325	333.553	87.944	186.645	414.729	372.921	418.765	89.645	368.145	139.101	269.621	0.0014559	0.00032032	9.4226e-05	1343.6	6.5209e-06	1.72e-06	1359.9	365.22	5.9729e-06	3.511e-06	418.64	142.13	122.3	41.777	7.3882e-06	52.013	0.00049759	0.00047353	0.00012359	1345.7	5.4945e-06	5.1366e-06	1358.5	365.13	5.4461e-06	5.0953e-06	414.95	140.82	123.22	42.042	4.7172e-06	52.031	350.450	210.450	73.808	78.681	189.471	296.978	78.501	83.788	219.190	390.441	82.990	87.514	88.001	92.492	220.022	91.634	-8191	255	
6966.702	1	1	0	0	0.31817	0.060411	0.08813	0.013599	0.23496	0.21412	0.14175	0.1415	0.37909	0.11839	0.1147	0.072585	0.14349	0.35274	0.35672	0.16317	-2.0396	-2.6792	-2.0062	-2.8438	-2.6604	-2.1375	-3.0375	-2.4375	-2.3729	-2.6312	-2.0979	-2.8167	-2.7979	-2.1458	-2.7979	-2.4646	400.126	309.801	327.317	398.475	135.216	374.536	83.554	165.727	100.225	193.852	357.324	337.577	130.721	80.311	207.945	368.405	0.001186	0.00071381	3.426e-05	1345.4	4.0687e-06	1.3453e-06	1356.8	364.84	1.9118e-06	1.9466e-06	418.16	141.82	121.65	41.783	3.1599e-06	52.148	0.00049659	0.00045438	0.00011884	1353.2	5.4391e-06	4.9445e-06	1353.7	366.8	5.3823e-06	4.9706e-06	413.63	141.97	123.01	42.019	4.6942e-06	52.644	344.245	142.811	192.115	78.624	214.478	333.098	78.440	83.518	75.924	270.449	83.104	87.689	87.785	92.341	235.335	91.449	-8191	255	
6966.798	1	1	0	0	0.13221	0.13504	0.23653	0.25454	0.12545	0.15958	0.32516	0.26147	0.39025	0.20767	0.21485	0.060918	0.15468	0.12585	0.22503	0.16016	-1.6229	-2.7354	-2.0375	-2.6708	-2.6042	-2.1521	-2.9604	-2.7271	-2.4021	-2.7521	-2.3875	-2.5938	-2.7333	-2.1292	-2.6646	-2.6604	88.410	360.877	367.779	421.084	222.517	354.151	409.074	404.370	253.160	101.688	130.343	286.001	287.006	101.770	73.407	120.331	0.00068417	0.00035144	9.7853e-05	1350.6	5.3686e-06	2.5626e-06	1357.3	364.1	7.3402e-06	4.5966e-06	420.96	141.99	122.3	41.612	5.7543e-06	51.686	0.0004856	0.00044764	0.00012016	1361.5	5.269e-06	4.8846e-06	1356.9	368.93	5.2369e-06	4.8919e-06	415.96	143.08	122.48	41.881	4.9118e-06	52.835	338.699	147.534	141.169	78.719	220.728	182.637	78.397	83.576	378.298	182.352	82.938	87.338	87.952	92.246	157.059	91.249	-8191	255	
6966.918	1	1	0	0	0.22705	0.11063	0.35001	0.17355	0.027243	0.18859	0.29565	0.26371	0.2946	0.17492	0.20942	0.27824	0.22463	0.38285	0.15982	0.17801	-1.7125	-2.8854	-2.2042	-2.5729	-2.8271	-1.925	-2.8292	-2.85	-2.1854	-3.1333	-2.3667	-2.4771	-2.9729	-1.9562	-2.6417	-2.8271	265.309	343.158	284.535	423.150	423.769	231.329	361.646	347.505	169.432	256.230	381.692	412.472	340.167	328.376	328.244	313.344	0.0010866	0.00037197	0.00012892	1351	8.4331e-07	3.6446e-06	1362	365.48	2.1836e-06	2.8511e-06	420.62	141.54	122	41.675	1.3841e-05	52.051	0.00046918	0.00044082	0.00012718	1367.6	5.1249e-06	4.8094e-06	1365.5	370.06	5.0782e-06	4.786e-06	419.93	142.8	121.97	41.798	5.272e-06	52.955	353.814	305.187	113.807	78.618	175.211	91.535	78.578	83.334	236.103	70.429	82.985	87.521	87.884	92.527	186.013	91.295	-8191	255	
6967.013	1	1	0	0	0.042538	0.2112	0.17483	0.30724	0.26349	0.13912	0.14285	0.47768	0.10427	0.13166	0.21067	0.20086	0.084851	0.17189	0.30012	0.26129	-1.6833	-2.9354	-2.2708	-2.5896	-2.8083	-2.0896	-2.7771	-2.8854	-1.9896	-2.8104	-2.5229	-2.2375	-2.9562	-2.3396	-2.4396	-2.8458	75.792	140.554	319.683	381.355	300.372	338.718	339.383	424.780	374.560	111.897	351.637	374.834	311.254	423.183	320.681	396.607	0.0010232	0.00044266	0.00011812	1347	1.6678e-06	2.2957e-06	1355.9	364.27	5.525e-06	4.9291e-06	420.83	142.09	121.91	41.796	5.7559e-06	51.975	0.00046235	0.00043676	0.00013672	1362.3	5.0466e-06	4.757e-06	1370.3	368.17	4.9729e-06	4.7726e-06	423.32	142.46	121.42	41.778	5.4439e-06	52.425	355.528	86.767	173.666	78.566	95.315	206.099	78.383	83.557	342.401	193.484	83.030	87.410	87.798	92.416	195.500	91.418	-8191	255	
6967.086	1	1	0	0	0.04013	0.15863	0.015468	0.17532	0.24955	0.3404	0.25675	0.16917	0.18864	0.1936	0.29185	0.1675	0.18991	0.23652	0.21213	0.26948	-1.5917	-2.625	-2.2833	-2.5312	-2.65	-2.3979	-2.6396	-2.9583	-2.0417	-2.825	-2.4562	-2.2979	-2.8438	-2.3083	-2.5042	-2.7562	267.533	273.213	103.704	99.716	356.895	320.062	400.540	350.027	133.662	265.315	401.626	354.236	67.146	405.277	333.463	353.751	0.00082299	0.0008059	0.00020006	1350.4	4.7556e-06	5.5239e-06	1359.3	364.95	5.7867e-06	4.9391e-06	419.14	142.28	122.78	41.986	3.1984e-06	52.089	0.00044368	0.00043148	0.00013898	1356.1	4.7643e-06	4.7961e-06	1371	365.83	4.66e-06	4.7494e-06	421.71	141.32	121.17	42.085	5.3019e-06	51.999	365.920	108.224	175.575	78.691	209.404	121.713	78.400	83.487	189.887	205.444	82.824	87.286	87.737	92.455	246.903	91.174	-8191	255	
6967.182	1	1	0	0	0.084095	0.1096	0.081733	0.18055	0.2818	0.086107	0.20253	0.023617	0.12656	0.22458	0.26106	0.17944	0.50483	0.15287	0.18173	0.055492	-1.4188	-2.5646	-2.4938	-2.1937	-2.7917	-2.2417	-2.5208	-2.8312	-2.075	-2.8521	-2.6125	-2.2729	-2.7667	-2.3896	-2.4083	-2.6937	415.824	126.452	416.042	362.310	362.166	72.413	308.210	93.178	334.713	346.652	386.218	385.806	387.101	159.545	89.404	276.649	0.0012921	0.00079397	1.4598e-05	1347.5	4.9144e-06	6.0277e-06	1360.1	364.32	9.6431e-06	6.3737e-06	420.28	142.51	122.93	42.317	4.8935e-06	52.204	0.00041517	0.00044226	0.00013395	1347.3	4.4593e-06	4.9525e-06	1368.3	364.76	4.4585e-06	5.0006e-06	420.52	140.91	120.89	42.506	5.1351e-06	51.942	366.658	98.860	293.115	78.680	97.725	177.198	78.366	83.627	200.003	151.851	83.094	87.398	87.705	92.131	255.883	91.470	-8191	255	
6967.301	1	1	0	0	0.17869	0.095384	0.10488	0.37392	0.090754	0.17944	0.26376	0.1767	0.15395	0.10053	0.13395	0.26396	0.032179	0.22341	0.25539	0.20162	-1.9167	-2.4188	-2.675	-2.325	-2.6667	-2.3292	-2.3854	-3.0646	-2.1813	-2.575	-2.7938	-2.0563	-3.0604	-2.4625	-2.3333	-2.7313	408.273	114.836	283.044	394.977	245.669	323.617	322.570	299.897	127.769	137.378	390.934	130.654	307.912	365.861	316.369	365.930	0.00096959	0.0014386	4.5648e-05	1342.9	3.0738e-06	4.8935e-06	1359.9	362.94	1.4591e-05	4.6436e-06	420.29	142.36	123.07	42.192	5.1238e-06	52.378	0.00041683	0.00047209	0.00012967	1344.9	4.5407e-06	5.2551e-06	1365.8	363.96	4.6243e-06	5.2467e-06	417.73	140.81	121.61	42.702	4.9627e-06	51.869	352.640	130.469	338.323	78.582	161.703	173.626	78.501	83.477	173.287	186.834	82.781	87.229	87.906	92.415	397.626	91.396	-8191	255	
6967.397	1	1	0	0	0.1456	0.14635	0.17403	0.077454	0.13445	0.11064	0.35156	0.040655	0.10768	0.105	0.17142	0.1413	0.19921	0.39075	0.1578	0.19134	-1.7708	-2.5208	-2.8083	-2.3229	-2.7271	-2.6583	-2.1083	-2.9188	-2.3063	-2.5062	-2.7562	-2.4271	-2.6979	-2.5438	-1.8792	-2.9188	161.042	382.292	201.849	102.752	312.230	244.984	362.250	177.905	377.096	286.014	355.819	69.524	362.340	106.750	268.692	362.356	0.0012327	0.00046015	0.00015484	1346.1	1.0249e-05	4.0493e-06	1361.1	363.51	8.5069e-06	3.1219e-06	420.58	143.31	123.13	42.207	4.4162e-07	52.433	0.00043268	0.00048026	0.00012454	1340.9	4.7698e-06	5.2723e-06	1360.4	363.15	4.8443e-06	5.2211e-06	416.43	140.14	122.21	42.59	4.7355e-06	51.656	347.124	423.578	331.600	78.657	217.403	208.922	78.528	83.561	221.116	92.155	82.832	87.342	87.775	92.238	275.275	91.442	-8191	255	
6967.494	1	1	0	0	0.26027	0.15059	0.12155	0.61858	0.12351	0.36905	0.176	0.26767	0.13067	0.30615	0.043573	0.1652	0.15045	0.26862	0.36894	0.18247	-1.8771	-2.2708	-2.7833	-2.0875	-2.4167	-2.5646	-2.4292	-2.9813	-2.2792	-2.4146	-2.7625	-2.2958	-2.6292	-2.8542	-2.1521	-2.8688	287.013	294.310	328.010	407.798	226.602	338.405	380.328	367.907	245.403	424.393	311.435	99.561	112.509	423.898	121.896	260.030	0.0012998	0.00046422	0.0001202	1342.2	1.2061e-05	2.8285e-06	1359.8	364.99	3.9487e-06	2.7897e-06	421.66	143.03	123.09	42.218	3.6058e-06	52.58	0.00045676	0.00046478	0.00012051	1338	5.0494e-06	5.1139e-06	1355.8	363.18	5.176e-06	5.0543e-06	415.73	140.53	123.09	42.458	4.6332e-06	51.76	336.148	267.568	237.657	78.600	210.524	289.884	78.495	83.651	132.546	398.367	82.882	87.099	87.880	92.430	151.037	91.517	-8191	255	
6967.590	1	1	0	0	0.045479	0.20201	0.36688	0.095332	0.028903	0.2957	0.082175	0.18546	0.24791	0.29614	0.25284	0.091551	0.057459	0.23684	0.036358	0.22634	-1.9667	-1.8813	-2.8521	-2.2812	-2.625	-2.8021	-2.4625	-2.8937	-2.5479	-2.225	-2.9896	-2.5438	-2.4708	-2.9271	-1.9854	-2.6979	186.287	321.719	292.887	70.256	332.840	238.374	413.226	361.184	153.253	133.409	241.000	403.216	141.846	381.708	388.005	350.886	0.0014295	0.00021729	8.3414e-05	1345.9	6.5175e-06	2.7824e-06	1361.2	365.27	6.0691e-06	2.7345e-06	418.66	143.53	123.22	42.322	4.6476e-06	52.719	0.00047579	0.00044572	0.0001156	1338.6	5.1686e-06	4.8377e-06	1353.9	363.65	5.1994e-06	4.7676e-06	412.01	141.27	123.41	42.302	4.4721e-06	52.227	358.750	274.659	241.092	78.686	213.218	80.538	78.550	83.583	207.932	245.588	82.816	87.532	87.867	92.251	198.235	91.677	-8191	255	
6967.686	1	1	0	0	0.20636	0.058068	0.072388	0.036018	0.080585	0.19968	0.050962	0.070891	0.13324	0.071659	0.12672	0.085609	0.14137	0.24815	0.14043	0.1467	-2.0104	-2.0958	-2.8458	-2.3792	-2.4813	-2.6479	-2.5187	-2.9375	-2.5417	-2.2458	-3.0292	-2.375	-2.575	-2.8479	-2.4375	-2.7271	350.155	239.414	370.995	333.810	143.385	353.070	417.693	316.773	157.918	375.860	363.646	296.890	69.531	410.126	233.885	399.134	0.001068	0.00011279	7.9925e-05	1345	1.8696e-06	4.543e-06	1357.5	365	1.2498e-05	4.1287e-06	420.51	143.58	123.46	42.297	4.0724e-06	52.865	0.00047299	0.00042938	0.00011176	1346	5.0901e-06	4.666e-06	1349.7	365.82	5.0337e-06	4.6386e-06	411.27	142.31	122.89	42.177	4.3793e-06	52.658	336.477	112.524	151.216	78.755	173.709	328.607	78.609	83.409	217.069	167.538	83.002	87.485	87.770	92.245	163.315	91.261	-8191	255	
6967.782	1	1	0	0	0.20271	0.12245	0.22089	0.2235	0.11878	0.23647	0.33919	0.24802	0.087681	0.17257	0.17075	0.27296	0.23867	0.20249	0.12573	0.19673	-2.4542	-2.1792	-2.7188	-2.5563	-2.1792	-2.9479	-2.4958	-2.5938	-2.7125	-2.2604	-2.6604	-2.6771	-2.1854	-2.7979	-2.1146	-2.4229	264.235	73.317	122.938	355.856	170.453	97.208	310.730	88.094	395.704	258.022	370.366	376.414	330.086	337.253	258.481	351.079	0.0011089	0.00022693	4.1583e-05	1346	1.2957e-06	1.1653e-06	1363.4	366.18	8.4907e-06	1.167e-06	422.5	143.33	123.39	42.563	1.051e-05	52.488	0.00045029	0.00041442	0.00011132	1354.5	4.8529e-06	4.5379e-06	1354.4	367.65	4.8248e-06	4.5077e-06	413.47	143.37	122.57	42.163	4.5831e-06	52.81	351.425	373.856	416.591	78.660	274.224	95.796	78.495	83.485	303.343	351.871	83.066	87.342	87.901	92.338	186.140	91.437	-8191	255	
6967.878	1	1	0	0	0.035145	0.085249	0.034757	0.13733	0.24247	0.15429	0.40472	0.045684	0.027255	0.12887	0.19748	0.027418	0.28396	0.13555	0.15387	0.24302	-2.0542	-2.0542	-2.5812	-2.8104	-2.0333	-2.8812	-2.1917	-2.7083	-2.6104	-2.1854	-2.6292	-2.75	-2.2083	-3.0875	-2.2271	-2.4271	157.460	233.678	271.778	133.558	217.301	363.496	367.472	186.266	397.750	151.734	106.209	410.982	419.973	358.096	76.132	337.165	0.0011889	9.9843e-05	7.2566e-05	1343.1	3.1508e-06	6.4586e-06	1359.1	365.51	5.9158e-06	1.3804e-06	423.09	144.41	123.48	42.298	1.0007e-05	52.602	0.00043626	0.00040658	0.00011767	1355.4	4.703e-06	4.4186e-06	1358.1	367.47	4.6897e-06	4.416e-06	416.63	143.35	122.21	41.899	4.9008e-06	52.723	350.781	256.186	160.892	78.712	271.820	251.519	78.542	83.521	382.557	377.088	83.169	87.472	87.745	92.340	203.552	91.178	-8191	255	
6967.999	1	1	0	0	0.10409	0.17028	0.33736	0.19916	0.20643	0.12646	0.30535	0.27368	0.27467	0.13451	0.28436	0.11858	0.14256	0.097159	0.37056	0.10833	-2.1688	-2.2271	-2.6292	-2.6042	-2.2146	-2.7708	-2.6167	-2.6229	-2.8292	-2.1354	-2.7021	-2.6833	-2.0563	-2.7812	-2.4833	-2.4	229.865	270.189	326.243	74.446	235.130	286.543	356.937	418.038	394.371	396.362	372.846	176.645	90.205	376.633	198.835	120.123	0.0011646	0.00040895	0.00013567	1345.5	6.2861e-06	4.5817e-07	1365	365.13	9.852e-06	5.0287e-06	420.18	143.7	123.19	42.487	8.8289e-06	52.752	0.00042444	0.00040105	0.00012589	1351.4	4.5903e-06	4.3641e-06	1365.1	366.65	4.5285e-06	4.3811e-06	419.24	142.15	121.63	42.011	5.078e-06	52.409	361.287	340.279	114.408	78.757	294.298	252.264	78.401	83.495	161.132	209.215	83.011	87.309	87.852	92.190	219.280	91.365	-8191	255	
6968.095	1	1	0	0	0.30336	0.1587	0.084794	0.11953	0.29255	0.20598	0.32644	0.29444	0.16669	0.1119	0.27453	0.22626	0.19372	0.068951	0.19609	0.02929	-2.1667	-2.2646	-2.5062	-2.9813	-1.9937	-2.5687	-2.5729	-2.3083	-2.9062	-2.3042	-2.4458	-2.7896	-2.2438	-2.7938	-2.5021	-2.3187	269.185	178.450	349.761	289.811	269.066	220.205	399.966	359.171	258.696	178.218	377.066	310.624	104.893	367.817	407.930	406.158	0.00098732	0.00040881	5.5782e-05	1351.6	7.3876e-06	1.0705e-06	1366	366.58	3.1332e-06	9.0513e-06	420.33	143.1	123.62	42.462	5.9441e-06	52.597	0.0004118	0.0004042	0.00012868	1348.5	4.406e-06	4.4957e-06	1368.9	365.1	4.4033e-06	4.6008e-06	420.44	141.61	121.39	42.274	5.1398e-06	52.154	365.472	396.592	81.425	78.498	207.499	123.437	78.551	83.280	312.919	193.305	82.900	87.153	87.926	92.312	199.694	91.537	-8191	255	
6968.191	1	1	0	0	0.038191	0.24316	0.089174	0.18852	0.17232	0.24726	0.055275	0.16381	0.078316	0.18063	0.14034	0.1694	0.25863	0.026175	0.23678	0.092413	-2.4292	-2.1729	-2.2583	-2.9062	-2.0083	-2.5667	-2.7479	-2.0375	-2.8458	-2.3521	-2.4917	-2.8563	-2.2333	-2.5938	-2.7479	-2.3583	135.239	399.646	118.630	290.145	415.858	385.578	71.628	381.835	258.823	340.901	294.930	289.125	333.528	323.455	296.605	346.779	0.0008097	0.00073211	5.6489e-05	1342.7	2.023e-06	7.7596e-06	1363.4	365.76	6.9736e-06	3.0651e-06	421.8	142.99	123.3	42.416	2.9993e-06	52.333	0.00040467	0.00043733	0.0001294	1344.9	4.388e-06	4.8679e-06	1368	364.78	4.3816e-06	4.9754e-06	419.22	141.03	121.16	42.574	5.004e-06	51.909	347.436	125.216	200.938	78.677	181.362	180.724	78.485	83.582	260.654	132.277	82.700	87.303	87.847	92.310	88.660	91.480	-8191	255	
6968.310	1	1	0	0	0.26337	0.19037	0.20193	0.018815	0.083428	0.060953	0.13591	0.15635	0.0836	0.30159	0.078951	0.16702	0.039111	0.1889	0.24759	0.092218	-2.2708	-2.2938	-2.2646	-3.0396	-2.2021	-2.3542	-2.75	-2.2208	-2.625	-2.4313	-2.3604	-2.9437	-2.2667	-2.6354	-2.5854	-2.1625	353.232	168.049	251.709	254.107	317.941	169.370	377.140	372.739	194.801	231.596	222.461	310.943	156.736	92.032	363.838	359.650	0.00095938	0.00024981	4.4445e-05	1349.1	6.1122e-06	4.2263e-06	1364.7	365.58	1.3081e-05	3.0559e-06	420.01	142.98	122.99	42.351	2.9273e-06	52.341	0.00040367	0.00046437	0.00012493	1343.8	4.4662e-06	5.0963e-06	1364	363.76	4.4843e-06	5.1353e-06	416.83	140.8	121.57	42.682	4.7316e-06	51.691	357.531	92.586	181.846	78.737	170.155	194.574	78.521	83.485	195.672	390.094	83.064	87.025	88.104	92.297	384.630	91.330	-8191	255	
6968.382	1	1	0	0	0.26656	0.1852	0.24195	0.18021	0.20152	0.10199	0.31123	0.36583	0.29352	0.10611	0.090154	0.12004	0.3154	0.12574	0.053691	0.14365	-2.3	-2.2	-2.0438	-2.9188	-2.2646	-2.3833	-2.9125	-2.4271	-2.6292	-2.4958	-2.1917	-2.6875	-2.2583	-2.3021	-2.9083	-2.1417	348.385	373.292	279.607	84.877	86.463	141.532	415.072	330.256	100.586	158.830	311.757	361.800	277.453	214.301	362.369	422.102	0.0016338	7.0118e-05	0.00013498	1344.9	9.5972e-06	1.9876e-06	1363.7	365.22	1.2991e-05	6.5908e-07	421.54	143.97	123.75	42.599	3.4737e-06	52.963	0.00041956	0.0004666	0.0001184	1338	4.6459e-06	5.0606e-06	1360.4	363.02	4.6983e-06	5.0669e-06	414.78	140.42	122.58	42.747	4.568e-06	51.718	339.765	380.854	117.165	78.370	178.738	116.837	78.434	83.231	147.681	103.589	82.902	87.258	87.777	92.353	156.630	91.377	-8191	255	
6968.478	1	1	0	0	0.049709	0.12697	0.10778	0.38702	0.23137	0.31367	0.41673	0.18699	0.16066	0.0088952	0.34594	0.19055	0.25991	0.24112	0.21918	0.27192	-2.1833	-2.6312	-1.9542	-2.7708	-2.2792	-2.1854	-2.9146	-2.3479	-2.4396	-2.6417	-1.9854	-2.8312	-2.5062	-2.2521	-2.625	-2.2646	345.230	156.534	197.444	394.353	96.730	372.482	378.805	364.382	337.505	137.446	382.172	180.435	382.812	70.916	86.918	295.260	0.0015396	0.00025169	2.4103e-05	1349	3.7323e-06	3.7236e-06	1366.9	366.03	1.2594e-05	6.5242e-07	424.33	144.06	123.59	42.633	4.23e-06	52.582	0.00043966	0.00044939	0.00011521	1337	4.9226e-06	4.8871e-06	1356.8	363.25	4.9357e-06	4.8505e-06	413.84	140.9	123.31	42.447	4.4429e-06	51.751	351.392	94.407	107.893	78.579	252.745	77.074	78.245	83.606	178.357	132.432	82.896	87.510	87.812	92.241	164.555	91.395	-8191	255	
6968.598	1	1	0	0	0.22785	0.18288	0.14419	0.10596	0.1271	0.036885	0.25624	0.18346	0.17628	0.14864	0.24243	0.28238	0.067085	0.081371	0.16032	0.19005	-2.2104	-2.625	-2.2604	-3.0604	-2.5021	-2.1542	-3.125	-2.2479	-2.4062	-2.5875	-2.1417	-2.7812	-2.6729	-2.3167	-2.725	-2.4333	379.772	318.092	394.656	65.516	186.921	218.250	359.533	406.008	279.615	75.358	332.714	67.800	381.020	189.806	391.285	284.669	0.0011713	0.00041856	7.5116e-05	1344.4	1.6782e-06	1.9437e-06	1362.1	364.82	2.276e-06	5.0856e-06	420.12	143.28	123.97	42.34	1.8155e-06	52.57	0.00046083	0.00043352	0.00011231	1340.2	5.0578e-06	4.6848e-06	1353.3	363.71	5.0555e-06	4.7013e-06	411.78	141.02	123.42	42.285	4.3878e-06	52.298	363.066	234.184	177.468	78.683	284.180	422.179	78.473	83.440	245.333	75.854	82.847	87.451	88.034	92.226	261.665	91.235	-8191	255	
6968.695	1	1	0	0	0.35834	0.20827	0.12652	0.17155	0.23646	0.022857	0.17541	0.31637	0.063598	0.13355	0.1837	0.33711	0.037476	0.32717	0.17247	0.23609	-1.9542	-2.6271	-2.2146	-2.9604	-2.3208	-2.2667	-3.0417	-2.3875	-2.2687	-2.6813	-2.3458	-2.6188	-2.8292	-2.0208	-2.9646	-2.4604	145.911	166.060	388.083	320.930	203.961	107.374	370.028	363.994	242.251	374.340	369.716	400.202	321.757	81.401	400.023	351.697	0.0011037	0.00027968	0.00012667	1351.5	3.19e-06	9.3362e-07	1360.7	365.98	3.4747e-06	3.4983e-06	423.06	143.2	123.11	42.34	6.5901e-06	52.747	0.00046651	0.00042699	0.00011239	1349.9	5.1297e-06	4.694e-06	1352.6	367.08	5.0408e-06	4.6868e-06	413.39	142.64	123.16	42.185	4.4527e-06	52.836	347.216	254.867	184.736	78.715	198.606	358.970	78.338	83.477	319.532	121.499	83.048	87.502	87.482	92.411	156.805	91.266	-8191	255	
6968.791	1	1	0	0	0.086124	0.10483	0.1875	0.056944	0.13249	0.19173	0.15312	0.42789	0.05262	0.17167	0.08938	0.26375	0.27212	0.11104	0.25041	0.44968	-1.6667	-2.5333	-2.2958	-2.7542	-2.5812	-2.3396	-3.0271	-2.4375	-2.3563	-2.9333	-2.4146	-2.6875	-2.9125	-2.1688	-2.7021	-2.6875	149.847	228.202	172.086	421.596	277.839	401.720	355.285	370.562	406.234	320.962	75.597	358.617	73.065	351.666	114.622	369.896	0.0011692	0.00047407	0.00013855	1344.7	5.9347e-06	6.975e-07	1363.9	364.87	7.8943e-06	1.5263e-06	422.71	143.29	123.06	42.319	6.4395e-06	52.386	0.00045717	0.00042283	0.0001146	1356.8	4.9334e-06	4.55e-06	1355.4	367.7	4.85e-06	4.561e-06	414.21	143.21	122.31	42.021	4.6078e-06	52.773	369.489	395.108	257.485	78.557	225.892	82.815	78.417	83.644	316.143	370.133	82.795	87.659	87.780	92.309	148.452	91.049	-8191	255	
6968.887	1	1	0	0	0.099533	0.063122	0.16966	0.18814	0.16008	0.10493	0.24994	0.17171	0.095627	0.12478	0.044064	0.28154	0.19856	0.23629	0.21073	0.15174	-1.7708	-2.8521	-2.0417	-2.6833	-2.6479	-2.0021	-2.925	-2.6333	-2.1833	-2.7854	-2.6104	-2.3792	-2.9958	-2.2313	-2.6229	-2.7708	261.654	145.473	188.437	75.042	379.657	396.698	387.765	419.951	278.239	73.780	410.332	103.172	125.479	384.480	330.322	330.322	0.00096107	6.5222e-05	0.00014701	1350.4	2.009e-06	2.9887e-06	1359.2	364.02	4.907e-06	4.275e-06	423.1	143.29	122.94	42.455	9.0324e-06	52.63	0.00043387	0.00040466	0.0001193	1356.8	4.7094e-06	4.4349e-06	1360.3	367.61	4.6888e-06	4.4235e-06	417.88	142.73	121.94	41.972	4.9158e-06	52.629	353.993	191.083	134.730	78.764	202.038	273.922	78.540	83.573	247.291	312.974	83.203	87.366	87.927	92.137	202.983	91.540	-8191	255	
6968.983	1	1	0	0	0.078705	0.18903	0.18669	0.23538	0.38128	0.071534	0.35432	0.31637	0.12135	0.17214	0.14238	0.37658	0.24039	0.18614	0.18149	0.38773	-1.7146	-2.6813	-2.4104	-2.4667	-2.5771	-2.1896	-2.8187	-2.7521	-2.1	-2.9229	-2.3542	-2.4854	-2.9833	-2.3812	-2.4354	-2.8187	214.983	318.744	179.547	360.957	150.203	364.355	350.422	362.353	175.991	318.522	278.172	408.976	366.910	411.813	111.619	96.321	0.0010903	8.5007e-05	0.00013081	1345.3	5.3793e-06	4.9748e-06	1360.3	364.8	3.6511e-06	3.8378e-06	422.62	142.75	123.6	42.357	4.8989e-06	52.577	0.00042578	0.00039973	0.00012754	1350.2	4.5948e-06	4.4083e-06	1365.8	366.51	4.5511e-06	4.393e-06	420.55	142.24	121.65	42.015	5.0786e-06	52.306	351.756	123.886	141.832	78.715	237.922	244.482	78.471	83.486	199.022	207.127	82.947	87.539	87.862	92.317	178.852	90.985	-8191	255	
6969.079	1	1	0	0	0.26586	0.50784	0.10496	0.11675	0.056112	0.22111	0.40661	0.19926	0.33745	0.10385	0.12675	0.086495	0.12859	0.2029	0.15187	0.21659	-1.5146	-2.8458	-2.3812	-2.4021	-2.7958	-2.3333	-2.5917	-2.8396	-2.0646	-2.5667	-2.6042	-2.2125	-3.0708	-2.175	-2.4583	-2.7375	327.884	425.384	79.933	115.786	409.157	232.695	365.620	90.698	342.062	381.570	399.238	80.785	72.212	323.707	285.101	128.654	0.00088885	0.00045719	0.00013418	1346.5	6.0022e-06	5.374e-06	1362.7	365.77	8.8269e-06	9.5249e-06	421.74	143.3	123.97	42.45	5.5093e-06	52.77	0.00041026	0.00040796	0.0001294	1345.3	4.3923e-06	4.5038e-06	1366.9	365.18	4.369e-06	4.5738e-06	420.51	141.43	121.32	42.379	5.0176e-06	52.178	360.350	159.552	177.152	78.657	255.296	194.863	78.589	83.550	227.319	185.610	82.857	87.544	87.816	92.153	380.262	91.325	-8191	255	
6969.175	1	1	0	0	0.10261	0.12456	0.10891	0.17402	0.15261	0.13163	0.29553	0.23737	0.057801	0.20836	0.19312	0.33557	0.20553	0.24618	0.15053	0.097275	-1.6167	-2.7229	-2.4771	-2.2521	-2.6312	-2.4375	-2.6	-2.9958	-1.9542	-2.6021	-2.5896	-2.2042	-2.9313	-2.4167	-2.1896	-2.8354	101.854	292.661	354.316	392.928	317.742	185.418	365.397	329.791	249.361	273.211	387.549	295.311	350.802	336.570	116.325	347.238	0.00096249	0.00065423	8.627e-05	1349.9	4.1992e-06	8.3607e-06	1361.5	365.72	6.9906e-06	7.4118e-06	421.72	144.38	124.07	42.686	6.5678e-06	52.746	0.00039518	0.00042976	0.00012689	1344.2	4.2828e-06	4.8307e-06	1364.8	364.17	4.304e-06	4.8902e-06	418.61	141.46	121.47	42.791	4.8952e-06	52.074	364.367	131.611	423.717	78.480	190.314	146.609	78.405	83.437	249.024	194.915	83.098	87.303	87.787	92.127	178.899	91.513	-8191	255	
#DATA ENDS
