BOXY.EXE: ISS Imagent and Oximeter Data Acquisition Program Version 0.80
Ascii Record File

#ACQ INFORMATION
2  Detector Channels 
16  External MUX Channels 
1  Auxiliary Channels 
5000  Waveform (CCF) Frequency (Hz)
1  Waveforms Skipped 
30  Waveforms Averaged 
1  Cycles Averaged 
16  Acquisitions per Waveform 
10.0806  Updata Rate (Hz) 

#FILE INFORMATION
TRUE -- External MUX Channel results are PARSED.
FALSE -- AC DC and Phase are NOT grouped.
TRUE -- Companion Program Settings File CREATED.
FALSE -- AC data not excluded
FALSE -- DC data not excluded
FALSE -- Phase data not excluded
FALSE -- Auxillary Chn. data not excluded
Tab delimiters

#CALIBRATION STATE
TRUE -- Waveform Calibration Values APPLIED.


#AUX CALIBRATION VALUES
Val Type	aux-1	

Term	1.0000e+00	
Factor	0.0000e+00	


#WF CALIBRATION VALUES
A = Detector Channel
Val Type	A-AC1	A-AC2	A-AC3	A-AC4	A-AC5	A-AC6	A-AC7	A-AC8	A-AC9	A-AC10	A-AC11	A-AC12	A-AC13	A-AC14	A-AC15	A-AC16	A-DC1	A-DC2	A-DC3	A-DC4	A-DC5	A-DC6	A-DC7	A-DC8	A-DC9	A-DC10	A-DC11	A-DC12	A-DC13	A-DC14	A-DC15	A-DC16	A-Ph1	A-Ph2	A-Ph3	A-Ph4	A-Ph5	A-Ph6	A-Ph7	A-Ph8	A-Ph9	A-Ph10	A-Ph11	A-Ph12	A-Ph13	A-Ph14	A-Ph15	A-Ph16	

Term	0.00000e+00	0.00000e+00	0.00000e+00	0.00000e+00	0.00000e+00	0.00000e+00	0.00000e+00	0.00000e+00	0.00000e+00	0.00000e+00	0.00000e+00	0.00000e+00	0.00000e+00	0.00000e+00	0.00000e+00	0.00000e+00	0.00000e+00	0.00000e+00	0.00000e+00	0.00000e+00	0.00000e+00	0.00000e+00	0.00000e+00	0.00000e+00	0.00000e+00	0.00000e+00	0.00000e+00	0.00000e+00	0.00000e+00	0.00000e+00	0.00000e+00	0.00000e+00	0.00000e+00	0.00000e+00	0.00000e+00	0.00000e+00	0.00000e+00	0.00000e+00	0.00000e+00	0.00000e+00	0.00000e+00	0.00000e+00	0.00000e+00	0.00000e+00	0.00000e+00	0.00000e+00	0.00000e+00	0.00000e+00	
Factor	1.00000e+00	1.00000e+00	1.00000e+00	1.00000e+00	1.00000e+00	1.00000e+00	1.00000e+00	1.00000e+00	1.00000e+00	1.00000e+00	1.00000e+00	1.00000e+00	1.00000e+00	1.00000e+00	1.00000e+00	1.00000e+00	1.00000e+00	1.00000e+00	1.00000e+00	1.00000e+00	1.00000e+00	1.00000e+00	1.00000e+00	1.00000e+00	1.00000e+00	1.00000e+00	1.00000e+00	1.00000e+00	1.00000e+00	1.00000e+00	1.00000e+00	1.00000e+00	X	X	X	X	X	X	X	X	X	X	X	X	X	X	X	X	

B = Detector Channel
Val Type	B-AC1	B-AC2	B-AC3	B-AC4	B-AC5	B-AC6	B-AC7	B-AC8	B-AC9	B-AC10	B-AC11	B-AC12	B-AC13	B-AC14	B-AC15	B-AC16	B-DC1	B-DC2	B-DC3	B-DC4	B-DC5	B-DC6	B-DC7	B-DC8	B-DC9	B-DC10	B-DC11	B-DC12	B-DC13	B-DC14	B-DC15	B-DC16	B-Ph1	B-Ph2	B-Ph3	B-Ph4	B-Ph5	B-Ph6	B-Ph7	B-Ph8	B-Ph9	B-Ph10	B-Ph11	B-Ph12	B-Ph13	B-Ph14	B-Ph15	B-Ph16	

Term	0.00000e+00	0.00000e+00	0.00000e+00	0.00000e+00	0.00000e+00	0.00000e+00	0.00000e+00	0.00000e+00	0.00000e+00	0.00000e+00	0.00000e+00	0.00000e+00	0.00000e+00	0.00000e+00	0.00000e+00	0.00000e+00	0.00000e+00	0.00000e+00	0.00000e+00	0.00000e+00	0.00000e+00	0.00000e+00	0.00000e+00	0.00000e+00	0.00000e+00	0.00000e+00	0.00000e+00	0.00000e+00	0.00000e+00	0.00000e+00	0.00000e+00	0.00000e+00	1.18084e+01	-1.38873e+02	-1.24998e+02	-1.83146e+02	-7.27340e+01	-6.37033e+01	-1.60638e+02	-1.62015e+02	-3.12208e+01	-6.27560e+01	-1.72582e+02	-1.72483e+02	-1.83079e+02	-1.78092e+02	-9.56933e+01	-1.50919e+02	
Factor	4.44032e-05	1.51227e-04	4.59897e-05	1.52212e-01	1.40126e-06	1.22182e-06	1.72356e-01	5.67285e-02	1.37058e-06	1.58077e-06	8.83220e-02	2.95593e-02	2.80079e-02	9.00119e-03	1.53101e-06	1.30876e-02	1.36817e-06	1.41543e-06	3.92752e-07	7.76740e-02	1.54102e-08	1.54915e-08	8.23777e-02	2.87967e-02	1.53811e-08	1.54814e-08	4.31705e-02	1.44196e-02	1.41529e-02	4.56543e-03	1.54541e-08	6.40635e-03	X	X	X	X	X	X	X	X	X	X	X	X	X	X	X	X	



#DISTANCE SETTINGS
A = Detector Channel
A-1	A-2	A-3	A-4	A-5	A-6	A-7	A-8	A-9	A-10	A-11	A-12	A-13	A-14	A-15	A-16	

2.5000e+00	3.0000e+00	2.5000e+00	3.0000e+00	2.0000e+00	3.0000e+00	1.5000e+00	3.0000e+00	3.0000e+00	3.0000e+00	3.0000e+00	3.0000e+00	3.0000e+00	3.0000e+00	1.5000e+00	3.0000e+00	

B = Detector Channel
B-1	B-2	B-3	B-4	B-5	B-6	B-7	B-8	B-9	B-10	B-11	B-12	B-13	B-14	B-15	B-16	

1.0000e+01	1.0000e+01	1.0000e+01	1.4400e+00	1.0000e+01	1.0000e+01	1.5100e+00	1.9400e+00	1.0000e+01	1.0000e+01	1.9900e+00	2.4900e+00	2.4100e+00	2.9000e+00	1.0000e+01	2.9800e+00	




#DATA BEGINS
time	group	step	mark	flag	A-AC1	A-AC2	A-AC3	A-AC4	A-AC5	A-AC6	A-AC7	A-AC8	A-AC9	A-AC10	A-AC11	A-AC12	A-AC13	A-AC14	A-AC15	A-AC16	A-DC1	A-DC2	A-DC3	A-DC4	A-DC5	A-DC6	A-DC7	A-DC8	A-DC9	A-DC10	A-DC11	A-DC12	A-DC13	A-DC14	A-DC15	A-DC16	A-Ph1	A-Ph2	A-Ph3	A-Ph4	A-Ph5	A-Ph6	A-Ph7	A-Ph8	A-Ph9	A-Ph10	A-Ph11	A-Ph12	A-Ph13	A-Ph14	A-Ph15	A-Ph16	B-AC1	B-AC2	B-AC3	B-AC4	B-AC5	B-AC6	B-AC7	B-AC8	B-AC9	B-AC10	B-AC11	B-AC12	B-AC13	B-AC14	B-AC15	B-AC16	B-DC1	B-DC2	B-DC3	B-DC4	B-DC5	B-DC6	B-DC7	B-DC8	B-DC9	B-DC10	B-DC11	B-DC12	B-DC13	B-DC14	B-DC15	B-DC16	B-Ph1	B-Ph2	B-Ph3	B-Ph4	B-Ph5	B-Ph6	B-Ph7	B-Ph8	B-Ph9	B-Ph10	B-Ph11	B-Ph12	B-Ph13	B-Ph14	B-Ph15	B-Ph16	aux-1	digaux	

20895.658	1	1	0	256	0.10825	0.12569	0.18457	0.13368	0.14728	0.25191	0.19901	0.30339	0.22936	0.081932	0.11294	0.059354	0.1407	0.21389	0.075344	0.27565	-2.5292	-2.3937	-2.7	-2.9271	-2.2667	-2.8104	-2.8063	-2.4437	-2.8	-2.5125	-2.6021	-2.9313	-2.6	-2.6625	-2.7521	-2.5042	302.280	288.761	248.265	397.073	348.347	202.384	411.345	323.927	399.081	135.656	415.541	82.084	399.144	388.307	318.628	400.719	0.0010593	0.00047698	0.00027549	1311.7	4.8373e-06	5.9671e-06	1318.4	355.21	1.0764e-05	5.936e-06	406.79	137.19	118.1	40.128	6.5617e-06	50.133	0.00045051	0.00044101	0.00012361	1333.5	4.8378e-06	4.837e-06	1336.9	361.24	4.8353e-06	4.8259e-06	412.83	139.1	119.67	41.13	4.8406e-06	51.194	306.638	197.948	196.558	87.185	196.791	232.400	87.408	92.177	290.624	198.564	91.560	96.315	96.853	101.212	170.567	100.023	-8191	255	
20895.779	1	1	0	0	0.189	0.22174	0.21399	0.28037	0.13752	0.15333	0.24817	0.085891	0.23841	0.25251	0.25862	0.3203	0.26529	0.060376	0.095107	0.24355	-2.3896	-2.5083	-2.5583	-2.9854	-2.35	-2.9	-2.8792	-2.5208	-2.8063	-2.5563	-2.6042	-2.9333	-2.4417	-2.975	-2.6813	-2.6333	382.443	229.786	266.900	413.324	399.395	403.359	393.629	140.323	330.283	222.423	416.809	407.978	100.009	117.391	123.184	324.521	0.0011195	1.7889e-05	0.0002295	1310.4	5.0222e-06	3.1263e-06	1320.4	355.45	9.8417e-06	4.0503e-06	406	137.41	117.8	40.377	3.2159e-06	50.038	0.00045052	0.00043845	0.00012227	1333.1	4.8315e-06	4.8151e-06	1338.3	361.34	4.8463e-06	4.8245e-06	412.72	138.91	119.88	41.126	4.8162e-06	51.206	305.677	227.735	211.361	87.332	227.103	286.768	87.111	92.084	296.020	218.279	91.537	96.169	96.693	101.201	287.494	100.216	-8191	255	
20895.852	1	1	0	0	0.14637	0.16861	0.21377	0.13334	0.12491	0.22505	0.16597	0.43124	0.14749	0.12779	0.15351	0.31912	0.097357	0.29221	0.14509	0.1525	-2.3958	-2.4813	-2.525	-2.8563	-2.4521	-2.6792	-2.9146	-2.5333	-2.6479	-2.6375	-2.4854	-2.9146	-2.5083	-2.5583	-2.9062	-2.5583	316.506	118.954	163.387	98.268	117.237	277.178	340.821	420.849	336.621	190.216	386.947	400.534	431.035	400.430	356.270	404.608	0.0011602	0.0006865	0.00011282	1311.3	4.8361e-06	5.1346e-06	1322.1	354.86	4.4742e-06	7.197e-06	405.33	137.11	118.27	40.138	3.2828e-06	49.985	0.00045434	0.00044154	0.00012185	1332.5	4.8477e-06	4.8171e-06	1337.2	361.45	4.8143e-06	4.8164e-06	412.73	138.88	119.77	41.122	4.8006e-06	51.131	315.178	137.764	93.350	87.394	197.892	213.962	87.234	92.170	257.675	181.586	91.435	96.283	96.882	101.190	221.976	100.296	-8191	255	
20895.947	1	1	0	0	0.082591	0.16371	0.097313	0.3063	0.024807	0.13391	0.25054	0.10914	0.11011	0.29332	0.16099	0.18626	0.26939	0.28656	0.18147	0.032736	-2.6063	-2.5583	-2.2021	-3.1104	-2.3542	-2.6396	-2.9146	-2.6083	-2.675	-2.4313	-2.3854	-3.0604	-2.6833	-2.6708	-2.7542	-2.3792	218.544	186.099	138.166	75.652	254.423	273.010	304.863	289.396	290.181	325.545	393.595	309.495	116.102	405.627	400.796	93.023	0.0012549	0.00063992	0.00017724	1310.1	1.9847e-06	7.1655e-06	1319.7	355.67	6.6121e-06	3.6853e-06	407.1	137	118.58	40.044	9.3589e-06	49.89	0.00045302	0.00044238	0.00012416	1332.2	4.8339e-06	4.8317e-06	1338.2	361.63	4.8779e-06	4.8954e-06	413.03	139.21	120.1	41.197	4.8924e-06	51.303	316.672	157.692	176.308	87.410	145.723	275.150	87.201	92.293	269.795	352.630	91.456	96.126	96.380	101.130	165.888	100.080	-8191	255	
20896.068	1	1	0	0	0.12879	0.094803	0.15774	0.14304	0.16225	0.2669	0.26043	0.29898	0.18436	0.20284	0.26032	0.16406	0.076763	0.12684	0.16702	0.20041	-2.2458	-2.4292	-2.4188	-2.9688	-2.5542	-2.5687	-3.0563	-2.5104	-2.7292	-2.7271	-2.4208	-2.9333	-2.5187	-2.5583	-2.8292	-2.4958	375.319	127.548	400.578	340.719	363.233	334.349	346.044	409.238	134.834	96.478	398.736	255.506	362.134	421.436	165.584	301.953	0.0011532	0.00068534	5.2559e-05	1318.6	4.1636e-06	4.3063e-06	1326.1	355.01	3.8657e-06	6.234e-06	405.92	137.7	118.46	40.042	7.1467e-06	50.123	0.00045887	0.00045096	0.00012332	1336.8	4.8827e-06	4.9087e-06	1340.9	361.83	4.8575e-06	4.9123e-06	413.99	139.54	120.13	41.216	4.9322e-06	51.32	299.621	186.678	224.547	87.239	190.029	237.981	87.284	92.115	283.904	270.084	91.295	96.192	96.945	100.838	177.463	100.158	-8191	255	
20896.162	1	1	0	0	0.11956	0.12479	0.13211	0.21676	0.1975	0.19833	0.2108	0.074646	0.18255	0.34582	0.16951	0.17256	0.43507	0.30508	0.15001	0.43152	-2.275	-2.575	-2.2292	-3.0208	-2.5438	-2.5792	-2.9542	-2.5104	-2.6667	-2.5104	-2.4083	-2.6271	-2.7562	-2.4979	-2.7729	-2.6021	211.470	258.522	361.684	409.123	262.213	172.945	356.077	113.016	302.613	267.417	364.762	371.490	361.848	100.678	433.982	333.422	0.0010695	0.00044129	0.00032124	1312.9	8.1426e-06	3.2015e-06	1327.3	356.41	8.9822e-06	6.7123e-06	407.06	137.62	118.52	39.961	5.2842e-06	49.936	0.0004586	0.00044839	0.00012311	1335.2	4.904e-06	4.8726e-06	1342.1	362.42	4.886e-06	4.8598e-06	414.02	139.47	120.28	41.179	4.8357e-06	51.341	308.581	117.547	165.360	87.489	237.349	300.175	87.079	92.167	282.107	227.598	91.583	96.198	96.635	101.213	207.583	100.006	-8191	255	
20896.260	1	1	0	0	0.34147	0.13913	0.18921	0.23888	0.072289	0.10022	0.21705	0.1374	0.065467	0.023964	0.19293	0.20907	0.096809	0.13919	0.12227	0.18869	-2.1292	-2.7417	-2.2458	-2.9542	-2.6708	-2.2958	-3.0667	-2.4896	-2.4833	-2.7562	-2.4167	-2.8104	-2.7458	-2.4708	-2.7792	-2.5458	347.764	322.487	137.285	100.061	85.721	168.274	343.709	380.340	408.191	244.566	289.039	332.091	158.664	135.818	295.690	274.077	0.0011375	0.0003646	0.0001199	1312.8	5.0611e-06	4.8565e-06	1323.7	355.7	6.0464e-06	4.2836e-06	408.3	137.16	118.73	40.155	9.3063e-06	49.856	0.00045684	0.00044913	0.00012309	1336	4.8997e-06	4.9018e-06	1341.2	362.36	4.8726e-06	4.8937e-06	413.52	139.25	120.33	41.252	4.8893e-06	51.32	304.315	83.031	105.436	87.349	199.189	167.837	87.147	92.008	255.559	216.906	91.456	96.186	96.748	101.027	205.720	99.944	-8191	255	
20896.355	1	1	0	0	0.17767	0.11665	0.036083	0.14139	0.05197	0.18536	0.1739	0.2136	0.11699	0.36387	0.074135	0.34931	0.14482	0.087342	0.027705	0.075021	-1.975	-2.7083	-2.3479	-2.9896	-2.6958	-2.1875	-3.0375	-2.6771	-2.3917	-2.8229	-2.275	-2.8792	-2.9062	-2.4562	-2.7604	-2.725	99.224	124.187	220.498	415.803	273.406	294.026	99.154	365.039	194.517	161.032	212.493	401.730	416.950	328.043	79.812	410.724	0.001054	0.00043577	0.00018785	1313.4	8.1833e-06	6.3795e-06	1326.8	357.21	7.1162e-06	4.568e-06	405.41	136.59	119.04	39.996	5.3056e-06	50.109	0.00045767	0.00044633	0.00012391	1336.7	4.9386e-06	4.8736e-06	1341.6	362.31	4.8936e-06	4.9125e-06	413.34	139.22	120.56	41.187	4.8746e-06	51.31	300.344	125.628	115.043	87.287	219.885	205.020	87.357	92.176	284.031	233.588	91.493	96.325	96.820	100.780	227.975	99.948	-8191	255	
20896.477	1	1	0	0	0.1232	0.11243	0.33929	0.061262	0.17268	0.11497	0.18647	0.22836	0.10312	0.058924	0.063954	0.039333	0.1289	0.26706	0.27638	0.11441	-2.1521	-2.8229	-2.3021	-2.8104	-2.7375	-2.5583	-3.0771	-2.7125	-2.475	-2.9542	-2.65	-2.65	-2.85	-2.5708	-2.9292	-2.6937	338.613	342.737	359.582	423.145	252.794	240.776	325.951	426.267	150.135	387.560	353.387	372.036	101.930	80.776	89.771	314.207	0.0010937	0.00041116	8.688e-05	1318	1.2552e-05	3.2768e-07	1325	354.87	9.4014e-06	6.4907e-06	407.09	137.35	118.65	40.284	8.7472e-06	50.039	0.00045586	0.00044452	0.00012456	1339	4.8996e-06	4.9099e-06	1343.7	362.62	4.9117e-06	4.8961e-06	414.18	139.59	120.64	41.324	4.9392e-06	51.307	306.431	123.772	163.139	87.387	217.979	410.875	87.165	92.147	282.507	204.490	91.546	95.857	96.752	101.123	184.129	99.930	-8191	255	
20896.547	1	1	0	0	0.051924	0.075254	0.10246	0.37753	0.23844	0.23399	0.11971	0.3944	0.038563	0.063384	0.27256	0.32951	0.033012	0.064273	0.027963	0.11119	-1.9438	-2.8833	-2.3583	-2.6958	-2.7667	-2.4479	-3.0625	-2.85	-2.4562	-2.9917	-2.6458	-2.4458	-2.8792	-2.4021	-2.6729	-2.7354	246.928	236.456	251.445	396.862	135.402	149.601	386.450	356.786	314.842	386.295	342.551	366.587	291.377	330.356	310.978	264.772	0.0011156	0.000157	0.00013314	1321.7	4.1529e-06	2.6799e-06	1325.2	357.04	5.0019e-06	8.267e-06	406.7	137.06	118.85	40.335	5.8773e-06	50.045	0.00045902	0.00044979	0.00012573	1339.5	4.9243e-06	4.9547e-06	1343.8	362.96	4.9858e-06	4.9743e-06	414.85	139.59	120.46	41.319	5.0303e-06	51.425	304.599	133.876	88.512	87.125	257.146	261.704	87.006	92.185	260.620	194.143	91.546	96.113	96.555	101.012	188.864	100.065	-8191	255	
20896.643	1	1	0	0	0.35401	0.064973	0.13858	0.10565	0.06884	0.11418	0.24353	0.17171	0.13867	0.24911	0.29472	0.082096	0.21284	0.14607	0.1954	0.08452	-1.8354	-2.8625	-2.5833	-2.7208	-2.8375	-2.4146	-2.9875	-2.9854	-2.3438	-2.9437	-2.6917	-2.5854	-2.9	-2.5229	-2.7	-2.775	412.842	417.265	329.001	348.999	327.053	387.810	356.669	384.605	79.436	334.150	385.677	313.791	317.306	360.832	129.496	305.291	0.0009744	0.00027161	0.00017633	1319.9	3.8331e-06	6.01e-06	1330.6	357.29	3.6871e-06	1.0827e-05	407.53	137.25	118.88	40.305	5.0483e-06	50.131	0.00046346	0.00045453	0.0001261	1341.3	4.9763e-06	4.9936e-06	1346	363.61	4.9039e-06	4.9461e-06	414.83	139.49	120.7	41.291	4.9515e-06	51.359	303.047	154.954	153.965	87.294	179.860	201.169	86.932	92.051	256.547	260.272	91.460	96.336	96.842	101.133	158.276	99.865	-8191	255	
20896.740	1	1	0	0	0.14289	0.16666	0.2483	0.38195	0.048674	0.22672	0.41236	0.13979	0.23911	0.11163	0.20216	0.16314	0.12167	0.042825	0.066848	0.15998	-1.9062	-2.7812	-2.3396	-2.4396	-2.7458	-2.2667	-2.6667	-2.6833	-2.2208	-2.8896	-2.7104	-2.5146	-2.8438	-2.4896	-2.3896	-2.8688	335.128	235.408	339.148	408.561	220.790	156.278	363.773	377.579	264.255	245.430	321.379	373.546	407.632	208.002	202.531	411.975	0.0012061	0.00057912	0.00013429	1322	3.706e-06	4.1032e-06	1330.7	357.25	3.8854e-06	2.7895e-06	408.61	137.66	118.82	40.276	3.0761e-06	50.32	0.00046361	0.00045687	0.00012583	1343.8	5.0024e-06	5.0256e-06	1348.2	363.5	5.0319e-06	5.0198e-06	415.52	139.9	120.96	41.404	5.162e-06	51.569	302.822	93.847	140.576	87.317	232.361	257.733	87.267	91.903	290.372	313.991	91.633	96.020	96.798	101.115	267.261	100.030	-8191	255	
20896.859	1	1	0	0	0.088951	0.14027	0.15612	0.2031	0.20299	0.29104	0.17815	0.22815	0.024809	0.11604	0.17753	0.079612	0.10789	0.1644	0.16663	0.24487	-1.8021	-2.5896	-2.4625	-2.5687	-2.7396	-2.5187	-2.7146	-2.9875	-2.2646	-2.7333	-2.7208	-2.4562	-2.7896	-2.6479	-2.4688	-2.8125	150.879	431.517	111.349	401.974	198.176	264.915	362.391	328.511	211.947	418.187	376.834	102.502	90.267	364.213	338.063	383.025	0.0012734	0.00021688	0.00021651	1325.8	7.1283e-06	3.3764e-06	1337.8	357.85	1.0283e-05	1.0785e-05	408.46	138.02	120.73	40.395	6.7154e-06	50.512	0.00047441	0.00047591	0.00013233	1348	5.1745e-06	5.2434e-06	1353.9	364.96	5.1421e-06	5.1738e-06	417.16	140.46	121.83	41.593	5.2545e-06	51.697	312.797	276.554	96.696	87.307	248.940	224.186	87.282	92.004	273.889	221.198	91.255	95.837	96.785	100.844	151.403	100.073	-8191	255	
20896.955	1	1	0	0	0.07306	0.1936	0.17492	0.10417	0.30505	0.12901	0.13631	0.18809	0.18284	0.25905	0.1274	0.19009	0.14774	0.32054	0.27553	0.2184	-1.8125	-2.6583	-2.3917	-2.6063	-2.6917	-2.5542	-2.5271	-3.0458	-2.4792	-2.7062	-2.8937	-2.3458	-2.7896	-2.8271	-2.3229	-3.0167	430.672	343.500	173.251	133.611	323.293	403.691	369.102	406.491	108.597	241.580	105.898	94.956	75.558	77.305	414.744	366.896	0.0010155	0.00050272	0.00019913	1325.9	6.3416e-06	3.3423e-06	1340.2	358.69	5.5876e-06	4.3342e-06	408.51	138.34	119.9	40.301	1.8555e-06	50.116	0.00048629	0.00048207	0.00013304	1352.2	5.2509e-06	5.2023e-06	1356.8	365.66	5.1786e-06	5.2045e-06	417.25	140.73	121.63	41.564	5.2975e-06	51.604	316.041	168.147	211.074	87.264	137.331	204.811	87.285	92.201	250.315	201.971	90.994	96.009	96.775	101.113	113.408	100.125	-8191	255	
20897.053	1	1	0	0	0.2029	0.073176	0.14968	0.055927	0.11521	0.22786	0.26455	0.27868	0.22364	0.12037	0.2145	0.25901	0.073886	0.14103	0.28365	0.12971	-1.8417	-2.4729	-2.775	-2.5125	-2.7729	-2.7125	-2.5958	-2.8917	-2.4813	-2.5687	-2.825	-2.3688	-2.8688	-2.775	-2.5563	-2.9458	299.718	330.276	325.226	107.290	300.148	374.601	404.696	318.372	255.287	140.964	387.581	111.159	104.321	316.036	284.195	323.933	0.000887	0.00049531	0.00021494	1338.7	7.5209e-06	3.2685e-06	1339.9	359.56	6.551e-06	9.2314e-06	409.8	138.06	119.58	40.4	7.588e-06	50.144	0.00048821	0.0004827	0.00013258	1356.2	5.2542e-06	5.2745e-06	1358.1	366.09	5.1811e-06	5.2216e-06	417.98	140.55	121.68	41.551	5.2173e-06	51.625	313.075	185.243	273.529	87.187	200.691	229.035	87.174	92.090	245.670	241.527	91.325	96.092	96.743	100.896	212.362	100.101	-8191	255	
20897.148	1	1	0	0	0.22498	0.18763	0.11465	0.14207	0.3456	0.22072	0.13444	0.22046	0.21307	0.17427	0.22646	0.09451	0.21578	0.17896	0.21857	0.19785	-2.1	-2.4813	-2.8	-2.5417	-2.725	-2.7458	-2.5521	-3.0979	-2.4813	-2.5375	-2.8833	-2.4667	-2.8708	-2.8375	-2.2521	-2.9729	175.173	83.919	190.427	122.418	201.188	82.478	385.062	359.395	267.532	235.083	419.946	405.331	150.067	267.146	322.139	352.277	0.0011677	0.00044146	0.000148	1328.3	3.6312e-06	5.8561e-06	1337.7	358.98	1.005e-05	1.0028e-05	410.8	138.91	119.51	40.454	7.729e-06	50.029	0.00048745	0.00047516	0.00013083	1356.3	5.2154e-06	5.1932e-06	1360.3	365.82	5.2183e-06	5.1883e-06	418.61	140.68	121.66	41.612	5.2507e-06	51.626	312.719	160.283	167.332	87.408	187.236	188.187	86.924	91.978	310.845	223.689	91.396	96.316	96.473	101.119	238.123	100.026	-8191	255	
20897.242	1	1	0	0	0.11449	0.08871	0.049103	0.2308	0.13489	0.3156	0.11094	0.22472	0.24839	0.14595	0.32266	0.1711	0.20747	0.02059	0.12345	0.12377	-2.1875	-2.3667	-2.6708	-2.6708	-2.7542	-2.8208	-2.5563	-2.8604	-2.6979	-2.5292	-3.0312	-2.6333	-2.7771	-2.8854	-2.3792	-2.7708	155.333	308.548	368.487	386.841	210.367	246.481	394.433	403.410	330.441	185.937	419.953	423.753	386.280	422.892	351.891	174.307	0.0012147	0.0001497	0.00024665	1329	5.8672e-06	8.7066e-06	1346.4	362.58	4.375e-06	9.1943e-06	415.29	139.86	121.31	41.045	8.8507e-06	50.783	0.00049316	0.00048823	0.00013646	1358.1	5.4927e-06	5.5006e-06	1367.7	368.8	5.697e-06	5.7096e-06	423.82	142.72	123.77	42.403	5.9287e-06	52.615	317.287	174.550	155.143	87.334	194.664	182.263	86.977	92.155	163.074	214.949	91.447	96.186	96.624	100.596	213.072	99.899	-8191	255	
20897.342	1	1	0	0	0.27124	0.14746	0.16922	0.18524	0.12494	0.11191	0.23003	0.26089	0.14826	0.2914	0.050983	0.1391	0.13456	0.29071	0.2948	0.066701	-2.1396	-2.3583	-2.5292	-2.6667	-2.6562	-2.7854	-2.6229	-2.8771	-2.7458	-2.4	-2.9562	-2.5167	-2.5479	-2.8771	-2.2708	-2.7687	105.407	104.257	322.942	89.315	80.545	178.786	382.501	359.460	404.985	287.892	137.583	248.916	170.915	415.930	271.798	431.401	0.0012189	0.00033965	0.00022017	1352.1	2.4705e-06	8.9172e-06	1371.6	366.04	5.948e-06	5.0225e-06	417.21	140.36	121.58	41.28	8.4623e-06	51.282	0.00055007	0.00054237	0.00015118	1381.6	5.8785e-06	5.8077e-06	1387.6	374.07	5.7612e-06	5.8094e-06	426.51	143.37	124.09	42.601	5.7853e-06	52.848	308.181	401.647	175.023	87.265	226.688	249.901	87.038	92.026	200.086	349.955	91.445	95.981	96.653	100.717	221.456	99.880	-8191	255	
20897.461	1	1	0	0	0.12427	0.26553	0.12385	0.20494	0.20166	0.044368	0.23256	0.094947	0.010528	0.06538	0.14897	0.22348	0.21297	0.064805	0.16485	0.06056	-2.2583	-2.2438	-2.9354	-2.6625	-2.3646	-2.9583	-2.6562	-2.7229	-2.7313	-2.3458	-2.9938	-2.7333	-2.6417	-3.1083	-2.3979	-2.7313	381.669	223.085	318.987	391.020	76.213	130.763	384.686	127.436	374.404	262.022	293.696	383.610	374.383	419.150	423.007	380.328	0.0012355	0.00027477	9.652e-05	1359.6	3.8947e-06	1.5363e-06	1370.6	366.9	8.9135e-06	5.5719e-06	419.14	142.1	122.44	41.589	9.0792e-06	51.552	0.00054498	0.00053232	0.00014815	1389	5.8495e-06	5.8168e-06	1392.4	375.27	5.7945e-06	5.8137e-06	428.23	144.06	124.64	42.808	5.8358e-06	53.116	306.471	235.865	291.307	87.102	190.950	401.208	87.057	92.007	251.379	227.308	91.355	96.107	96.521	101.040	175.944	100.164	-8191	255	
20897.557	1	1	0	0	0.074008	0.25038	0.17172	0.14279	0.18832	0.24082	0.10079	0.24292	0.33466	0.22455	0.36657	0.17901	0.16037	0.29455	0.14634	0.10355	-2.2104	-2.2917	-2.8	-2.775	-2.4021	-2.8563	-2.6271	-2.7292	-2.8125	-2.5	-2.8438	-2.8979	-2.5354	-2.8229	-2.375	-2.7667	236.357	268.264	297.414	375.631	88.462	138.267	415.137	410.757	225.774	414.188	87.282	427.475	413.694	381.663	422.323	220.030	0.0011831	0.0008419	0.00027829	1363.3	9.0755e-06	4.9589e-06	1373.3	368.63	2.954e-06	5.2957e-06	419.26	141.03	121.97	41.639	1.1275e-05	51.503	0.00054679	0.00053223	0.00014895	1390.5	5.8782e-06	5.913e-06	1395.3	376.42	5.9062e-06	5.87e-06	429.19	144.23	125.15	43.027	6.0828e-06	53.275	310.561	132.171	126.401	87.275	253.998	234.901	87.079	92.080	194.859	299.373	91.283	95.985	96.550	100.818	203.705	99.965	-8191	255	
20897.652	1	1	0	0	0.090977	0.16541	0.07202	0.34351	0.10247	0.19543	0.31424	0.20718	0.29659	0.20844	0.31514	0.29423	0.12371	0.053619	0.25885	0.084049	-2.2562	-2.4938	-2.7167	-2.75	-2.4854	-2.9229	-2.7	-2.6729	-2.6625	-2.3229	-2.7	-2.7021	-2.4729	-2.9437	-2.3917	-2.4917	149.333	264.340	74.862	417.660	197.478	328.477	431.394	371.020	274.759	206.055	407.776	414.711	410.963	306.446	432.188	331.534	0.0010851	0.00047189	0.00014246	1367	8.0599e-06	5.5908e-06	1381.5	370.11	6.4893e-06	3.6801e-06	422.16	142.4	123.47	41.896	3.5471e-06	51.813	0.00056827	0.00056031	0.00015819	1397	6.2148e-06	6.1893e-06	1403	377.93	6.1953e-06	6.1554e-06	431.92	144.98	125.93	43.291	6.1438e-06	53.502	301.630	125.940	160.178	87.213	230.275	277.212	87.143	92.080	273.717	202.591	91.323	96.220	96.456	100.817	233.193	99.707	-8191	255	
20897.748	1	1	0	0	0.062208	0.26007	0.13006	0.14119	0.18103	0.08914	0.25745	0.088565	0.18603	0.24404	0.22328	0.040821	0.2514	0.083841	0.089805	0.35082	-2.2687	-2.3875	-2.6688	-2.9771	-2.3167	-2.8042	-2.6063	-2.6375	-2.8167	-2.45	-2.7625	-2.725	-2.425	-2.9875	-2.5771	-2.5292	375.831	285.216	423.232	417.820	307.582	256.366	366.801	399.241	300.179	155.553	115.944	208.437	82.481	299.813	396.766	328.298	0.0010742	0.00098488	0.0001988	1370.5	2.8239e-06	5.1596e-06	1385.5	369.43	1.0874e-05	9.3241e-06	422.55	141.98	123.11	41.742	8.5451e-06	51.786	0.00056048	0.00055953	0.00015541	1400.7	6.0791e-06	6.0696e-06	1405.8	378.36	6.0867e-06	6.1059e-06	432.12	145.28	126.2	43.282	6.2655e-06	53.745	310.196	191.120	92.768	87.108	263.100	189.670	87.002	91.774	240.519	212.845	91.338	95.898	96.477	101.001	150.776	99.943	-8191	255	
20897.844	1	1	0	0	0.27637	0.3385	0.26069	0.21223	0.12159	0.18345	0.14941	0.038559	0.1184	0.21558	0.13302	0.30645	0.1026	0.13671	0.18945	0.083037	-2.2521	-2.4083	-2.5667	-2.975	-2.3875	-2.8104	-2.9458	-2.5729	-2.9792	-2.325	-2.6	-2.8542	-2.325	-2.8042	-2.5792	-2.4396	163.546	98.734	376.978	433.295	407.411	77.221	382.195	349.897	292.110	170.969	208.227	421.194	100.958	254.176	138.368	114.690	0.0011847	0.001123	0.00017022	1373	7.042e-06	9.8255e-06	1382.6	371.6	5.6409e-06	4.0867e-06	421.79	143.03	123.96	42.08	1.2232e-05	51.962	0.0005792	0.00057629	0.00015975	1403.7	6.3213e-06	6.4051e-06	1409	379.94	6.3643e-06	6.3863e-06	433.07	146.02	126.79	43.521	6.4138e-06	53.894	307.365	152.732	158.799	87.290	237.583	198.336	87.180	91.869	289.272	159.058	91.076	96.059	96.356	100.839	180.915	100.025	-8191	255	
20897.941	1	1	0	0	0.15178	0.43787	0.13596	0.27456	0.12803	0.17498	0.28303	0.23169	0.053428	0.319	0.18271	0.34883	0.17314	0.28491	0.1218	0.078829	-2.3125	-2.35	-2.4021	-3.1708	-2.2417	-2.7667	-2.8167	-2.4437	-2.8458	-2.5646	-2.5875	-2.8896	-2.5396	-2.7062	-2.6292	-2.4917	265.770	375.309	425.026	410.773	333.515	198.562	411.262	430.619	391.640	102.306	96.404	376.855	142.414	368.427	85.685	108.850	0.0011587	0.0010414	0.00011766	1377.9	4.068e-06	5.1933e-06	1388.8	370.09	5.8454e-06	7.121e-06	422.5	142.2	123.44	41.839	5.8959e-06	52.261	0.00059535	0.00059082	0.00016387	1406.1	6.4048e-06	6.4372e-06	1413.1	379.77	6.3926e-06	6.4035e-06	433.31	145.87	126.53	43.554	6.5096e-06	53.804	318.355	161.409	227.704	87.185	269.741	199.142	86.977	91.990	274.085	253.262	91.332	95.774	96.574	100.782	106.902	99.906	-8191	255	
20898.037	1	1	0	0	0.063708	0.19258	0.066433	0.24261	0.20611	0.044956	0.089834	0.21725	0.081847	0.23881	0.13765	0.11176	0.14244	0.24304	0.079915	0.12065	-2.2875	-2.4646	-2.4208	-3.0083	-2.4333	-2.8417	-2.9708	-2.4917	-2.7583	-2.5375	-2.5708	-3.0146	-2.5625	-2.4979	-2.7667	-2.3187	385.632	210.220	431.070	343.228	413.805	81.440	398.698	355.169	142.099	287.152	274.563	202.848	149.120	414.090	266.499	382.857	0.0012316	0.00087789	0.00015324	1373	9.6769e-06	6.5174e-06	1389	370.82	7.1142e-06	7.8566e-06	421.23	142.64	123.44	42.173	4.2397e-06	52.185	0.00059582	0.00059299	0.00016559	1406.4	6.4646e-06	6.5043e-06	1413.4	380.24	6.4954e-06	6.5105e-06	432.78	146.11	126.66	43.626	6.4843e-06	53.982	316.783	153.140	309.022	87.254	242.060	250.169	87.085	91.992	235.950	251.812	91.154	96.138	96.749	100.744	232.014	99.817	-8191	255	
20898.156	1	1	0	0	0.23129	0.027639	0.19836	0.3883	0.20027	0.19643	0.068409	0.2706	0.22937	0.083529	0.22079	0.13546	0.14186	0.21395	0.1929	0.2954	-2.2979	-2.5271	-2.3979	-3.0542	-2.5104	-2.7167	-2.8396	-2.3958	-2.6646	-2.7188	-2.5979	-2.8417	-2.6125	-2.6646	-2.7021	-2.4562	401.282	90.939	237.593	386.444	280.275	170.909	313.074	387.399	157.507	368.598	422.003	256.479	397.525	431.412	144.780	292.953	0.0013415	0.00041358	0.00010869	1379.8	8.9714e-06	5.9066e-06	1388.6	370.16	4.3186e-06	6.3334e-06	421.31	142.39	123.91	42.117	7.5082e-06	52.094	0.00060014	0.0005916	0.00016304	1406.9	6.4424e-06	6.5041e-06	1412.4	379.48	6.4389e-06	6.4317e-06	432.71	146.01	126.85	43.61	6.3772e-06	53.928	313.013	232.909	140.877	87.370	162.187	161.671	87.149	92.050	182.036	186.633	91.366	96.063	96.608	100.650	236.722	99.825	-8191	255	
20898.252	1	1	0	0	0.21023	0.17289	0.18901	0.38665	0.20391	0.22178	0.12083	0.066378	0.15828	0.13916	0.396	0.22783	0.17162	0.069565	0.23756	0.23457	-2.0938	-2.4083	-2.3708	-2.8167	-2.6771	-2.4333	-3.0833	-2.5625	-2.6104	-2.8292	-2.5521	-2.9542	-2.6521	-2.6104	-2.8771	-2.4062	382.661	378.323	340.826	386.044	83.398	119.566	395.737	413.865	174.425	328.236	378.761	378.180	170.238	394.168	298.490	336.345	0.0013089	0.00024666	5.5118e-05	1379.8	4.5143e-06	4.9653e-06	1383.9	371.6	1.0309e-05	3.8214e-06	422.1	142.71	123.43	42.011	5.7975e-06	52.078	0.00059629	0.00057983	0.00016202	1407.5	6.344e-06	6.4077e-06	1409.3	379.86	6.3641e-06	6.3352e-06	433.05	145.9	126.39	43.52	6.3619e-06	53.895	299.172	152.708	82.295	87.343	234.836	269.177	86.955	91.986	255.107	357.930	91.268	96.230	96.728	100.786	225.858	99.783	-8191	255	
20898.348	1	1	0	0	0.45989	0.28102	0.11168	0.12206	0.25523	0.064643	0.44049	0.31118	0.15565	0.16824	0.22262	0.19419	0.074104	0.26011	0.28242	0.30293	-2.1188	-2.4708	-2.2833	-2.9625	-2.425	-2.3396	-2.8229	-2.5438	-2.4313	-2.7979	-2.3458	-2.6979	-2.8167	-2.5708	-2.7271	-2.5667	361.635	352.622	187.760	425.745	351.310	348.048	392.385	387.936	312.238	397.281	82.983	373.401	327.944	325.155	351.089	315.158	0.0013149	0.00054961	9.6298e-05	1376.7	7.9267e-06	9.1865e-06	1390.8	371.87	1.3127e-05	2.474e-06	421.93	142.52	123.59	42.11	7.4231e-06	52.021	0.00059425	0.0005836	0.00016152	1407.5	6.4023e-06	6.3867e-06	1413.3	380.07	6.3701e-06	6.3759e-06	432.28	145.93	126.6	43.58	6.3623e-06	53.909	308.045	134.629	320.498	87.131	192.235	199.905	87.073	91.971	256.691	233.777	90.975	95.925	96.465	100.785	170.674	99.553	-8191	255	
20898.422	1	1	0	0	0.15394	0.13245	0.15581	0.25256	0.32286	0.46928	0.22973	0.1571	0.16629	0.079557	0.15598	0.25868	0.29309	0.28836	0.11025	0.060672	-2.0729	-2.8167	-2.3021	-2.6937	-2.5938	-2.4	-2.9729	-2.5333	-2.4333	-2.8958	-2.4604	-2.8417	-2.7313	-2.4437	-2.7854	-2.4896	332.588	184.166	287.537	386.338	248.327	221.052	349.917	351.829	100.653	422.311	361.693	397.163	94.456	394.887	211.944	74.705	0.0011274	0.00011655	9.6154e-05	1375.1	8.8709e-06	2.4526e-06	1389.9	370.34	6.1887e-06	7.8628e-06	420.97	142.71	123.86	42.023	1.0961e-05	51.909	0.00058978	0.0005816	0.00016134	1407.6	6.326e-06	6.3455e-06	1413.8	379.46	6.4123e-06	6.3379e-06	432.19	145.83	126.59	43.564	6.3355e-06	53.884	307.331	234.968	165.081	87.022	205.395	222.051	86.845	91.947	262.355	188.584	91.133	96.195	96.387	100.678	206.941	100.070	-8191	255	
20898.539	1	1	0	0	0.19035	0.16323	0.29849	0.18283	0.23851	0.23195	0.31163	0.20429	0.21726	0.21596	0.049387	0.10096	0.28295	0.30221	0.13388	0.26683	-2.1396	-2.8438	-2.4458	-2.9604	-2.6833	-2.3771	-3.125	-2.7396	-2.4104	-2.9437	-2.4875	-2.6292	-2.7417	-2.4792	-2.5479	-2.6604	159.451	370.938	248.022	371.105	279.362	154.932	360.898	123.289	298.037	300.115	126.011	86.050	138.506	399.063	396.317	332.117	0.00090205	0.00077196	0.00011214	1379.4	3.1949e-06	2.6174e-06	1392	370.13	3.8885e-06	3.0811e-06	420.59	142.54	124.18	42.077	5.757e-06	51.908	0.00059122	0.00058124	0.00016202	1408.4	6.361e-06	6.3192e-06	1413.8	379.06	6.2829e-06	6.339e-06	431.83	146.14	126.45	43.549	6.2707e-06	53.843	307.950	184.117	133.028	87.253	243.223	219.199	87.107	91.995	264.584	270.289	91.167	96.401	96.514	100.928	163.697	99.738	-8191	255	
20898.637	1	1	0	0	0.29628	0.22691	0.07582	0.10087	0.060331	0.059403	0.31497	0.38015	0.13977	0.15103	0.23557	0.13951	0.11581	0.12682	0.23265	0.075538	-2.0292	-2.9292	-2.4938	-2.8667	-2.8625	-2.3646	-2.8875	-2.6792	-2.4479	-2.9792	-2.5875	-2.5438	-2.9813	-2.4979	-2.8458	-2.6771	332.345	195.824	197.621	374.910	249.866	229.094	386.365	400.565	162.286	430.908	130.227	290.567	375.440	213.998	295.213	127.749	0.0011673	0.00048849	0.00015872	1377.9	7.8707e-06	4.3719e-06	1387.6	371.74	8.0905e-06	9.4318e-06	421.33	142.14	123.77	41.916	9.7779e-06	51.944	0.00058018	0.00057772	0.00016022	1408.2	6.3256e-06	6.3045e-06	1413.2	379.63	6.2931e-06	6.2413e-06	431.79	145.54	126.45	43.502	6.2988e-06	53.786	304.667	174.418	197.394	87.214	170.260	231.893	87.110	92.014	314.367	202.937	91.177	96.071	96.536	100.936	187.019	99.624	-8191	255	
20898.732	1	1	0	0	0.13446	0.05969	0.045616	0.28038	0.048705	0.070957	0.40569	0.13553	0.02106	0.14233	0.26119	0.15481	0.1336	0.10012	0.31418	0.079291	-1.9646	-2.8167	-2.3937	-2.7	-2.7979	-2.5896	-2.8958	-2.8708	-2.3187	-2.8167	-2.6813	-2.5687	-2.9417	-2.4271	-2.675	-2.7542	223.921	243.001	383.781	379.679	314.097	210.984	354.825	291.613	430.096	324.781	108.082	171.359	76.240	428.440	207.304	359.198	0.0012634	0.00086328	0.00011322	1378.6	8.2971e-06	3.6458e-06	1391.9	370.69	3.9701e-06	6.5963e-06	419.89	142.48	123.4	42.162	9.555e-06	52.049	0.00057735	0.00056983	0.00015851	1407.5	6.269e-06	6.276e-06	1413.6	379.21	6.3178e-06	6.3091e-06	431.74	145.79	126.33	43.576	6.3731e-06	53.826	308.819	198.660	413.242	87.129	240.229	216.783	86.968	92.132	311.068	239.974	91.187	96.068	96.385	100.791	194.335	99.819	-8191	255	
20898.828	1	1	0	0	0.028466	0.14815	0.14603	0.19801	0.073272	0.12033	0.2514	0.042132	0.1975	0.22141	0.072539	0.15037	0.17637	0.019524	0.09352	0.23974	-1.7792	-2.6646	-2.4875	-2.7354	-2.775	-2.3	-2.8	-2.8917	-2.3708	-2.6792	-2.7083	-2.4792	-3.075	-2.4083	-2.4479	-2.6083	408.423	413.542	216.323	376.078	192.941	367.052	363.477	323.496	271.540	344.411	100.857	80.319	89.477	351.798	161.696	396.052	0.0010313	0.00046176	0.00013538	1379.8	4.9633e-06	4.0607e-06	1392.5	372.04	6.59e-06	4.7379e-06	421.23	142.42	123.72	41.995	4.5776e-06	51.95	0.00058488	0.00058213	0.00016058	1409.4	6.2854e-06	6.2424e-06	1413.4	379.36	6.2634e-06	6.2888e-06	432.09	145.69	126.23	43.494	6.2847e-06	53.815	304.316	119.481	181.768	87.091	244.857	145.147	87.186	92.009	282.112	177.929	91.226	96.016	96.824	100.655	262.695	100.039	-8191	255	
20898.949	1	1	0	0	0.12823	0.3517	0.0352	0.25999	0.10996	0.20171	0.20161	0.37204	0.31664	0.052842	0.19283	0.093333	0.11077	0.28671	0.095466	0.17139	-2.0271	-2.6396	-2.5062	-2.7125	-2.8875	-2.5438	-2.8292	-3.0021	-2.3958	-2.5958	-2.6875	-2.4125	-2.85	-2.6771	-2.4625	-2.8854	286.323	243.357	354.141	333.209	105.724	361.239	325.259	395.119	215.434	301.105	376.508	189.466	407.289	80.114	150.219	193.833	0.0012599	0.00046654	0.00019446	1376.1	9.4826e-06	4.9971e-06	1390.3	370.47	6.7763e-06	1.0469e-05	420.13	142.53	123.48	42.045	5.6633e-06	51.958	0.00057744	0.00057232	0.00015975	1408.4	6.2742e-06	6.2458e-06	1414.1	379.47	6.2832e-06	6.2464e-06	432.58	145.71	126.27	43.52	6.2406e-06	53.815	310.201	85.031	229.210	87.134	233.299	188.603	86.929	92.031	184.100	258.943	91.115	96.226	96.889	100.779	139.976	99.682	-8191	255	
20899.021	1	1	0	0	0.14806	0.21015	0.31359	0.31915	0.018753	0.19555	0.54496	0.24665	0.28734	0.23304	0.20343	0.12779	0.24456	0.1515	0.02621	0.13584	-2	-2.7438	-2.5875	-2.4979	-2.7667	-2.5271	-2.7062	-3.1417	-2.5687	-2.725	-2.7938	-2.5708	-2.8417	-2.7271	-2.4813	-2.9062	216.924	215.128	324.939	369.893	244.095	273.720	381.594	81.211	225.599	380.413	392.633	388.189	420.750	374.126	405.151	312.025	0.0013194	0.00052812	0.00026767	1377.8	4.0815e-06	5.0679e-06	1393.5	370.54	1.2601e-05	5.8404e-06	422.28	142.34	123.72	41.915	8.6102e-06	51.842	0.00057477	0.0005685	0.00015761	1407.2	6.1782e-06	6.2013e-06	1412.6	379.44	6.1772e-06	6.2055e-06	431.71	145.52	126.29	43.428	6.1624e-06	53.773	311.821	231.354	183.068	87.266	162.867	156.338	87.012	91.933	289.488	425.620	91.124	95.926	96.799	100.783	229.887	99.878	-8191	255	
20899.143	1	1	0	0	0.20331	0.19144	0.13105	0.29225	0.19239	0.070472	0.31292	0.22826	0.068927	0.31894	0.089561	0.252	0.046823	0.10418	0.093048	0.25918	-2.0167	-2.5667	-2.8812	-2.5854	-2.7833	-2.6479	-2.7458	-2.9188	-2.5021	-2.7167	-2.775	-2.4146	-2.8458	-2.7125	-2.45	-3.0271	311.476	389.341	212.750	397.733	300.398	108.160	360.375	413.007	81.376	321.238	109.847	408.950	376.857	349.668	427.538	98.536	0.0011367	0.00063993	0.00019371	1379.1	9.1841e-06	5.2586e-06	1390.7	369.16	1.8671e-06	6.8463e-06	421.9	142.5	123.31	42.27	7.3178e-06	52.391	0.00057051	0.00056858	0.00015576	1408.3	6.1381e-06	6.2172e-06	1413.1	378.54	6.1754e-06	6.2718e-06	432.53	145.75	126.35	43.567	6.294e-06	53.893	313.075	178.152	196.505	87.153	195.249	232.398	86.943	92.021	432.736	166.257	91.278	95.863	96.620	100.741	210.591	99.957	-8191	255	
20899.236	1	1	0	0	0.14079	0.18826	0.14591	0.29719	0.1856	0.18854	0.10274	0.35829	0.19123	0.10663	0.11206	0.27971	0.20426	0.24265	0.10116	0.24886	-1.925	-2.5	-2.7604	-2.4792	-2.8979	-2.6375	-2.6458	-3.0792	-2.4938	-2.5625	-2.9562	-2.3667	-2.7833	-2.7479	-2.4083	-3.0458	398.285	80.618	184.432	372.335	151.134	185.343	116.839	406.449	224.467	281.619	319.595	82.830	140.483	126.195	126.223	405.524	0.0010742	0.00046709	0.00028028	1377.9	8.4988e-06	1.5256e-06	1390.1	369.74	4.37e-06	9.7545e-06	422.06	142.1	123.65	42.164	6.9046e-07	51.863	0.0005842	0.00057454	0.00016017	1407.5	6.2889e-06	6.2726e-06	1413.5	378.6	6.2773e-06	6.3516e-06	431.97	145.46	126.37	43.554	6.3381e-06	53.843	311.745	101.210	130.210	87.128	182.582	285.381	87.052	92.036	368.231	209.869	91.243	95.867	96.483	100.494	196.638	100.077	-8191	255	
20899.332	1	1	0	0	0.25262	0.19316	0.036835	0.21422	0.2209	0.051066	0.27873	0.15827	0.29425	0.089549	0.45864	0.36861	0.39357	0.24325	0.080874	0.37741	-2.0896	-2.5687	-2.8292	-2.7062	-2.8083	-2.7333	-2.6	-3.0521	-2.6646	-2.3063	-3.0875	-2.5146	-2.6917	-2.6979	-2.3104	-2.9104	208.621	229.948	246.900	403.672	381.250	192.337	371.550	388.010	227.602	92.460	330.244	390.562	80.190	386.588	221.200	426.781	0.0010374	0.00046117	0.00022759	1380.3	4.7529e-06	2.8278e-06	1385.1	370	5.7118e-06	1.1612e-05	420.3	142.4	123.3	42.157	9.8668e-06	51.882	0.00058508	0.0005815	0.00016085	1409.5	6.3817e-06	6.3512e-06	1412.1	378.96	6.304e-06	6.3651e-06	432.03	145.7	126.29	43.556	6.3755e-06	53.81	304.854	88.045	187.854	87.159	207.900	129.993	86.990	92.002	281.698	182.184	91.402	95.895	96.521	100.688	179.441	99.821	-8191	255	
20899.428	1	1	0	0	0.04719	0.066396	0.10902	0.2201	0.037614	0.096063	0.46873	0.14055	0.13844	0.13325	0.09532	0.21047	0.28116	0.11948	0.26193	0.15304	-2.2313	-2.2083	-2.7542	-2.7479	-2.6583	-2.8167	-2.6604	-2.8229	-2.625	-2.3458	-3.0312	-2.5979	-2.6208	-2.8917	-2.2854	-2.7854	415.953	177.198	376.736	383.745	189.273	419.063	363.794	420.424	96.546	394.654	401.136	384.139	101.124	354.752	87.307	201.654	0.0012777	0.00033826	0.00018857	1378.3	1.028e-05	4.055e-06	1391.7	370.31	7.9911e-06	1.0132e-06	420.45	142.03	122.88	42.158	7.0683e-06	52.059	0.0005941	0.00058869	0.00016151	1406.2	6.4111e-06	6.364e-06	1414.5	378.78	6.3957e-06	6.4373e-06	432.07	145.5	126.25	43.54	6.3271e-06	53.759	310.419	192.031	180.036	87.233	205.904	329.901	87.234	91.959	250.149	125.197	91.255	96.167	96.516	100.831	185.160	99.741	-8191	255	
20899.549	1	1	0	0	0.26408	0.29864	0.18606	0.4399	0.19317	0.2258	0.19046	0.42878	0.23288	0.15089	0.12816	0.28961	0.060929	0.14404	0.050777	0.098139	-2.0625	-2.6188	-2.6604	-2.4375	-2.4437	-2.875	-2.6917	-2.7792	-2.5708	-2.3979	-2.8771	-2.8458	-2.5812	-2.8604	-2.4313	-2.7188	275.338	300.936	272.757	398.185	342.830	249.910	427.134	373.167	251.902	129.732	317.937	372.495	302.148	271.457	336.062	93.101	0.0011656	0.00076632	0.00024512	1377.8	3.0397e-06	2.0761e-06	1389	370.36	2.7531e-06	7.081e-06	419.77	142.07	123.6	42.064	1.2448e-05	52.133	0.00058725	0.00058081	0.0001614	1409.7	6.4252e-06	6.3832e-06	1413.8	379.59	6.3805e-06	6.378e-06	431.21	145.64	126.42	43.541	6.373e-06	53.929	314.431	133.284	173.045	87.142	195.590	366.141	87.133	92.031	218.866	324.706	91.579	96.310	96.412	100.658	208.082	99.338	-8191	255	
20899.645	1	1	0	0	0.26929	0.26379	0.053683	0.22316	0.28471	0.10813	0.28752	0.21001	0.065377	0.20512	0.036693	0.14066	0.27955	0.17494	0.30957	0.225	-2.1708	-2.3896	-2.5187	-2.7792	-2.3521	-3	-2.5521	-2.7396	-2.7125	-2.1937	-3.0021	-2.6042	-2.4083	-2.8729	-2.5687	-2.6979	403.345	282.171	383.980	393.511	282.128	351.903	401.169	349.525	425.383	275.130	187.803	408.078	355.757	421.835	387.119	380.932	0.0012584	0.00052424	0.00023204	1376.3	5.991e-06	1.1527e-06	1389.1	369.1	6.8075e-06	3.3576e-06	420.26	142.49	123.79	42.189	3.5588e-06	52.064	0.0005899	0.00057949	0.00016238	1407.5	6.3792e-06	6.3181e-06	1414.7	379.02	6.3159e-06	6.2705e-06	431.46	145.48	126.43	43.527	6.3612e-06	53.843	301.351	200.051	137.373	87.173	199.692	261.442	87.057	91.903	254.299	241.807	91.397	96.056	96.537	100.782	311.218	99.605	-8191	255	
20899.717	1	1	0	0	0.16272	0.099189	0.13415	0.33445	0.26177	0.19222	0.32424	0.27959	0.20113	0.080494	0.22555	0.084261	0.17677	0.38193	0.30849	0.19755	-2.425	-2.4542	-2.8063	-2.9146	-2.3625	-2.8375	-2.6417	-2.775	-2.7729	-2.4896	-2.8042	-2.6521	-2.4938	-2.9437	-2.4583	-2.5438	265.122	159.453	377.100	393.713	98.398	198.431	376.502	368.789	294.528	171.043	360.344	357.323	411.528	365.156	368.615	392.460	0.001051	0.0011776	3.9081e-05	1381.8	7.9246e-06	8.1503e-06	1389.7	369.7	4.1666e-06	4.1732e-06	420.24	143.18	123.5	42.185	1.1679e-05	51.965	0.00058864	0.00057923	0.00016229	1411.6	6.3461e-06	6.3306e-06	1414.7	378.57	6.3363e-06	6.3415e-06	431.83	145.88	126.4	43.524	6.3478e-06	53.836	309.378	184.865	248.905	87.201	217.456	210.775	86.918	91.868	237.473	145.337	91.267	95.750	96.590	100.713	219.051	99.988	-8191	255	
20899.838	1	1	0	0	0.14775	0.13714	0.13308	0.32783	0.12298	0.1104	0.18204	0.11686	0.18971	0.30085	0.18912	0.18965	0.057949	0.17034	0.31868	0.23893	-2.4771	-2.3979	-2.7042	-2.9042	-2.2333	-2.8292	-2.675	-2.7604	-2.85	-2.4271	-2.9354	-2.7667	-2.3375	-3.1396	-2.3771	-2.5729	360.722	158.195	281.033	367.567	114.552	89.713	367.922	380.059	87.273	89.339	214.162	98.541	310.201	418.146	284.262	264.596	0.0012103	0.00038896	3.7631e-05	1376.4	5.8457e-06	4.66e-06	1389.1	369.62	7.6022e-06	7.2296e-06	420.15	142.24	122.56	42.055	1.1531e-05	51.949	0.00058157	0.00058006	0.00016012	1407.6	6.3503e-06	6.3168e-06	1415.3	378.5	6.3357e-06	6.3605e-06	432.15	145.75	126.26	43.511	6.4435e-06	53.792	310.263	165.525	147.963	87.382	255.482	215.645	86.988	92.017	274.583	191.851	91.240	95.919	96.663	100.762	254.667	99.701	-8191	255	
20899.934	1	1	0	0	0.27605	0.19043	0.19654	0.33129	0.15577	0.16907	0.15778	0.22675	0.10406	0.21876	0.14902	0.059894	0.28402	0.041463	0.16772	0.19357	-2.3	-2.1479	-2.6208	-2.9271	-2.525	-2.9	-2.7104	-2.5396	-2.8875	-2.4625	-2.6979	-2.7833	-2.525	-2.9875	-2.7292	-2.4729	366.544	212.100	117.654	384.985	271.049	344.002	352.762	334.417	160.999	92.950	156.160	211.915	378.169	407.865	349.368	319.183	0.0011563	0.00059134	0.00022662	1377.9	3.4271e-06	2.0035e-06	1387.6	369.33	7.6151e-06	2.2421e-06	420.74	141.66	123.05	41.921	5.907e-06	51.724	0.00058606	0.000583	0.00016333	1407.2	6.3131e-06	6.3755e-06	1412.9	378.6	6.3795e-06	6.313e-06	431.81	145.15	126.18	43.497	6.448e-06	53.646	303.298	117.512	205.957	87.362	249.648	93.152	86.910	92.003	275.872	241.826	91.164	95.950	96.404	100.841	205.339	99.864	-8191	255	
20900.029	1	1	0	0	0.15662	0.19128	0.18877	0.2542	0.2162	0.27313	0.20444	0.59688	0.061611	0.14538	0.23143	0.067539	0.31699	0.24814	0.067779	0.2543	-2.3312	-2.25	-2.55	-2.9542	-2.2979	-2.6708	-2.8583	-2.5396	-2.6604	-2.4979	-2.6458	-2.9313	-2.1833	-2.7042	-2.6937	-2.6583	157.343	295.517	355.497	383.646	235.759	103.516	224.136	396.585	299.704	122.145	360.052	229.773	374.110	383.269	284.716	401.748	0.0010698	0.00032509	0.00011601	1378.1	7.198e-06	2.804e-06	1387.1	370.26	9.9523e-06	2.3515e-06	420.79	142.03	123.86	42.166	6.4503e-06	51.868	0.0005947	0.00058789	0.0001636	1407.7	6.4736e-06	6.4758e-06	1413.4	379.09	6.4034e-06	6.431e-06	431.99	145.5	126.42	43.594	6.5007e-06	53.847	319.639	354.635	136.166	87.115	240.695	297.662	86.937	91.892	271.029	286.390	91.023	96.069	96.584	100.680	173.802	99.794	-8191	255	
20900.127	1	1	0	0	0.054098	0.22624	0.24099	0.1621	0.12738	0.067564	0.12288	0.12577	0.1698	0.10265	0.21434	0.27693	0.35363	0.14808	0.071003	0.15734	-2.3729	-2.4104	-2.4625	-2.9667	-2.5333	-2.7042	-2.8187	-2.5146	-2.775	-2.5833	-2.5396	-2.9708	-2.4062	-2.7771	-2.8229	-2.5542	199.623	118.687	210.688	387.589	215.541	154.408	373.518	124.853	106.112	348.978	356.455	397.953	91.853	108.672	308.582	139.019	0.001095	0.00073246	0.00013204	1376.6	4.0833e-06	8.1429e-06	1391.7	369.73	8.3788e-06	6.9568e-06	421.37	142.35	123.45	41.919	1.1137e-05	52.086	0.00059878	0.00058687	0.00016412	1410.2	6.4413e-06	6.5061e-06	1415.4	378.85	6.323e-06	6.4132e-06	431.98	145.37	126.27	43.498	6.3488e-06	53.749	317.878	192.377	165.160	87.258	242.851	192.089	87.064	91.856	236.547	256.551	91.359	95.949	96.547	100.847	230.178	99.748	-8191	255	
20900.223	1	1	0	0	0.077776	0.038263	0.25163	0.31075	0.19898	0.021459	0.20401	0.24081	0.16264	0.27195	0.2331	0.49146	0.087593	0.090665	0.13912	0.1938	-2.3146	-2.5563	-2.5458	-2.9813	-2.4188	-2.5542	-3.1292	-2.7708	-2.8979	-2.6167	-2.6083	-2.9896	-2.3271	-2.7354	-2.7687	-2.4208	420.365	288.214	177.051	384.780	338.548	153.034	89.871	410.223	424.833	332.941	151.680	394.401	293.994	432.294	93.078	91.779	0.0011237	0.00076295	0.00027006	1374	4.3862e-06	8.316e-06	1386.2	370.62	5.3785e-06	1.0504e-05	420.01	141.83	122.99	41.777	5.3066e-06	51.735	0.00058486	0.00058541	0.00016183	1407.3	6.371e-06	6.4237e-06	1412.9	378.94	6.3703e-06	6.417e-06	431.14	145.37	125.99	43.363	6.2799e-06	53.762	309.465	160.610	168.419	87.244	196.862	213.453	87.022	92.075	254.323	174.995	91.462	96.040	96.437	100.857	212.413	100.177	-8191	255	
20900.318	1	1	0	0	0.10814	0.18929	0.13028	0.077343	0.17673	0.23046	0.16458	0.37699	0.12965	0.068847	0.33311	0.17469	0.20799	0.077726	0.20669	0.27177	-2.3146	-2.525	-2.3646	-3.0708	-2.6167	-2.6437	-2.9042	-2.5625	-2.8458	-2.775	-2.5854	-3.0083	-2.5354	-2.6333	-2.8812	-2.5396	262.620	127.194	192.401	395.715	355.963	226.509	378.742	365.572	228.985	121.620	414.882	304.401	91.048	149.028	142.680	327.488	0.0012216	0.0010808	0.00013336	1379.5	9.1422e-06	3.8705e-06	1389.1	369.02	4.8735e-06	1.0167e-05	420.6	142.01	122.97	41.935	9.0557e-06	51.688	0.00058294	0.00058145	0.0001598	1408.2	6.2893e-06	6.3048e-06	1412.2	377.93	6.2025e-06	6.2208e-06	431.42	145.36	125.82	43.404	6.2114e-06	53.632	317.151	160.617	129.928	87.094	199.513	295.394	86.903	91.914	288.403	196.964	91.008	95.993	96.297	100.703	167.553	99.815	-8191	255	
20900.412	1	1	0	0	0.14353	0.045247	0.16323	0.39395	0.16636	0.20148	0.30377	0.11645	0.1689	0.1669	0.15627	0.17904	0.33711	0.21384	0.23422	0.14959	-2.3125	-2.7479	-2.3854	-3.1	-2.6063	-2.5229	-2.9417	-2.6312	-2.4979	-2.6	-2.5771	-2.7021	-2.5396	-2.4583	-2.9688	-2.4021	165.538	342.728	82.957	421.597	114.371	286.056	418.374	349.801	260.279	252.838	375.201	296.955	402.540	384.579	213.914	74.866	0.0011992	0.00072259	0.00022339	1378.6	4.5789e-06	3.4068e-06	1391.9	369.75	1.3806e-06	2.6476e-06	419.98	141.4	123.63	41.972	5.231e-06	51.94	0.00057526	0.00056593	0.00015763	1407.9	6.1992e-06	6.1838e-06	1411.9	378.24	6.1751e-06	6.0987e-06	430.81	145.03	126.01	43.429	6.0684e-06	53.678	304.716	133.300	151.924	87.239	240.559	155.603	87.049	92.113	165.987	259.508	91.131	96.001	96.753	100.766	190.961	100.041	-8191	255	
20900.510	1	1	0	0	0.13206	0.27565	0.24854	0.25269	0.2111	0.18854	0.50174	0.23867	0.2145	0.052972	0.18476	0.2433	0.27939	0.13974	0.22548	0.13337	-2.2062	-2.7687	-2.325	-2.8458	-2.6083	-2.5042	-3.0521	-2.45	-2.5833	-2.7625	-2.4521	-2.8104	-2.8833	-2.2729	-2.8729	-2.5479	302.086	111.292	234.054	390.392	388.776	370.156	376.516	357.003	202.685	412.314	267.967	387.106	358.893	361.960	248.247	103.186	0.0011556	0.0010093	0.00013319	1380.1	1.0355e-05	4.3871e-06	1390.7	369.17	5.9865e-06	4.8681e-06	422.47	141.21	123.6	41.967	5.2598e-06	51.87	0.0005705	0.00056193	0.00015513	1408.7	6.1224e-06	6.0832e-06	1413.1	377.68	6.0895e-06	6.071e-06	431.42	144.95	126.21	43.322	6.1806e-06	53.563	302.662	178.494	246.507	87.336	262.870	184.519	86.960	92.171	263.163	259.595	91.186	95.792	96.381	100.952	179.293	99.771	-8191	255	
20900.629	1	1	0	0	0.14366	0.22715	0.37668	0.17688	0.12835	0.099327	0.23522	0.25069	0.39879	0.24312	0.11128	0.11679	0.26917	0.37267	0.13629	0.18607	-2.0083	-2.8646	-2.3375	-2.9375	-2.6958	-2.3937	-2.8792	-2.5833	-2.4729	-2.8312	-2.4708	-2.8438	-2.9542	-2.2979	-2.9167	-2.6521	96.810	391.184	341.004	93.174	173.946	318.260	81.996	417.200	364.326	186.068	140.155	359.430	429.553	97.400	298.567	398.649	0.0010392	0.00064158	0.00033125	1380.4	3.2001e-06	3.3085e-06	1390.8	369.27	5.166e-06	5.8811e-06	421.83	141.84	123.33	41.963	9.2439e-06	51.88	0.00057258	0.00056132	0.00015711	1408.6	6.1314e-06	6.1613e-06	1412.7	378.01	6.1535e-06	6.1215e-06	431.42	145.3	125.98	43.332	6.1732e-06	53.695	309.862	207.158	162.923	87.005	217.095	332.642	86.924	92.051	152.446	289.905	91.314	96.098	96.466	100.606	239.374	99.634	-8191	255	
20900.725	1	1	0	0	0.096015	0.19476	0.14907	0.31674	0.129	0.24056	0.10184	0.16774	0.28518	0.25915	0.30918	0.24918	0.25048	0.24741	0.23004	0.34229	-2.1167	-2.8167	-2.35	-2.7062	-2.5438	-2.2604	-2.9479	-2.7687	-2.5104	-2.9604	-2.6583	-2.5854	-2.8521	-2.2104	-2.8458	-2.8167	221.055	351.696	137.327	418.218	76.459	210.876	329.855	315.081	309.216	270.239	395.014	79.532	372.506	110.043	411.261	303.895	0.001153	0.00062963	0.00017673	1381.5	6.3882e-06	1.2895e-06	1396.5	370.07	3.8013e-06	3.8973e-06	419.39	142.22	123.23	41.866	7.3181e-06	52.02	0.00056985	0.00056293	0.00015432	1410	6.1702e-06	6.1444e-06	1415.2	378	6.088e-06	6.0549e-06	429.82	145.34	125.83	43.253	6.0685e-06	53.587	306.556	209.104	186.031	87.159	207.549	292.287	87.147	91.930	331.559	217.997	91.460	96.225	96.643	100.542	176.160	99.927	-8191	255	
20900.822	1	1	0	0	0.24225	0.23	0.16211	0.27427	0.12708	0.13656	0.11113	0.33053	0.28421	0.13884	0.10952	0.095626	0.074599	0.32719	0.13694	0.055385	-2.0938	-2.9354	-2.4062	-2.7854	-2.85	-2.2313	-2.9437	-2.8187	-2.3083	-2.9	-2.5417	-2.7354	-2.85	-2.4375	-2.7417	-2.8271	307.957	378.367	90.716	417.226	263.161	139.830	401.088	408.179	244.860	207.074	85.035	361.688	321.452	369.941	88.953	309.917	0.0012031	0.0009712	0.00016092	1380.3	6.8349e-06	5.7313e-06	1391.5	368.57	3.9465e-06	1.0183e-05	419.01	141.94	122.51	41.679	4.9905e-06	51.698	0.00056235	0.00054815	0.00015405	1408.1	5.9502e-06	6.0513e-06	1410.1	377.05	5.9529e-06	5.9192e-06	429.89	144.99	125.53	43.285	5.9805e-06	53.443	306.310	186.329	172.783	87.188	189.493	292.757	87.111	91.850	267.507	201.311	91.308	96.219	96.709	101.031	199.375	99.910	-8191	255	
20900.941	1	1	0	0	0.13582	0.057497	0.059054	0.24155	0.018365	0.037127	0.12546	0.24602	0.31083	0.20637	0.20538	0.18374	0.038156	0.29456	0.083872	0.14291	-1.8958	-2.8104	-2.3667	-2.6083	-2.8708	-2.3812	-2.775	-2.8583	-2.2979	-2.8146	-2.6375	-2.4667	-3.0479	-2.2042	-2.8083	-2.7042	303.281	157.901	401.159	394.410	84.033	262.101	92.318	388.109	181.527	395.145	410.682	330.298	279.907	410.019	223.340	402.245	0.0010774	0.00087259	0.00014714	1381	9.3803e-06	6.6184e-06	1390.2	368.27	3.5674e-06	1.1923e-05	418.8	142.13	122.94	41.936	8.0055e-06	51.679	0.00055158	0.00054253	0.0001494	1408	5.9414e-06	5.8905e-06	1410.6	376.71	5.8925e-06	5.8638e-06	429.52	144.77	125.52	43.221	5.8357e-06	53.445	307.451	99.736	240.967	87.152	210.234	254.917	86.858	91.878	299.132	214.944	91.275	95.889	96.585	100.614	217.492	99.922	-8191	255	
20901.014	1	1	0	0	0.27711	0.10998	0.25142	0.27058	0.19177	0.25318	0.23594	0.19513	0.030112	0.20522	0.12374	0.04111	0.40773	0.33582	0.15237	0.13134	-1.7563	-2.7	-2.5333	-2.7375	-2.6979	-2.4667	-2.8937	-2.8542	-2.3625	-2.9625	-2.6042	-2.4146	-2.8083	-2.2979	-2.3937	-2.7354	365.001	268.717	102.019	405.398	348.712	177.491	369.488	348.652	278.460	220.653	380.249	431.508	385.248	380.209	203.745	307.619	0.001146	0.00034081	0.00012268	1374.7	2.4537e-06	1.15e-06	1390.4	368.71	2.4484e-06	3.8504e-06	419.27	142.38	122.8	41.849	7.1488e-06	51.84	0.00054048	0.00052938	0.00014728	1404.9	5.7861e-06	5.7369e-06	1409.9	376.48	5.716e-06	5.7209e-06	428.92	144.79	124.96	43.141	5.738e-06	53.378	311.296	154.821	153.221	87.134	237.425	416.754	87.080	92.016	233.384	253.847	91.409	96.123	96.711	100.690	217.351	99.799	-8191	255	
20901.109	1	1	0	0	0.33721	0.097756	0.095223	0.19667	0.12235	0.11575	0.35484	0.31407	0.072848	0.33212	0.070185	0.21196	0.16005	0.16671	0.067363	0.20833	-1.9104	-2.65	-2.65	-2.5938	-2.7167	-2.5583	-2.5542	-2.9646	-2.2292	-2.7271	-2.6396	-2.3833	-2.8354	-2.6229	-2.4896	-2.9083	153.861	140.947	419.753	387.745	345.289	206.712	391.664	84.463	276.800	386.277	204.487	343.878	330.165	390.766	410.539	361.059	0.0010952	0.0004182	5.4073e-05	1377.6	5.2896e-06	5.6895e-06	1389.9	368.25	8.3476e-06	5.6164e-06	419.83	142.13	123.2	41.823	4.4977e-06	51.883	0.00052898	0.00052533	0.00014585	1403.7	5.6848e-06	5.6578e-06	1408.7	376.6	5.6522e-06	5.6937e-06	428.64	144.33	125.19	43.134	5.7429e-06	53.343	306.710	177.559	230.966	87.321	240.226	275.612	86.912	91.785	276.092	246.817	91.232	96.207	96.670	100.725	179.635	99.685	-8191	255	
20901.229	1	1	0	0	0.29071	0.18437	0.10889	0.12883	0.012083	0.2017	0.25042	0.2466	0.23459	0.2698	0.25212	0.15783	0.051766	0.099828	0.11402	0.25003	-1.9688	-2.5833	-2.5458	-2.475	-2.7396	-2.5812	-2.6312	-2.7854	-2.5417	-2.7417	-2.8167	-2.4917	-2.7687	-2.5583	-2.4958	-3.0292	289.665	114.686	201.842	404.417	350.694	193.660	325.483	402.232	175.363	325.955	422.011	307.762	373.169	432.124	85.922	388.229	0.0012926	0.00077948	0.00024152	1378.6	2.6757e-06	4.1747e-06	1386.8	367.9	8.957e-06	6.5129e-06	420.46	141.53	122.6	41.899	1.2417e-05	51.889	0.00053028	0.00052321	0.00014545	1404.5	5.7205e-06	5.7589e-06	1408	376.11	5.8076e-06	5.8595e-06	429.02	144.49	125.17	43.132	5.8819e-06	53.383	306.928	154.908	160.781	87.293	183.151	150.874	87.065	92.121	271.186	282.957	91.197	96.059	96.524	100.819	177.223	99.717	-8191	255	
20901.324	1	1	0	0	0.039383	0.041115	0.13335	0.30695	0.17277	0.10071	0.2626	0.17935	0.02257	0.18826	0.23266	0.12369	0.22605	0.03648	0.1751	0.13228	-2.1063	-2.5771	-2.7271	-2.4771	-2.5687	-2.4833	-2.5687	-2.8812	-2.4354	-2.6708	-2.9208	-2.3104	-2.7521	-2.6646	-2.3542	-2.7812	145.245	167.954	227.638	402.898	100.090	251.450	352.571	337.938	131.772	201.621	140.101	385.017	428.141	309.758	310.713	324.631	0.0011504	0.00049618	0.00020333	1380.4	1.0012e-05	2.744e-06	1386.8	369.09	7.1536e-06	5.6178e-06	418.42	141.09	122.81	41.775	1.2014e-05	51.622	0.00054448	0.00053509	0.00014882	1404.9	5.8417e-06	5.7914e-06	1408.2	376.46	5.7368e-06	5.8e-06	428.26	144.37	125.1	43.044	5.7727e-06	53.282	310.640	162.482	208.768	87.180	240.085	186.310	87.102	91.998	255.824	147.011	91.512	96.042	96.541	100.909	161.701	99.904	-8191	255	
20901.422	1	1	0	0	0.20976	0.10046	0.19705	0.097462	0.27685	0.12192	0.16757	0.23441	0.31187	0.15969	0.2077	0.15722	0.12644	0.15395	0.11605	0.20882	-1.9813	-2.4917	-2.7687	-2.5271	-2.5938	-2.6021	-2.4729	-2.9667	-2.3458	-2.5167	-2.9833	-2.55	-2.725	-2.8271	-2.2479	-2.6813	167.805	110.598	399.899	123.678	229.555	373.401	86.049	373.019	278.440	272.633	112.216	76.850	387.835	274.887	116.919	330.665	0.0012427	0.00093045	0.00015071	1376.6	6.6244e-06	5.9253e-06	1385.5	368.05	4.1997e-06	7.5027e-06	419.14	141	122.43	41.774	5.2379e-06	51.885	0.00054083	0.00053109	0.00014586	1403.9	5.7788e-06	5.7936e-06	1407.5	376.45	5.7231e-06	5.7064e-06	428.83	144.18	124.83	43.059	5.7358e-06	53.294	307.994	172.209	175.036	87.347	197.799	158.815	87.215	91.914	323.714	244.493	91.112	95.751	96.499	100.734	190.193	100.009	-8191	255	
20901.543	1	1	0	0	0.26401	0.23211	0.04637	0.35185	0.20796	0.25823	0.22217	0.26423	0.17356	0.28251	0.14582	0.15678	0.19079	0.079946	0.085144	0.14735	-2.0833	-2.3729	-2.8125	-2.4625	-2.6917	-2.8312	-2.5667	-2.9083	-2.5938	-2.35	-3.0083	-2.5938	-2.6417	-2.9146	-2.5312	-2.9104	86.009	159.374	377.888	407.378	333.669	269.764	380.314	379.652	315.771	269.340	281.751	374.140	368.646	177.589	424.730	82.880	0.0012533	0.00077302	0.00010604	1379.4	8.2965e-06	1.2008e-06	1388	367.99	5.8279e-06	1.4206e-06	419.8	142.14	122.53	41.864	7.1425e-06	51.641	0.00053467	0.00052853	0.00014657	1404.3	5.8061e-06	5.7988e-06	1409.8	375.99	5.8302e-06	5.8096e-06	428.73	144.51	125.26	43.135	5.7882e-06	53.35	304.376	134.594	218.501	87.195	228.130	264.268	86.955	91.854	265.149	405.344	91.576	95.848	96.449	100.840	176.937	99.563	-8191	255	
20901.613	1	1	0	0	0.18686	0.30167	0.11319	0.19149	0.39243	0.058543	0.27244	0.26312	0.15426	0.033746	0.14675	0.33439	0.21244	0.2141	0.1927	0.2616	-2.1562	-2.3104	-2.8312	-2.5667	-2.5625	-2.7875	-2.4917	-2.9958	-2.7188	-2.425	-3.0312	-2.6063	-2.7542	-3.0458	-2.4125	-2.925	315.740	138.963	171.191	399.369	332.698	306.994	385.927	420.731	252.682	427.614	410.267	427.192	394.049	410.320	225.202	354.721	0.0012366	0.00016775	0.00025183	1379.7	1.2204e-05	6.7344e-06	1383.3	367.94	1.0859e-05	2.4562e-06	420.09	141.62	122.45	41.757	2.7555e-06	51.972	0.00054237	0.00053557	0.00014825	1404.3	5.8583e-06	5.8132e-06	1407.4	376.56	5.8755e-06	5.8167e-06	429.46	144.61	125.41	43.112	5.8346e-06	53.331	310.184	303.805	107.768	87.199	235.673	293.332	87.014	91.940	262.761	171.545	91.303	95.933	96.452	100.832	132.635	99.900	-8191	255	
20901.711	1	1	0	0	0.16426	0.27874	0.20763	0.36611	0.15228	0.0787	0.31294	0.25212	0.10017	0.24717	0.29637	0.027689	0.17047	0.17306	0.20951	0.14324	-2.2104	-2.2604	-2.7938	-2.6729	-2.5771	-2.8083	-2.6604	-2.8958	-2.9583	-2.4813	-2.7583	-2.6625	-2.4688	-2.8583	-2.4958	-2.6479	409.718	234.158	104.108	395.236	343.258	182.836	329.778	410.494	227.377	395.524	261.370	86.528	310.518	269.406	216.345	365.991	0.0010396	0.0004639	0.00014529	1379.3	1.2149e-05	4.5028e-06	1385	368.26	6.6587e-06	9.456e-06	419.54	141.64	122.51	41.983	9.7829e-06	51.968	0.00054643	0.00053284	0.00014851	1405.6	5.8112e-06	5.8197e-06	1408.6	376.34	5.7891e-06	5.8232e-06	429.31	144.62	125.42	43.169	5.8305e-06	53.446	319.684	399.302	332.228	87.107	269.700	263.982	86.801	92.011	230.517	209.774	91.413	95.949	96.605	100.853	237.970	99.862	-8191	255	
20901.807	1	1	0	0	0.23698	0.13947	0.099024	0.39651	0.1282	0.023157	0.23415	0.22356	0.11602	0.26085	0.17646	0.29361	0.17489	0.11707	0.13447	0.28257	-2.2188	-2.4604	-2.8875	-2.6854	-2.3937	-3.0354	-2.5708	-2.6479	-2.7479	-2.2438	-2.7833	-2.7188	-2.6188	-2.9729	-2.5292	-2.6854	416.488	373.677	348.258	386.717	331.946	334.345	367.217	365.031	117.282	383.829	360.667	105.840	193.067	323.582	121.061	348.594	0.0011991	0.00022776	0.000187	1382.7	9.8156e-06	1.6326e-06	1388.4	370.71	9.0339e-06	3.4779e-06	419.02	140.98	123.09	41.723	6.0439e-06	51.663	0.00054356	0.00053449	0.00014767	1407.5	5.8133e-06	5.7849e-06	1409.4	377.01	5.7619e-06	5.835e-06	428.82	144.4	125.57	43.107	5.8327e-06	53.307	313.878	162.314	142.495	87.098	260.133	116.167	86.985	91.834	280.722	161.460	91.233	95.978	96.718	100.754	203.031	99.876	-8191	255	
20901.902	1	1	0	0	0.042485	0.14338	0.11711	0.18317	0.20606	0.091951	0.14475	0.22814	0.19356	0.037028	0.2292	0.22365	0.19249	0.2059	0.08826	0.045581	-2.3792	-2.3625	-2.7042	-2.8688	-2.3625	-2.9437	-2.6875	-2.7417	-2.7583	-2.2562	-2.8542	-2.7396	-2.3688	-3.0708	-2.4771	-2.6646	408.172	356.209	133.230	419.301	185.373	260.683	260.838	411.477	114.018	301.364	104.646	427.042	383.472	99.182	75.476	156.598	0.001064	0.00029137	8.0241e-05	1376.4	1.0027e-05	4.9352e-06	1386	369.35	5.0413e-06	6.24e-06	419.89	141.53	122.64	41.751	7.1496e-06	51.776	0.00053597	0.00053363	0.00014848	1404.5	5.884e-06	5.7907e-06	1408.7	376.56	5.8312e-06	5.7862e-06	429.22	144.54	125.33	43.115	5.8327e-06	53.396	317.311	163.418	158.310	87.229	245.784	231.938	87.146	91.858	193.620	210.515	91.291	95.750	96.464	100.932	211.045	99.678	-8191	255	
20902.023	1	1	0	0	0.051611	0.093212	0.14495	0.29063	0.23778	0.11974	0.37868	0.19385	0.039021	0.27945	0.26015	0.27601	0.18909	0.32118	0.13672	0.097847	-2.25	-2.1729	-2.6396	-2.7646	-2.3312	-2.8396	-2.6979	-2.7542	-2.8063	-2.3417	-2.8708	-2.7333	-2.2854	-2.8854	-2.4042	-2.6354	205.078	124.502	322.297	407.149	193.133	429.209	404.435	390.048	152.572	143.266	192.026	386.185	418.439	424.043	337.404	227.886	0.0010984	0.0010863	6.8415e-05	1377.1	6.2179e-06	5.9097e-06	1385.8	369.42	8.5051e-06	4.3843e-06	420.29	141.57	122.54	41.769	1.2215e-05	51.871	0.00054141	0.00053143	0.00014828	1404.9	5.7966e-06	5.7992e-06	1408.2	376.8	5.7542e-06	5.7118e-06	428.79	144.81	125.15	43.086	5.7729e-06	53.348	322.077	146.757	245.813	87.239	187.970	197.427	86.997	92.086	290.781	230.145	91.276	96.037	96.631	100.847	213.501	99.993	-8191	255	
20902.119	1	1	0	0	0.10097	0.10781	0.14893	0.2803	0.2585	0.019149	0.074721	0.12606	0.25222	0.14327	0.11949	0.29959	0.11935	0.19156	0.028438	0.23229	-2.5042	-2.525	-2.3875	-3	-2.3354	-2.6562	-2.8771	-2.6229	-2.8438	-2.5375	-2.7	-2.9	-2.35	-2.9729	-2.575	-2.4125	106.036	86.436	200.029	403.811	172.319	430.159	78.342	180.474	349.589	268.723	126.963	93.130	110.440	384.745	175.208	379.893	0.0011143	0.00087634	0.00015885	1375.7	7.8443e-06	1.4614e-06	1389.4	369.34	8.6512e-06	4.3462e-06	420.95	141.99	122.8	41.951	5.042e-06	51.446	0.0005322	0.00052758	0.0001467	1403	5.7578e-06	5.7817e-06	1407.7	376.28	5.7262e-06	5.7512e-06	429.11	144.68	125.37	43.172	5.8043e-06	53.264	307.986	150.763	176.025	87.352	212.097	219.959	86.994	91.785	282.181	187.410	91.384	95.938	96.420	100.638	168.109	100.083	-8191	255	
20902.189	1	1	0	0	0.34154	0.24657	0.16665	0.41635	0.073352	0.15964	0.33692	0.25756	0.21063	0.19077	0.43567	0.31309	0.291	0.34287	0.19289	0.093467	-2.3354	-2.2062	-2.6417	-2.9979	-2.3	-2.8187	-3.0771	-2.675	-2.9771	-2.5792	-2.4854	-2.8896	-2.5208	-2.8125	-2.7396	-2.5938	80.754	339.315	285.156	422.483	382.973	156.439	335.657	370.561	142.218	125.389	75.065	430.947	356.555	400.837	79.511	392.664	0.0012867	0.0008162	8.5017e-05	1379	3.4142e-06	2.097e-06	1386.9	369.09	4.5938e-06	1.1773e-05	418.7	141.44	123.05	42.039	9.9182e-06	51.817	0.00053696	0.0005278	0.00014768	1406.5	5.81e-06	5.8249e-06	1409.1	376.49	5.806e-06	5.792e-06	429.12	144.37	125.41	43.238	5.8133e-06	53.321	308.114	212.131	175.898	87.101	254.362	325.377	86.988	92.004	258.010	247.783	91.390	95.830	96.489	100.857	239.406	99.788	-8191	255	
20902.311	1	1	0	0	0.17737	0.092837	0.075898	0.33115	0.099722	0.30407	0.17128	0.22112	0.22006	0.33954	0.20547	0.1506	0.13116	0.20589	0.091944	0.093551	-2.3312	-2.5104	-2.6312	-3.3229	-2.3771	-2.8146	-3.0167	-2.6292	-2.7188	-2.8042	-2.5958	-2.925	-2.6208	-2.7687	-2.7687	-2.3833	254.407	402.959	116.133	412.374	362.669	165.001	394.960	360.019	418.660	119.981	422.001	375.278	151.558	277.738	144.811	273.395	0.0011468	0.00022485	0.00019124	1377.9	7.2304e-06	4.0244e-06	1390.6	367.33	8.8766e-06	5.3307e-06	419.1	141.53	122.57	41.674	7.5639e-06	51.901	0.00054582	0.00053247	0.00014873	1404.2	5.8163e-06	5.8898e-06	1409	375.71	5.8052e-06	5.8284e-06	429.34	144.45	125.23	43.11	5.8207e-06	53.375	305.395	405.761	139.894	87.152	237.986	165.585	87.070	91.946	224.334	271.211	91.211	96.055	96.252	100.757	200.245	99.785	-8191	255	
20902.404	1	1	0	0	0.27886	0.25049	0.11222	0.27671	0.22394	0.36437	0.36536	0.16013	0.12894	0.20568	0.10085	0.15585	0.10855	0.19452	0.20878	0.082369	-2.2917	-2.6375	-2.5125	-3.1354	-2.6979	-2.5104	-3.0625	-2.75	-2.7917	-2.5187	-2.7458	-2.8438	-2.7833	-2.7	-2.8333	-2.4313	140.405	110.317	285.615	360.829	122.350	344.866	370.730	84.428	107.810	427.559	411.765	342.908	307.476	323.810	101.848	301.974	0.001115	0.00043943	4.3851e-05	1380.5	2.9797e-06	6.6208e-06	1387.9	369.55	3.0372e-06	7.4369e-06	421.54	141.47	123.41	41.831	5.0814e-06	51.682	0.00053851	0.0005314	0.00014649	1405.3	5.8275e-06	5.8135e-06	1408.1	376.39	5.7913e-06	5.7805e-06	429.39	144.56	125.49	43.155	5.8366e-06	53.325	300.535	135.151	105.881	87.127	235.338	269.434	87.194	91.963	316.107	188.882	91.300	96.200	96.500	100.678	239.491	100.157	-8191	255	
20902.502	1	1	0	0	0.11379	0.31144	0.043313	0.20374	0.050193	0.13474	0.34332	0.21505	0.16976	0.21091	0.19836	0.15603	0.42824	0.097996	0.18327	0.20349	-2.2313	-2.75	-2.175	-2.9375	-2.5771	-2.6375	-3.0583	-2.6042	-2.6875	-2.8937	-2.7062	-2.9792	-2.5729	-2.4729	-2.8208	-2.4333	319.040	194.275	407.711	358.983	273.534	323.985	336.989	406.536	207.215	223.882	348.910	384.216	428.889	390.579	78.063	364.210	0.0011509	0.000419	0.0002309	1378.2	5.5432e-06	1.9671e-06	1388.7	369	7.3066e-06	3.1521e-06	420.31	141.55	122.65	41.862	4.2791e-06	51.58	0.00054353	0.00053193	0.00014818	1405.2	5.8913e-06	5.9121e-06	1410.2	376.54	5.9066e-06	5.9361e-06	429.49	144.46	125.51	43.205	5.874e-06	53.359	307.041	229.569	149.547	87.155	230.489	269.046	86.880	92.267	241.586	156.026	91.332	96.074	96.517	100.901	169.665	99.474	-8191	255	
20902.621	1	1	0	0	0.033748	0.20113	0.074462	0.30118	0.16624	0.087873	0.41395	0.19048	0.096703	0.09909	0.3093	0.15097	0.1857	0.13927	0.054662	0.19092	-2.2542	-2.7208	-2.3417	-3.0479	-2.5104	-2.2687	-3.0438	-2.6375	-2.5062	-2.9542	-2.6521	-2.8708	-2.7521	-2.5625	-2.8375	-2.6167	275.329	425.845	395.404	387.783	346.363	152.979	401.105	356.112	363.982	290.711	363.290	379.113	404.772	184.079	183.470	269.157	0.0012424	0.00060207	0.00011248	1375.8	9.7463e-06	3.8558e-06	1388.5	368.11	6.0886e-06	1.0218e-05	417.77	141.69	123.36	41.751	8.7084e-06	51.954	0.00054963	0.00054303	0.00014961	1404.9	5.8819e-06	5.8338e-06	1410.2	376.13	5.8295e-06	5.8439e-06	428.8	144.6	125.5	43.158	5.8388e-06	53.398	312.306	219.709	145.067	87.080	215.068	218.258	87.037	92.191	271.237	297.767	91.424	96.027	96.485	100.690	186.143	99.964	-8191	255	
20902.719	1	1	0	0	0.0081779	0.21641	0.16125	0.31477	0.12666	0.11519	0.18938	0.36564	0.09526	0.097546	0.070134	0.33774	0.30804	0.2099	0.27863	0.12686	-2.0375	-2.6625	-2.3917	-2.7625	-2.6042	-2.2354	-3.0667	-2.5646	-2.4938	-2.7354	-2.3375	-2.7958	-2.7521	-2.4458	-2.7271	-2.7292	217.783	293.207	348.265	417.259	107.142	332.005	364.942	349.387	185.829	217.625	223.613	392.086	350.505	424.090	303.107	369.194	0.00099299	0.0010949	0.00023579	1381.9	8.3557e-06	5.6952e-06	1385.7	369.74	7.4359e-06	4.4361e-06	418.45	140.82	122.92	41.809	3.7489e-06	51.753	0.00054284	0.00053446	0.00014672	1406.4	5.8915e-06	5.8482e-06	1407.6	377.03	5.9192e-06	5.862e-06	429.13	144.32	125.39	43.164	5.9533e-06	53.448	309.437	134.155	183.008	87.156	254.818	230.848	86.833	92.019	274.200	213.517	91.238	96.030	96.516	100.735	182.611	100.043	-8191	255	
20902.814	1	1	0	0	0.18515	0.19708	0.13266	0.19269	0.21587	0.098905	0.19992	0.20451	0.18984	0.034522	0.032264	0.036258	0.13517	0.33599	0.3167	0.20578	-2.2917	-2.7271	-2.4208	-2.7479	-2.7667	-2.4146	-2.9979	-2.7104	-2.35	-2.8792	-2.5812	-2.6458	-2.8125	-2.4188	-2.7667	-2.6604	369.163	411.908	298.400	344.945	258.860	183.556	336.524	146.518	378.565	373.752	377.150	347.710	372.394	352.318	299.426	99.164	0.0011513	0.00089388	0.0001751	1378.6	1.045e-05	1.3322e-06	1388.3	367.08	8.2382e-06	1.2238e-06	418.37	141.77	122.95	41.785	7.7135e-06	51.854	0.00054989	0.00054185	0.00014912	1404.8	5.9804e-06	5.9305e-06	1409.8	376.12	5.9336e-06	5.9422e-06	428.54	144.84	125.37	43.159	5.9728e-06	53.449	313.956	150.011	140.486	87.224	276.330	195.055	87.074	91.829	223.692	405.690	91.159	96.040	96.575	100.972	208.773	99.915	-8191	255	
20902.910	1	1	0	0	0.39118	0.2689	0.18287	0.47506	0.22705	0.16879	0.2466	0.053692	0.13295	0.12655	0.22702	0.12046	0.16077	0.32748	0.11249	0.22161	-2.075	-2.7833	-2.3479	-2.6646	-2.8042	-2.2875	-3.1417	-2.7646	-2.4313	-2.8708	-2.6271	-2.8438	-2.825	-2.3937	-2.775	-2.7042	78.968	324.269	296.270	372.361	399.953	104.770	378.538	81.233	251.184	229.249	390.240	193.413	89.552	355.308	279.534	351.145	0.0012097	0.0014052	7.8247e-05	1376.9	7.7452e-06	5.6177e-06	1383.9	368.72	4.4872e-06	5.5253e-06	419.18	141.77	123.2	41.664	6.6569e-06	51.773	0.0005541	0.00054773	0.00015029	1405.4	5.9385e-06	5.8632e-06	1408.6	376.33	5.9537e-06	5.8946e-06	429.18	144.57	125.6	43.124	5.8889e-06	53.388	312.225	104.532	109.706	87.151	219.086	204.841	87.063	92.010	252.266	243.960	91.178	96.009	96.613	100.754	238.166	99.815	-8191	255	
20903.008	1	1	0	0	0.098773	0.22444	0.035309	0.15349	0.089806	0.20339	0.22825	0.2478	0.040483	0.013416	0.098861	0.11565	0.29339	0.17268	0.098284	0.13344	-1.8708	-2.9167	-2.2646	-2.7917	-2.6417	-2.3063	-2.7229	-2.7208	-2.2375	-2.7396	-2.6042	-2.5417	-2.8375	-2.4708	-2.6792	-2.8312	174.592	373.398	222.138	339.515	127.471	145.816	403.690	417.936	182.880	333.924	305.714	362.697	377.608	432.735	150.338	78.934	0.0011915	0.000372	0.00022007	1379.6	3.4738e-06	2.9629e-06	1391	369.5	4.7169e-06	4.9841e-06	419.92	141.59	123.08	41.806	6.5401e-06	52.064	0.00054737	0.00053736	0.00015033	1405	5.8443e-06	5.8505e-06	1412.1	376.6	5.793e-06	5.8378e-06	429.43	144.67	125.49	43.229	5.7918e-06	53.503	302.637	245.322	184.477	87.380	248.949	243.627	87.167	92.045	190.142	140.562	91.350	95.995	96.598	100.613	143.078	99.708	-8191	255	
20903.104	1	1	0	0	0.18015	0.14883	0.28897	0.30854	0.097131	0.086915	0.19985	0.13149	0.17003	0.095113	0.1837	0.19248	0.22765	0.15655	0.033087	0.16416	-1.9479	-2.7146	-2.4104	-2.55	-2.8542	-2.2562	-2.8375	-2.8729	-2.275	-2.7708	-2.6312	-2.5396	-2.9042	-2.6333	-2.775	-2.7375	135.128	229.655	206.475	394.859	426.204	276.618	376.717	120.905	350.911	237.047	113.331	366.036	390.865	88.125	220.854	329.191	0.0011931	0.00046244	8.4338e-05	1377.5	1.4538e-05	3.9529e-06	1389.2	369.27	1.3168e-06	8.2834e-06	419.88	142.41	123.72	41.909	3.1954e-06	51.988	0.00053087	0.00052483	0.00014652	1405.6	5.6921e-06	5.7268e-06	1410.2	376.74	5.6619e-06	5.6511e-06	428.86	144.85	125.56	43.169	5.8111e-06	53.425	310.945	126.214	93.163	87.124	242.604	259.978	87.076	92.040	253.674	215.567	91.396	95.890	96.574	100.711	240.294	99.792	-8191	255	
20903.199	1	1	0	0	0.23275	0.12905	0.087912	0.32887	0.11582	0.15631	0.37496	0.26957	0.046781	0.15265	0.17547	0.19758	0.022725	0.17673	0.14312	0.20916	-1.925	-2.5438	-2.5854	-2.7958	-2.8896	-2.6229	-2.7354	-2.925	-2.5104	-2.7771	-2.8333	-2.4188	-2.9188	-2.5438	-2.3583	-3.0146	336.014	176.231	193.607	407.749	228.162	310.648	388.067	353.414	362.110	81.969	405.351	105.852	180.878	352.490	264.901	207.181	0.0011735	0.00026771	0.00022382	1378.9	9.1252e-06	4.4936e-06	1388	368.88	5.3054e-06	1.2265e-06	420.92	142.24	123.65	42.02	3.7779e-06	51.825	0.00053645	0.0005293	0.00014926	1405.7	5.9111e-06	5.8593e-06	1410.8	376.63	6.0461e-06	6.0346e-06	429.93	145.13	126.28	43.41	6.163e-06	53.695	308.120	378.075	137.197	87.209	223.349	220.175	87.048	92.110	288.518	78.234	91.289	96.074	96.684	100.642	151.376	99.891	-8191	255	
20903.318	1	1	0	0	0.14999	0.23593	0.25131	0.17001	0.042847	0.14154	0.26858	0.22118	0.19588	0.037477	0.30272	0.12726	0.090841	0.034914	0.099981	0.14724	-1.7604	-2.6604	-2.5708	-2.7583	-2.9417	-2.7021	-2.4938	-2.9062	-2.1542	-2.7979	-2.7271	-2.4188	-3.1521	-2.5917	-2.4292	-2.8312	111.658	123.820	326.225	124.819	273.772	171.315	333.667	85.978	299.523	298.458	429.826	361.803	423.722	239.174	192.401	117.536	0.00099793	0.00021254	0.00013627	1382.6	4.9986e-06	5.8339e-06	1387.8	368.94	6.2807e-06	4.4366e-06	421.41	142.13	123.23	42.109	1.0352e-05	52.044	0.00057779	0.00056182	0.00015943	1409.9	6.2844e-06	6.2557e-06	1415.5	377.93	6.2202e-06	6.3039e-06	431.58	145.35	126.17	43.495	6.2996e-06	53.805	302.076	236.426	151.803	87.323	265.678	195.678	87.081	91.845	244.145	240.860	91.412	96.131	96.609	100.764	200.539	99.818	-8191	255	
20903.414	1	1	0	0	0.24192	0.24342	0.072581	0.37881	0.16995	0.063774	0.37327	0.031349	0.061286	0.094482	0.16082	0.049495	0.23428	0.065829	0.10812	0.3231	-1.9083	-2.4167	-2.5375	-2.3875	-2.725	-2.5687	-2.725	-2.9771	-2.3271	-2.4667	-2.9854	-2.4813	-2.8542	-2.8312	-2.4146	-3.0187	206.138	101.331	360.963	335.020	264.037	149.624	378.826	95.341	229.089	349.740	390.260	337.766	422.395	213.582	421.284	332.180	0.001168	0.00073955	0.00023192	1384.4	6.206e-06	8.6031e-06	1391.8	368.72	3.6927e-06	1.2012e-05	420.32	142.88	123.22	42.044	2.5962e-06	52.173	0.00058168	0.0005808	0.00016219	1411.5	6.3927e-06	6.3649e-06	1415.6	378.23	6.3653e-06	6.4577e-06	431.14	145.96	126.52	43.56	6.5046e-06	53.88	304.336	172.579	175.325	87.310	231.815	232.655	86.990	92.001	253.261	227.604	91.308	96.043	96.621	100.830	213.435	99.691	-8191	255	
20903.486	1	1	0	0	0.17326	0.23681	0.065625	0.27127	0.094368	0.17384	0.49292	0.036287	0.15087	0.28703	0.34123	0.16434	0.04666	0.39417	0.34355	0.10203	-1.9625	-2.4833	-2.7958	-2.5458	-2.6833	-2.6104	-2.6375	-3.0833	-2.3271	-2.3708	-2.9854	-2.5292	-2.7812	-2.7708	-2.4208	-2.8729	191.467	230.326	361.139	408.958	356.884	209.110	358.383	92.200	259.542	264.616	142.690	382.667	272.832	341.807	85.876	429.650	0.0010687	0.0011071	0.00020336	1382.4	6.9687e-06	2.4469e-06	1393.1	369.98	9.0069e-06	4.3807e-06	420.36	142.57	123.95	42.184	6.7745e-06	52.304	0.00059653	0.00059973	0.00016502	1413.7	6.5777e-06	6.5584e-06	1418	379.18	6.5431e-06	6.6871e-06	432.95	146.43	127.2	43.833	6.7695e-06	54.132	313.223	127.245	172.395	87.247	215.881	231.472	87.024	91.970	284.208	239.147	91.140	96.067	96.412	100.609	153.788	99.668	-8191	255	
20903.582	1	1	0	0	0.23358	0.33451	0.35539	0.36303	0.061494	0.16936	0.35277	0.16435	0.23798	0.081544	0.093383	0.33766	0.10145	0.21603	0.061013	0.18452	-1.9604	-2.5521	-2.85	-2.7188	-2.7188	-2.6583	-2.5812	-2.9896	-2.5958	-2.5375	-2.6708	-2.3979	-2.8583	-2.7313	-2.2812	-3.0146	291.534	199.004	397.081	401.531	172.973	280.273	380.562	331.549	373.008	103.449	129.997	389.962	118.751	328.538	163.549	337.200	0.0011193	0.00047128	0.00038273	1382.2	5.8541e-06	4.6389e-06	1394.6	369.61	6.178e-06	7.0279e-06	420.46	143.52	124.58	42.201	5.3773e-06	52.097	0.00063074	0.00063476	0.00017475	1415.4	6.9574e-06	6.9883e-06	1420.3	380.53	7.0275e-06	7.0526e-06	433.68	147.16	127.77	43.981	7.0985e-06	54.301	300.318	137.525	181.336	87.229	225.982	226.649	86.947	91.950	298.989	280.693	91.150	95.888	96.517	100.815	222.855	99.770	-8191	255	
20903.703	1	1	0	0	0.15048	0.18939	0.19309	0.082955	0.1513	0.18529	0.16975	0.38058	0.19016	0.19935	0.15618	0.14226	0.38776	0.29875	0.17703	0.24992	-2.1417	-2.2104	-2.9229	-2.6375	-2.6312	-2.7562	-2.5104	-2.9021	-2.6125	-2.225	-2.9562	-2.625	-2.7229	-2.7354	-2.3417	-2.95	288.456	395.018	98.875	360.964	349.936	313.240	409.346	387.441	144.561	413.100	111.372	348.527	396.669	412.471	130.447	355.233	0.0011544	0.00036005	0.0002306	1382.1	6.0058e-06	5.5706e-06	1396.6	371.92	9.1967e-06	3.8278e-06	420.62	143.19	124.46	42.578	1.5677e-05	52.354	0.00065727	0.00065451	0.0001805	1416.6	7.1914e-06	7.1682e-06	1424	381.84	7.1341e-06	7.1683e-06	434.71	147.62	128.25	44.196	7.0783e-06	54.56	304.313	237.154	255.511	87.123	163.204	240.214	87.109	91.846	269.110	287.148	91.254	95.914	96.251	100.955	173.170	99.738	-8191	255	
20903.799	1	1	0	0	0.1259	0.10377	0.161	0.11194	0.089266	0.32005	0.34366	0.13302	0.18968	0.21184	0.07549	0.139	0.23291	0.10169	0.17556	0.20631	-2.0542	-2.2687	-2.7875	-2.7417	-2.4542	-2.7687	-2.7146	-2.9062	-2.6646	-2.4417	-3.025	-2.6188	-2.6354	-2.925	-2.2271	-2.6333	170.060	151.050	203.315	402.494	162.365	351.848	396.030	381.776	376.544	300.312	80.626	329.744	348.574	366.556	86.677	381.551	0.00097096	0.00057674	0.00025515	1382.7	1.0131e-05	4.892e-06	1395.5	371.44	7.724e-06	1.145e-05	422.69	143.56	125.02	42.514	5.1679e-06	52.381	0.00065443	0.00065259	0.00017964	1418.3	7.0504e-06	7e-06	1425.2	381.65	6.985e-06	6.919e-06	434.86	147.39	128.21	44.053	6.8585e-06	54.461	314.023	121.740	92.148	87.041	266.616	220.816	86.993	91.775	202.744	248.866	91.230	96.070	96.704	100.736	270.349	99.811	-8191	255	
20903.895	1	1	0	0	0.084927	0.16267	0.22347	0.10084	0.091335	0.10082	0.22586	0.36581	0.12647	0.092501	0.03861	0.049303	0.14591	0.06897	0.10886	0.17797	-2.3021	-2.1271	-2.8479	-2.5917	-2.7625	-2.8979	-2.5625	-2.7562	-2.7625	-2.2646	-2.8354	-2.7938	-2.3354	-3.0229	-2.4271	-2.8021	235.861	214.232	411.935	164.776	193.643	418.158	364.733	384.842	346.783	382.993	99.919	319.818	391.879	91.511	192.251	309.493	0.0010992	0.00065691	0.00017795	1383.7	3.2845e-06	5.4894e-06	1399.8	372.1	2.6432e-06	8.7731e-06	422.76	144.07	124.43	42.5	7.4163e-06	52.131	0.00063507	0.00062514	0.00017345	1419.4	6.8745e-06	6.874e-06	1425	381.12	6.8308e-06	6.7579e-06	434.27	147.57	127.73	44.07	6.7582e-06	54.373	301.470	156.686	178.839	87.037	225.555	213.289	86.965	92.046	211.956	207.489	91.072	95.885	96.365	100.962	188.848	99.893	-8191	255	
20903.990	1	1	0	0	0.17729	0.068609	0.1651	0.28938	0.11666	0.2301	0.27362	0.12035	0.16819	0.18454	0.14686	0.25349	0.14269	0.14816	0.11398	0.12992	-2.2208	-2.3417	-2.6729	-2.7354	-2.3688	-2.8833	-2.6146	-2.7604	-2.7542	-2.55	-2.9167	-2.7208	-2.5083	-2.8937	-2.5354	-2.4813	231.190	370.310	323.247	411.155	342.082	414.623	353.192	92.712	242.252	305.767	369.353	416.399	92.602	397.620	268.025	171.320	0.0011328	8.8867e-05	0.0002813	1387.7	7.0954e-06	5.3199e-06	1398.2	371.52	7.509e-06	3.8154e-06	422.73	143.71	124.29	42.558	6.8455e-06	52.476	0.00063065	0.000618	0.00017364	1421.1	6.7848e-06	6.8035e-06	1422.6	381.22	6.7018e-06	6.7232e-06	434.07	147.21	127.6	44.013	6.6707e-06	54.287	303.057	190.266	142.112	87.152	266.260	290.491	86.883	91.838	314.705	329.226	91.108	95.860	96.514	100.707	245.096	99.679	-8191	255	
20904.109	1	1	0	0	0.15101	0.035342	0.23669	0.063715	0.11425	0.029835	0.36257	0.25004	0.15929	0.064214	0.064765	0.12585	0.038503	0.15465	0.16518	0.30149	-2.1979	-2.2021	-2.7146	-2.675	-2.3104	-2.8187	-2.7188	-2.6104	-2.6229	-2.4417	-2.9083	-2.6604	-2.4042	-2.7938	-2.4521	-2.4437	227.085	127.785	358.913	95.800	301.781	257.373	402.041	404.046	305.416	390.368	215.356	404.313	96.648	210.069	358.118	342.592	0.001303	0.0001724	0.00018873	1381.4	6.4757e-06	1.148e-05	1395.7	370.67	3.2537e-06	8.5805e-06	420.32	143.03	124.09	42.343	1.0999e-05	52.321	0.0006133	0.00060833	0.00016943	1415.9	6.5686e-06	6.5794e-06	1421.9	380.39	6.4915e-06	6.5484e-06	432.67	146.72	127.45	43.903	6.5249e-06	54.18	310.668	142.477	137.761	87.128	217.549	204.015	87.045	91.860	277.967	218.213	91.420	95.944	96.354	100.608	182.067	99.869	-8191	255	
20904.184	1	1	0	0	0.19586	0.21317	0.10382	0.3216	0.26139	0.14987	0.023426	0.17773	0.15328	0.19916	0.11708	0.12474	0.14795	0.25645	0.19218	0.12448	-2.4208	-2.5146	-2.4646	-3.0583	-2.3125	-2.7833	-2.65	-2.5438	-3.0146	-2.4437	-2.9958	-2.8563	-2.4854	-2.7188	-2.6396	-2.425	281.868	174.157	256.998	377.322	278.210	92.009	423.323	422.166	288.418	196.656	344.993	210.545	379.420	246.589	115.856	274.547	0.0012744	0.00069653	0.00027315	1382.4	5.984e-06	3.8956e-06	1393.6	371.23	7.3281e-06	1.3201e-05	419.54	143.14	124.38	42.357	8.9756e-06	52.252	0.00060279	0.0005941	0.00016532	1415.2	6.5055e-06	6.5466e-06	1420.1	379.89	6.4383e-06	6.5048e-06	432.39	146.64	127.38	43.881	6.6125e-06	54.16	299.837	169.428	186.686	87.368	165.898	251.519	86.919	91.942	247.979	186.761	91.480	96.095	96.761	100.968	161.052	99.914	-8191	255	
20904.303	1	1	0	0	0.13292	0.13648	0.177	0.30349	0.20421	0.16407	0.19579	0.37808	0.25348	0.074371	0.21173	0.23556	0.17616	0.15379	0.10935	0.15911	-2.3187	-2.3563	-2.6771	-2.9479	-2.5104	-2.7521	-2.7062	-2.6188	-2.7396	-2.275	-2.5396	-2.9167	-2.4813	-2.7479	-2.5417	-2.3688	392.547	84.379	148.799	431.420	371.120	216.203	371.269	381.924	375.176	177.646	397.555	385.652	125.065	91.330	140.931	326.296	0.0013136	0.00027048	0.00017548	1380.2	7.0373e-06	1.809e-06	1398.9	370.72	8.3332e-06	1.3801e-05	422.03	142.82	124.13	42.395	1.3701e-05	52.32	0.00060446	0.00059773	0.00016769	1415.2	6.5635e-06	6.6407e-06	1421.5	379.62	6.5727e-06	6.6225e-06	433.29	146.74	127.35	43.978	6.7114e-06	54.269	304.164	92.645	118.820	87.253	190.894	158.337	87.064	91.945	246.371	233.981	91.230	95.924	96.402	100.616	194.420	99.690	-8191	255	
20904.398	1	1	0	0	0.043817	0.10012	0.09014	0.30947	0.33623	0.060809	0.27071	0.062044	0.23612	0.16988	0.023494	0.272	0.10161	0.12484	0.065079	0.066536	-2.3417	-2.4667	-2.6146	-2.9708	-2.3896	-2.6583	-2.8167	-2.6229	-2.6167	-2.4458	-2.6083	-2.9125	-2.6146	-2.8312	-2.5958	-2.4625	177.033	135.163	296.045	389.403	395.414	197.182	331.428	81.693	349.704	197.676	313.612	400.987	295.889	342.738	265.064	409.276	0.0013556	0.00065392	0.00024633	1382.7	6.7601e-06	2.471e-07	1400.4	369.27	4.9084e-06	7.8813e-06	420.92	142.76	124.33	42.275	9.7115e-06	52.459	0.00061472	0.00061182	0.00017047	1416.1	6.7276e-06	6.7196e-06	1423.2	379.79	6.715e-06	6.7175e-06	433.99	146.92	127.55	43.962	6.7745e-06	54.247	313.704	151.989	175.195	87.128	229.986	396.498	87.085	91.865	266.406	208.841	91.399	96.084	96.619	100.834	168.398	100.108	-8191	255	
20904.494	1	1	0	0	0.2061	0.15136	0.08341	0.23976	0.30563	0.18263	0.2892	0.33265	0.095339	0.088918	0.10314	0.30215	0.32062	0.31325	0.050575	0.15904	-2.4458	-2.4062	-2.3208	-3.1937	-2.5271	-2.7208	-2.9771	-2.4083	-2.6979	-2.6146	-2.5979	-3.0458	-2.5646	-2.6083	-2.7792	-2.5208	77.484	200.800	295.947	320.973	211.087	359.190	357.484	418.783	279.746	170.941	350.267	377.256	431.677	346.558	264.975	431.886	0.0012873	0.00041313	0.00014102	1380.2	4.8297e-06	4.6847e-06	1392.1	371.2	1.5136e-06	4.0407e-06	420.68	143.37	124.09	42.456	2.4222e-06	52.171	0.00062511	0.00061966	0.00017277	1414.4	6.7038e-06	6.7682e-06	1421.1	380.39	6.8116e-06	6.7933e-06	433.64	147.07	127.73	44.024	6.8464e-06	54.323	311.803	140.463	183.771	87.283	240.579	262.654	87.165	92.027	345.306	193.322	91.337	96.119	96.253	100.699	218.304	99.820	-8191	255	
20904.592	1	1	0	0	0.12604	0.055448	0.053032	0.20202	0.078261	0.14748	0.32581	0.14298	0.14465	0.28008	0.16614	0.15041	0.17946	0.29547	0.10356	0.09308	-2.425	-2.6063	-2.3146	-3.1771	-2.4521	-2.5979	-3.0438	-2.55	-2.7417	-2.7083	-2.3917	-2.9125	-2.4583	-2.5125	-2.8458	-2.3458	187.983	421.452	290.887	372.976	189.163	94.428	344.896	92.866	126.115	138.116	92.952	392.970	414.539	393.286	146.247	375.258	0.0013508	0.00092794	0.00032413	1377.7	6.76e-06	6.6805e-06	1397.3	371.54	7.3914e-06	5.636e-06	419.75	143.28	124.69	42.416	8.9936e-06	52.338	0.00064292	0.00063933	0.00017678	1415.4	7.0193e-06	7.0227e-06	1423.6	380.93	7.0037e-06	7.0531e-06	433.99	147.01	127.85	44.034	7.0783e-06	54.452	308.563	162.546	129.169	87.273	191.300	229.677	86.954	91.810	265.050	278.866	91.411	95.909	96.465	100.543	173.151	99.721	-8191	255	
20904.711	1	1	0	0	0.13683	0.14496	0.13845	0.28103	0.24885	0.24708	0.2595	0.1348	0.07222	0.19516	0.33601	0.12951	0.089097	0.057829	0.14455	0.21682	-2.1896	-2.5917	-2.3271	-2.9604	-2.3958	-2.3479	-3.0167	-2.8167	-2.5729	-2.7062	-2.5417	-3.0083	-2.6354	-2.525	-2.8104	-2.5062	347.457	145.631	94.686	374.357	144.708	375.722	406.211	324.567	338.485	135.285	317.380	107.875	418.313	359.227	286.312	261.453	0.00092516	0.00033861	0.0002424	1390.4	8.3515e-06	3.954e-06	1395.4	370.56	7.1365e-06	9.6566e-06	419.3	143.11	124.57	42.467	2.9252e-06	52.142	0.00065431	0.0006516	0.00017986	1419.4	7.0314e-06	7.0806e-06	1423.2	380.71	7.0606e-06	7.0754e-06	434.16	147.39	127.99	44.105	7.0831e-06	54.356	312.012	147.581	183.973	87.179	255.420	261.377	87.059	91.888	318.931	221.320	91.103	96.029	96.507	100.804	202.900	99.997	-8191	255	
20904.783	1	1	0	0	0.22259	0.12992	0.088567	0.38058	0.14809	0.34903	0.29211	0.2412	0.11684	0.043417	0.21664	0.17672	0.16889	0.19923	0.24603	0.23125	-2.2625	-2.8208	-2.2208	-2.9083	-2.6083	-2.5229	-2.9708	-2.6083	-2.6	-2.7458	-2.3458	-2.9333	-2.8104	-2.5646	-2.8583	-2.5938	327.513	430.382	254.972	380.744	224.547	248.503	327.331	357.599	359.267	361.443	80.175	429.641	87.489	348.413	185.527	318.901	0.0012311	0.0011147	0.00010509	1386	8.1717e-06	5.956e-06	1393.1	369.81	9.5992e-06	1.2739e-06	420.2	142.91	123.77	42.303	2.5851e-06	52.358	0.00065852	0.00064893	0.00017942	1418.9	7.0597e-06	7.0762e-06	1423.8	380.94	7.0637e-06	7.1312e-06	434.53	147.39	127.87	44.156	7.1205e-06	54.457	307.506	121.224	182.387	87.254	230.179	266.055	87.090	91.843	288.592	216.836	91.396	96.076	96.784	100.861	122.053	100.168	-8191	255	
20904.879	1	1	0	0	0.10355	0.071199	0.25334	0.18844	0.11353	0.13855	0.13613	0.32551	0.075074	0.2598	0.11902	0.27888	0.13983	0.34286	0.26681	0.15385	-2.2167	-2.8125	-2.3063	-2.7979	-2.5854	-2.2354	-2.8187	-2.4104	-2.5812	-2.8292	-2.5646	-2.7396	-2.8125	-2.625	-2.825	-2.5833	98.855	274.884	313.577	330.652	246.896	335.476	363.149	82.760	158.162	243.750	433.578	426.552	93.549	397.127	427.564	246.863	0.00098182	0.00051936	0.00026706	1380.9	3.4569e-06	4.482e-06	1397.6	370.42	6.7974e-06	7.3752e-06	421.82	143.73	124.57	42.418	9.2873e-06	52.22	0.00065696	0.00065405	0.00018214	1417.3	7.1867e-06	7.2198e-06	1423.5	381.13	7.1229e-06	7.1364e-06	434.86	147.33	127.95	44.141	7.0933e-06	54.414	311.835	409.359	125.264	87.131	223.240	296.244	86.808	92.100	126.130	245.054	91.379	95.975	96.517	100.601	215.391	99.674	-8191	255	
20905.000	1	1	0	0	0.13975	0.13619	0.16489	0.21175	0.24573	0.014006	0.34536	0.16822	0.22482	0.08273	0.18635	0.24154	0.15296	0.090969	0.11129	0.079874	-2.0479	-2.8729	-2.1708	-2.8271	-2.6875	-2.3063	-3.1688	-2.7604	-2.3521	-2.7771	-2.4875	-2.5583	-2.8021	-2.5333	-2.6917	-2.8479	113.015	101.503	361.212	339.647	115.617	291.348	348.016	355.702	336.917	123.494	363.261	372.421	372.789	213.214	126.591	396.227	0.0011799	0.00070418	0.00015227	1385	9.1598e-06	1.0019e-06	1399	370.24	1.1953e-05	4.5665e-06	420.26	143.64	124.29	42.492	4.3735e-06	52.266	0.00065655	0.0006434	0.00017757	1419.2	7.0385e-06	6.9809e-06	1424.1	380.66	6.9236e-06	6.9325e-06	433.56	147.29	127.98	44.071	6.9709e-06	54.341	308.379	180.672	403.043	87.040	230.862	223.874	86.857	92.096	276.632	241.007	91.277	95.867	96.281	100.640	216.239	99.722	-8191	255	
20905.096	1	1	0	0	0.22418	0.10232	0.083603	0.21371	0.088342	0.11422	0.042448	0.053304	0.16211	0.20713	0.14548	0.12699	0.14787	0.054425	0.17862	0.16494	-1.925	-3.0292	-2.4396	-2.7125	-2.7208	-2.4313	-3.0479	-2.8583	-2.3125	-2.8708	-2.7521	-2.7667	-2.8729	-2.2708	-2.7333	-2.6854	185.886	320.218	311.457	395.016	265.693	279.539	247.889	357.363	177.427	218.603	361.745	281.016	119.957	111.171	344.065	430.402	0.0011862	0.00040204	0.0001529	1380.9	7.3616e-06	8.8239e-07	1397.2	371.73	5.6985e-06	4.3525e-06	420.83	143.26	124.8	42.494	2.2731e-06	52.145	0.00064094	0.00063724	0.00017661	1417.5	6.9614e-06	6.9409e-06	1424.6	381.08	6.861e-06	6.9306e-06	433.82	147.2	127.71	43.979	6.8622e-06	54.317	310.872	128.774	222.733	87.235	187.179	194.971	86.854	92.076	237.807	244.209	90.917	95.925	96.415	100.772	163.856	99.661	-8191	255	
20905.189	1	1	0	0	0.038495	0.33319	0.053645	0.072046	0.14864	0.10888	0.084886	0.29235	0.051825	0.24084	0.27296	0.089751	0.068444	0.24618	0.10445	0.042023	-2.0687	-2.7625	-2.325	-2.5854	-2.8083	-2.3917	-2.8333	-2.9479	-2.4562	-2.7667	-2.4458	-2.525	-2.9667	-2.4729	-2.5875	-2.7604	333.207	323.641	322.649	204.119	395.248	287.545	150.969	361.199	232.773	370.407	385.533	304.916	163.694	113.001	353.806	98.207	0.0012206	0.00085081	0.00026137	1386.8	6.5543e-06	2.393e-06	1393.8	372.36	6.1611e-06	1.009e-05	420.6	143.22	124.36	42.458	6.5092e-06	52.281	0.00063161	0.00062861	0.00017366	1418.6	6.8259e-06	6.7992e-06	1423	380.89	6.7538e-06	6.8327e-06	433.74	147.35	127.68	44.031	6.881e-06	54.277	305.797	125.764	184.230	87.093	207.405	250.711	87.016	91.909	239.404	233.153	91.047	95.919	96.542	100.732	200.156	99.654	-8191	255	
20905.285	1	1	0	0	0.15096	0.2885	0.077114	0.27318	0.13247	0.26631	0.11222	0.22885	0.11788	0.2578	0.27582	0.24952	0.24275	0.14686	0.27504	0.090545	-1.9979	-2.8063	-2.4333	-2.6813	-2.8688	-2.5062	-2.7938	-2.9292	-2.3125	-2.7229	-2.7104	-2.3688	-2.8625	-2.6833	-2.4167	-2.7646	322.795	251.299	107.363	357.231	312.738	243.596	408.046	84.385	393.492	306.196	393.816	423.124	401.895	305.925	381.110	132.397	0.0011309	0.00055609	6.5324e-05	1382.9	8.0229e-06	3.3582e-06	1394.1	370.35	8.206e-06	5.594e-06	420.8	143.6	124.73	42.155	1.137e-05	52.295	0.00062744	0.00062264	0.0001736	1415.5	6.8422e-06	6.8179e-06	1422.6	380.23	6.8176e-06	6.7881e-06	433.05	147.02	127.71	43.944	6.859e-06	54.208	306.154	163.324	173.728	87.208	212.614	246.163	86.886	92.019	235.854	234.884	91.325	96.107	96.338	100.925	208.280	99.742	-8191	255	
20905.383	1	1	0	0	0.15853	0.050917	0.13277	0.14833	0.052944	0.14614	0.25771	0.39021	0.043604	0.035077	0.20365	0.18467	0.12511	0.2139	0.032194	0.08568	-1.8208	-2.7583	-2.6958	-2.5708	-2.6646	-2.5021	-2.7313	-2.8229	-2.2792	-2.6583	-2.7938	-2.4375	-2.9479	-2.4854	-2.7833	-2.9375	356.253	157.321	171.167	378.365	139.191	382.845	370.828	403.121	332.129	231.254	323.365	93.975	117.226	291.052	214.935	359.250	0.0010124	0.00075923	0.00021925	1382.7	6.2555e-06	3.359e-06	1393.7	369.97	3.662e-06	6.6085e-06	419.56	142.96	124.23	42.312	5.4546e-06	52.14	0.00062883	0.00061833	0.00017211	1417.1	6.7719e-06	6.8037e-06	1421.1	380.08	6.7498e-06	6.76e-06	432.32	146.86	127.37	43.94	6.8174e-06	54.183	297.762	153.997	119.088	87.222	216.155	249.035	86.874	91.920	272.615	202.694	91.247	96.004	96.357	100.666	214.380	99.728	-8191	255	
20905.479	1	1	0	0	0.034347	0.13024	0.095875	0.16849	0.053143	0.27361	0.022933	0.46009	0.016747	0.2334	0.048563	0.45544	0.14438	0.21522	0.12709	0.29313	-1.9375	-2.6958	-2.5146	-2.6208	-2.8958	-2.6125	-2.4833	-2.9958	-2.6354	-2.6937	-3.0187	-2.5687	-2.8458	-2.7167	-2.2771	-2.9708	397.338	246.774	356.697	391.784	336.902	389.558	314.073	374.181	421.087	235.710	99.536	411.064	94.155	375.885	324.734	353.610	0.0011727	0.00046552	9.9621e-05	1387.1	1.1564e-05	4.2324e-06	1389.6	370.54	6.4933e-06	1.2724e-05	420.34	143.22	123.71	42.221	1.1572e-05	52.313	0.00061445	0.00062693	0.00017165	1417.5	6.7571e-06	6.8135e-06	1419.4	379.6	6.792e-06	6.8176e-06	432.67	146.71	127.17	43.925	6.8447e-06	54.166	317.092	175.120	147.737	87.240	215.389	202.095	87.054	91.866	313.567	243.797	91.317	95.931	96.218	100.605	188.957	99.670	-8191	255	
#DATA ENDS
