BOXY.EXE: ISS Imagent and Oximeter Data Acquisition Program Version 0.80
Ascii Record File

#ACQ INFORMATION
2  Detector Channels 
16  External MUX Channels 
1  Auxiliary Channels 
5000  Waveform (CCF) Frequency (Hz)
1  Waveforms Skipped 
30  Waveforms Averaged 
1  Cycles Averaged 
16  Acquisitions per Waveform 
10.0806  Updata Rate (Hz) 

#FILE INFORMATION
TRUE -- External MUX Channel results are PARSED.
FALSE -- AC DC and Phase are NOT grouped.
TRUE -- Companion Program Settings File CREATED.
FALSE -- AC data not excluded
FALSE -- DC data not excluded
FALSE -- Phase data not excluded
FALSE -- Auxillary Chn. data not excluded
Tab delimiters

#CALIBRATION STATE
TRUE -- Waveform Calibration Values APPLIED.


#AUX CALIBRATION VALUES
Val Type	aux-1	

Term	1.0000e+00	
Factor	0.0000e+00	


#WF CALIBRATION VALUES
A = Detector Channel
Val Type	A-AC1	A-AC2	A-AC3	A-AC4	A-AC5	A-AC6	A-AC7	A-AC8	A-AC9	A-AC10	A-AC11	A-AC12	A-AC13	A-AC14	A-AC15	A-AC16	A-DC1	A-DC2	A-DC3	A-DC4	A-DC5	A-DC6	A-DC7	A-DC8	A-DC9	A-DC10	A-DC11	A-DC12	A-DC13	A-DC14	A-DC15	A-DC16	A-Ph1	A-Ph2	A-Ph3	A-Ph4	A-Ph5	A-Ph6	A-Ph7	A-Ph8	A-Ph9	A-Ph10	A-Ph11	A-Ph12	A-Ph13	A-Ph14	A-Ph15	A-Ph16	

Term	0.00000e+00	0.00000e+00	0.00000e+00	0.00000e+00	0.00000e+00	0.00000e+00	0.00000e+00	0.00000e+00	0.00000e+00	0.00000e+00	0.00000e+00	0.00000e+00	0.00000e+00	0.00000e+00	0.00000e+00	0.00000e+00	0.00000e+00	0.00000e+00	0.00000e+00	0.00000e+00	0.00000e+00	0.00000e+00	0.00000e+00	0.00000e+00	0.00000e+00	0.00000e+00	0.00000e+00	0.00000e+00	0.00000e+00	0.00000e+00	0.00000e+00	0.00000e+00	0.00000e+00	0.00000e+00	0.00000e+00	0.00000e+00	0.00000e+00	0.00000e+00	0.00000e+00	0.00000e+00	0.00000e+00	0.00000e+00	0.00000e+00	0.00000e+00	0.00000e+00	0.00000e+00	0.00000e+00	0.00000e+00	
Factor	1.00000e+00	1.00000e+00	1.00000e+00	1.00000e+00	1.00000e+00	1.00000e+00	1.00000e+00	1.00000e+00	1.00000e+00	1.00000e+00	1.00000e+00	1.00000e+00	1.00000e+00	1.00000e+00	1.00000e+00	1.00000e+00	1.00000e+00	1.00000e+00	1.00000e+00	1.00000e+00	1.00000e+00	1.00000e+00	1.00000e+00	1.00000e+00	1.00000e+00	1.00000e+00	1.00000e+00	1.00000e+00	1.00000e+00	1.00000e+00	1.00000e+00	1.00000e+00	X	X	X	X	X	X	X	X	X	X	X	X	X	X	X	X	

B = Detector Channel
Val Type	B-AC1	B-AC2	B-AC3	B-AC4	B-AC5	B-AC6	B-AC7	B-AC8	B-AC9	B-AC10	B-AC11	B-AC12	B-AC13	B-AC14	B-AC15	B-AC16	B-DC1	B-DC2	B-DC3	B-DC4	B-DC5	B-DC6	B-DC7	B-DC8	B-DC9	B-DC10	B-DC11	B-DC12	B-DC13	B-DC14	B-DC15	B-DC16	B-Ph1	B-Ph2	B-Ph3	B-Ph4	B-Ph5	B-Ph6	B-Ph7	B-Ph8	B-Ph9	B-Ph10	B-Ph11	B-Ph12	B-Ph13	B-Ph14	B-Ph15	B-Ph16	

Term	0.00000e+00	0.00000e+00	0.00000e+00	0.00000e+00	0.00000e+00	0.00000e+00	0.00000e+00	0.00000e+00	0.00000e+00	0.00000e+00	0.00000e+00	0.00000e+00	0.00000e+00	0.00000e+00	0.00000e+00	0.00000e+00	0.00000e+00	0.00000e+00	0.00000e+00	0.00000e+00	0.00000e+00	0.00000e+00	0.00000e+00	0.00000e+00	0.00000e+00	0.00000e+00	0.00000e+00	0.00000e+00	0.00000e+00	0.00000e+00	0.00000e+00	0.00000e+00	-1.98888e+02	-1.41666e+02	-1.28181e+02	-1.83212e+02	-8.92266e+01	-7.95993e+01	-1.60609e+02	-1.62015e+02	-7.67401e+01	-7.98675e+01	-1.72562e+02	-1.72621e+02	-1.82837e+02	-1.77955e+02	-8.59113e+01	-1.50807e+02	
Factor	3.77429e-05	1.24987e-04	3.22763e-05	1.53048e-01	1.12836e-06	1.18453e-06	1.66555e-01	5.17580e-02	1.34229e-06	1.30404e-06	7.96663e-02	2.59757e-02	2.43854e-02	7.97063e-03	1.19627e-06	1.14541e-02	1.84811e-06	1.93964e-06	5.39761e-07	8.01032e-02	2.10885e-08	2.12456e-08	8.19187e-02	2.70715e-02	2.11425e-08	2.13452e-08	4.02592e-02	1.31275e-02	1.28064e-02	4.18483e-03	2.12242e-08	5.82685e-03	X	X	X	X	X	X	X	X	X	X	X	X	X	X	X	X	



#DISTANCE SETTINGS
A = Detector Channel
A-1	A-2	A-3	A-4	A-5	A-6	A-7	A-8	A-9	A-10	A-11	A-12	A-13	A-14	A-15	A-16	

2.5000e+00	3.0000e+00	2.5000e+00	3.0000e+00	2.0000e+00	3.0000e+00	1.5000e+00	3.0000e+00	3.0000e+00	3.0000e+00	3.0000e+00	3.0000e+00	3.0000e+00	3.0000e+00	1.5000e+00	3.0000e+00	

B = Detector Channel
B-1	B-2	B-3	B-4	B-5	B-6	B-7	B-8	B-9	B-10	B-11	B-12	B-13	B-14	B-15	B-16	

1.0000e+01	1.0000e+01	1.0000e+01	1.4400e+00	1.0000e+01	1.0000e+01	1.5100e+00	1.9400e+00	1.0000e+01	1.0000e+01	1.9900e+00	2.4900e+00	2.4100e+00	2.9000e+00	1.0000e+01	2.9800e+00	




#DATA BEGINS
time	group	step	mark	flag	A-AC1	A-AC2	A-AC3	A-AC4	A-AC5	A-AC6	A-AC7	A-AC8	A-AC9	A-AC10	A-AC11	A-AC12	A-AC13	A-AC14	A-AC15	A-AC16	A-DC1	A-DC2	A-DC3	A-DC4	A-DC5	A-DC6	A-DC7	A-DC8	A-DC9	A-DC10	A-DC11	A-DC12	A-DC13	A-DC14	A-DC15	A-DC16	A-Ph1	A-Ph2	A-Ph3	A-Ph4	A-Ph5	A-Ph6	A-Ph7	A-Ph8	A-Ph9	A-Ph10	A-Ph11	A-Ph12	A-Ph13	A-Ph14	A-Ph15	A-Ph16	B-AC1	B-AC2	B-AC3	B-AC4	B-AC5	B-AC6	B-AC7	B-AC8	B-AC9	B-AC10	B-AC11	B-AC12	B-AC13	B-AC14	B-AC15	B-AC16	B-DC1	B-DC2	B-DC3	B-DC4	B-DC5	B-DC6	B-DC7	B-DC8	B-DC9	B-DC10	B-DC11	B-DC12	B-DC13	B-DC14	B-DC15	B-DC16	B-Ph1	B-Ph2	B-Ph3	B-Ph4	B-Ph5	B-Ph6	B-Ph7	B-Ph8	B-Ph9	B-Ph10	B-Ph11	B-Ph12	B-Ph13	B-Ph14	B-Ph15	B-Ph16	aux-1	digaux	

8562.701	1	1	0	256	0.14162	0.15116	0.18865	0.11697	0.32357	0.12595	0.43965	0.21368	0.16253	0.15125	0.18686	0.42227	0.10173	0.050209	0.14325	0.31041	-2.275	-2.2958	-2.5583	-2.6104	-2.125	-2.9375	-2.575	-2.5083	-2.6729	-2.2333	-2.6354	-2.6396	-2.5729	-2.6729	-2.6104	-2.4521	95.027	221.338	431.784	430.208	233.236	392.933	383.631	381.894	146.569	278.553	137.532	360.184	77.969	142.022	329.760	290.407	0.00054618	0.00018244	0.00011584	1028.3	2.7191e-06	7.1936e-07	1116.3	215.97	4.7589e-06	1.3231e-06	272.54	76.571	59.334	17.415	2.0495e-06	24.346	9.8212e-05	8.2952e-05	2.3095e-05	1005.8	9.5483e-07	8.8315e-07	1094.2	212.62	9.2701e-07	9.1019e-07	267.67	75.035	58.178	17.346	9.2082e-07	24.339	99.573	159.523	146.640	84.146	190.733	260.511	84.303	92.108	238.349	176.239	91.270	98.076	98.638	105.682	241.022	104.765	-8191	255	
8562.773	1	1	0	0	0.24929	0.23564	0.0075396	0.37607	0.10808	0.15019	0.17606	0.12459	0.17056	0.22124	0.13015	0.35509	0.076571	0.1098	0.25025	0.1256	-2.4417	-2.3042	-2.5062	-2.6979	-2.3521	-2.8625	-2.625	-2.5896	-2.6437	-2.3354	-2.6458	-2.7167	-2.3479	-2.8042	-2.5458	-2.4792	153.377	278.992	315.231	413.899	429.690	120.948	417.844	251.926	108.122	395.993	82.449	88.361	386.991	141.766	170.017	104.550	0.00046022	0.00024288	6.4416e-05	1027.4	1.9769e-06	2.4906e-06	1119.3	217.03	3.9741e-06	2.2395e-06	272.7	76.259	59.385	17.288	2.9397e-06	24.361	9.8262e-05	8.2103e-05	2.3071e-05	1004.5	9.4762e-07	8.9015e-07	1093.6	212.71	9.3543e-07	8.9481e-07	267.16	74.979	58.344	17.317	9.2228e-07	24.285	101.585	174.088	148.084	84.129	158.904	170.857	84.303	91.694	197.216	208.557	90.716	98.138	98.344	105.463	188.958	105.251	-8191	255	
8562.869	1	1	0	0	0.069788	0.06815	0.18273	0.34006	0.28637	0.23198	0.22171	0.24567	0.14022	0.16011	0.14238	0.30618	0.2345	0.027611	0.22804	0.30442	-2.2146	-2.3812	-2.5229	-2.8542	-2.3354	-2.7958	-2.6146	-2.35	-2.9062	-2.3896	-2.5833	-2.6625	-2.3354	-2.8521	-2.5583	-2.3417	160.989	261.582	88.414	357.975	132.009	321.155	422.242	328.311	407.776	231.680	97.645	344.152	371.625	412.102	313.883	117.179	0.00056747	0.00025744	7.1774e-05	1025.8	4.4896e-06	2.4238e-06	1117.9	215.24	4.4933e-06	1.1115e-06	270.1	75.79	59.37	17.216	1.693e-06	24.294	9.7272e-05	7.9949e-05	2.3104e-05	1003.3	9.5926e-07	8.7036e-07	1093.1	211.89	9.119e-07	9.1518e-07	267.36	74.932	58.284	17.34	9.1118e-07	24.22	94.533	166.494	159.476	83.967	213.348	206.346	84.178	91.527	208.131	184.137	91.132	98.173	98.598	106.180	172.060	104.990	-8191	255	
8562.988	1	1	0	0	0.19991	0.18739	0.31191	0.13204	0.18138	0.19276	0.17593	0.063329	0.005147	0.22875	0.12909	0.14437	0.10443	0.28266	0.09567	0.2219	-2.3458	-2.4875	-2.5438	-2.8563	-2.2729	-2.7396	-2.7313	-2.5125	-2.7958	-2.4354	-2.4313	-2.7542	-2.4271	-2.8812	-2.6646	-2.3854	407.274	193.075	350.242	136.042	291.799	110.030	300.183	374.736	258.399	408.731	228.729	176.899	123.554	427.132	204.844	113.981	0.000493	0.00034593	3.3064e-05	1027.4	4.1777e-06	1.8171e-06	1116.9	215.64	2.8348e-06	1.8828e-06	271.54	75.755	59.283	17.434	1.8885e-06	24.221	9.7361e-05	8.1828e-05	2.2625e-05	1004.6	9.3637e-07	8.7859e-07	1092.6	212.55	9.2318e-07	8.8089e-07	267.33	74.746	58.14	17.357	9.1242e-07	24.279	96.041	165.681	139.209	84.205	193.686	200.852	84.332	91.565	208.544	90.965	91.129	98.305	98.864	105.410	242.805	104.716	-8191	255	
8563.084	1	1	0	0	0.09087	0.17995	0.16943	0.079479	0.16398	0.02674	0.1209	0.14775	0.21405	0.066634	0.15074	0.14928	0.024348	0.10116	0.23876	0.13497	-2.2375	-2.475	-2.5021	-2.8063	-2.325	-2.7375	-2.8708	-2.4208	-2.8021	-2.3771	-2.4417	-2.7729	-2.4104	-2.6708	-2.7521	-2.5167	106.642	348.808	111.487	300.041	181.972	387.067	340.386	296.557	324.195	256.389	287.951	89.083	87.080	82.808	204.894	105.147	0.00050089	0.00028453	3.1123e-05	1023.9	3.9832e-06	1.7855e-06	1116.1	215.81	1.0727e-06	2.0225e-06	272.73	75.65	59.38	17.301	2.7661e-06	24.085	9.5867e-05	8.121e-05	2.2724e-05	1001.4	9.3031e-07	8.9143e-07	1091.6	212.63	8.9288e-07	8.9459e-07	267.51	74.631	58.249	17.314	8.9119e-07	24.2	101.724	144.123	112.383	84.256	193.535	205.000	84.263	92.005	249.876	246.020	91.251	98.110	98.482	105.707	188.603	105.001	-8191	255	
8563.180	1	1	0	0	0.083472	0.21917	0.094837	0.15891	0.28017	0.24163	0.15917	0.38592	0.15041	0.3734	0.064316	0.32587	0.41531	0.22389	0.035219	0.15359	-2.4396	-2.4917	-2.3187	-3.0438	-2.325	-2.6521	-2.8271	-2.3521	-2.6188	-2.6833	-2.5146	-2.7188	-2.5146	-2.4938	-2.6958	-2.2708	208.738	192.412	344.478	419.917	392.620	198.950	413.267	103.238	342.544	323.440	292.086	381.430	148.344	419.212	373.060	207.630	0.00046821	0.00029643	6.2525e-05	1025.8	2.5489e-06	3.44e-06	1119.4	215.17	4.7368e-06	3.2422e-06	272.61	76.096	59.616	17.246	3.5156e-06	24.121	9.4777e-05	8.2002e-05	2.2247e-05	1002.2	9.2258e-07	8.8869e-07	1092.5	211.83	9.6093e-07	8.9672e-07	266.78	74.756	58.382	17.305	9.1631e-07	24.278	93.322	138.673	222.600	84.044	211.316	229.159	83.960	92.009	228.311	196.317	91.139	98.122	98.457	105.765	187.638	105.081	-8191	255	
8563.276	1	1	0	0	0.064208	0.13611	0.31058	0.12359	0.075137	0.075344	0.056842	0.29151	0.2613	0.24241	0.19706	0.18773	0.032777	0.092055	0.20139	0.27328	-2.3312	-2.5354	-2.2938	-2.9146	-2.4	-2.5271	-2.8104	-2.3604	-2.5833	-2.6167	-2.3625	-2.9479	-2.4625	-2.6875	-2.7083	-2.5271	207.650	229.562	283.460	422.317	240.980	375.825	106.614	114.889	327.330	390.265	167.921	322.386	133.765	174.512	329.678	354.033	0.00056264	0.00030369	0.00010823	1026.9	2.5201e-06	1.3045e-06	1114.8	215.35	4.7851e-06	9.6885e-07	272.11	75.982	59.332	17.392	3.7641e-06	24.114	9.7649e-05	8.42e-05	2.3015e-05	1002.9	9.1713e-07	8.7868e-07	1091.5	211.87	9.4357e-07	8.848e-07	267.08	74.826	58.172	17.317	9.0212e-07	24.158	96.584	136.108	158.444	84.138	229.016	250.108	84.290	91.904	224.958	239.925	90.902	98.540	98.260	105.302	166.838	104.713	-8191	255	
8563.372	1	1	0	0	0.1534	0.16717	0.18399	0.1139	0.12436	0.091734	0.26086	0.21972	0.18626	0.1496	0.26816	0.091691	0.15173	0.038884	0.11978	0.037248	-2.2021	-2.4917	-2.3312	-3.0104	-2.5396	-2.4792	-2.9333	-2.5521	-2.4375	-2.8729	-2.4792	-2.7604	-2.5812	-2.4542	-2.8312	-2.3333	314.820	113.007	249.214	373.430	316.019	274.214	357.005	362.381	210.945	300.458	250.197	274.218	338.418	210.103	214.080	391.840	0.00052599	8.5982e-05	8.3594e-05	1025.5	2.234e-06	6.2586e-07	1115.3	215.57	3.1979e-06	2.0564e-06	272.8	75.532	59.095	17.399	2.4595e-06	24.21	9.5994e-05	8.0826e-05	2.2823e-05	1001.5	9.2522e-07	8.8962e-07	1090.5	212.44	9.1186e-07	8.5986e-07	267.27	74.706	58.113	17.335	8.9761e-07	24.215	96.888	183.685	153.695	83.903	235.052	330.295	84.245	91.793	196.266	197.356	90.960	98.635	98.546	105.477	203.829	105.014	-8191	255	
8563.469	1	1	0	0	0.34828	0.12633	0.18368	0.39294	0.3265	0.16047	0.074415	0.2078	0.11776	0.10739	0.1056	0.2093	0.20627	0.19167	0.10581	0.34107	-2.1688	-2.5083	-2.3479	-2.7208	-2.4667	-2.65	-2.8688	-2.4792	-2.5875	-2.9083	-2.5896	-2.6312	-2.6625	-2.5646	-2.8187	-2.5292	320.506	81.979	383.560	125.363	124.159	214.874	411.495	362.274	229.617	236.733	90.152	420.005	152.411	96.207	75.108	361.793	0.00052197	0.00028517	5.0248e-05	1022.5	2.3119e-06	3.3955e-06	1113.6	215.98	5.5506e-06	1.7505e-06	271.85	75.808	59.065	17.333	2.8504e-06	24.185	9.6233e-05	8.1449e-05	2.2236e-05	1000.1	9.1849e-07	8.874e-07	1090.9	211.88	9.2816e-07	8.8689e-07	266.97	74.719	58.086	17.362	8.969e-07	24.204	94.566	164.210	243.055	84.094	179.493	257.178	84.288	91.727	225.674	247.188	91.304	98.467	98.893	105.869	224.734	104.945	-8191	255	
8563.589	1	1	0	0	0.44102	0.11712	0.16987	0.2528	0.094903	0.02822	0.35977	0.47175	0.30894	0.31756	0.27605	0.21616	0.12949	0.20504	0.0083692	0.32212	-1.9604	-2.6917	-2.4458	-2.6833	-2.6813	-2.2646	-2.9813	-2.4583	-2.4125	-2.8083	-2.4521	-2.5021	-2.8833	-2.4958	-2.8458	-2.5458	318.581	253.867	74.885	406.259	174.798	158.049	358.331	398.210	323.316	79.331	99.092	378.063	430.974	366.435	262.733	369.077	0.00052751	0.00019603	5.6763e-05	1029.3	3.2401e-06	8.2456e-07	1114.6	214.99	2.8028e-06	2.3742e-06	273.24	75.829	59.395	17.285	1.7904e-06	24.313	9.599e-05	7.9994e-05	2.3058e-05	1002.3	9.3585e-07	9.0626e-07	1090.4	211.76	9.1644e-07	9.0286e-07	267.37	74.687	58.207	17.288	8.7638e-07	24.24	94.273	164.284	136.094	84.049	192.713	176.768	84.450	91.752	224.629	287.081	91.270	98.371	98.361	105.731	176.454	105.457	-8191	255	
8563.685	1	1	0	0	0.14448	0.21539	0.29928	0.18837	0.26919	0.27131	0.25527	0.18847	0.060858	0.2039	0.14038	0.16729	0.22252	0.064835	0.066984	0.26837	-2.0729	-2.9146	-2.4479	-2.7167	-2.8354	-2.4333	-3.1375	-2.6688	-2.5833	-2.9333	-2.3604	-2.65	-2.8146	-2.2833	-2.8312	-2.7313	288.840	117.036	141.307	80.112	336.099	431.531	385.527	343.896	361.384	347.652	301.751	159.022	355.488	419.451	74.057	99.298	0.00054638	0.00037717	7.0365e-05	1021.6	2.4582e-06	2.127e-06	1118.7	216.45	3.6273e-06	4.532e-06	273.62	76.155	58.952	17.425	2.9047e-06	24.207	9.6772e-05	8.0087e-05	2.2575e-05	1000.8	9.4015e-07	8.9263e-07	1091.7	212.05	9.3124e-07	9.0304e-07	267.53	74.845	58.001	17.368	9.1246e-07	24.16	91.848	127.212	115.001	84.100	219.182	215.843	84.212	91.692	248.860	162.608	91.447	98.222	98.402	105.496	217.491	105.049	-8191	255	
8563.781	1	1	0	0	0.047513	0.33906	0.15859	0.0061277	0.097828	0.044089	0.28708	0.074469	0.2743	0.037651	0.30095	0.09488	0.12141	0.12169	0.24006	0.091643	-2.0333	-2.8	-2.5125	-2.6937	-2.975	-2.1854	-3.0062	-2.8875	-2.4458	-2.9313	-2.5292	-2.7208	-3.0146	-2.3812	-2.575	-2.6188	82.481	318.911	328.396	280.788	75.848	274.609	382.512	350.896	214.256	311.535	393.867	322.207	291.548	88.610	137.199	121.180	0.00061975	0.00039297	9.9503e-05	1022.9	2.892e-06	3.0474e-06	1117	216.61	5.0844e-06	3.6627e-06	271.99	76.116	58.876	17.308	1.6987e-06	24.227	9.6406e-05	8.2645e-05	2.2384e-05	1000.9	9.2579e-07	8.8638e-07	1090.1	212.27	9.5009e-07	8.933e-07	267.16	74.969	58.08	17.344	8.8315e-07	24.244	101.402	132.041	178.763	84.117	228.058	210.682	84.231	91.733	221.681	211.840	91.172	98.270	98.693	106.110	218.513	104.888	-8191	255	
8563.878	1	1	0	0	0.18185	0.13879	0.22862	0.11239	0.21059	0.25861	0.12144	0.024261	0.18556	0.12633	0.19006	0.11764	0.2706	0.063581	0.32754	0.13512	-2.0208	-2.6708	-2.4813	-2.5271	-2.7938	-2.4667	-2.8792	-2.7521	-2.2521	-2.8979	-2.7229	-2.3604	-2.9771	-2.3958	-2.6646	-2.6125	318.717	179.232	415.435	263.424	317.076	182.073	332.769	115.097	220.609	141.113	422.884	360.276	123.572	288.942	171.566	348.991	0.00048875	0.00015928	2.2674e-05	1024.7	4.128e-06	1.3397e-06	1111	215.11	5.1079e-06	2.88e-06	271.56	74.984	59.052	17.214	1.7266e-06	24.285	9.5863e-05	8.0046e-05	2.261e-05	1001.6	9.4336e-07	8.9085e-07	1087.5	211.88	9.2102e-07	8.768e-07	266.43	74.47	57.986	17.181	9.0941e-07	24.202	98.588	183.279	177.520	84.136	239.218	250.600	84.083	91.782	183.296	163.642	91.178	98.574	98.443	105.886	252.932	104.736	-8191	255	
8563.972	1	1	0	0	0.13805	0.16003	0.19594	0.28149	0.16	0.26588	0.18094	0.25741	0.036529	0.097566	0.10474	0.21248	0.098357	0.11867	0.06712	0.11527	-1.8604	-2.7042	-2.4458	-2.6042	-2.85	-2.4729	-2.8292	-2.7812	-2.1646	-2.8208	-2.7042	-2.4625	-2.8583	-2.4167	-2.6292	-2.8667	390.111	128.278	91.529	400.282	248.055	367.673	326.644	99.332	173.396	207.370	101.196	257.508	329.028	130.504	224.485	334.400	0.00054692	0.00026359	8.52e-05	1014	4.3231e-06	2.4167e-06	1109.4	213.89	5.375e-06	2.07e-06	270.08	74.965	59.092	17.227	2.7137e-06	23.808	9.6926e-05	8.1679e-05	2.2006e-05	993.98	9.2232e-07	8.7147e-07	1082.9	210.68	9.0983e-07	9.0499e-07	265.51	74.21	57.854	17.164	9.221e-07	23.954	103.107	182.996	171.126	84.338	181.519	212.748	84.177	91.734	218.719	249.001	91.198	98.603	98.820	105.619	204.740	105.015	-8191	255	
8564.068	1	1	0	0	0.07525	0.24956	0.10891	0.11642	0.089387	0.041649	0.28131	0.34325	0.1901	0.24998	0.18781	0.11539	0.28728	0.25819	0.22393	0.16958	-2.1229	-2.7896	-2.55	-2.7062	-2.7979	-2.4646	-2.6312	-2.8229	-2.2292	-2.6979	-2.6375	-2.4229	-2.5833	-2.6146	-2.5146	-2.7854	255.132	370.756	206.248	398.747	428.685	374.237	305.852	323.895	158.267	357.196	422.364	364.355	330.365	361.202	256.572	415.690	0.00055738	0.00039875	8.7931e-05	1010.6	3.9376e-06	1.8777e-06	1099	212.65	4.3378e-06	2.0676e-06	268.16	74.845	58.258	16.969	2.8443e-06	23.96	9.4569e-05	8.1861e-05	2.2004e-05	989.14	9.3154e-07	9.017e-07	1078.3	209.56	9.0864e-07	8.812e-07	263.72	73.857	57.37	17.041	9.0667e-07	23.908	96.613	166.707	152.718	84.407	235.175	205.376	84.308	91.857	217.569	243.060	91.310	98.330	98.794	105.685	215.903	105.091	-8191	255	
8564.164	1	1	0	0	0.043546	0.20762	0.033601	0.22918	0.25962	0.10322	0.53544	0.22869	0.091733	0.054601	0.22015	0.01735	0.1357	0.16923	0.17524	0.23804	-1.8146	-2.5187	-2.5854	-2.3104	-2.7438	-2.4896	-2.5854	-2.875	-2.5083	-2.7229	-2.6958	-2.4104	-2.9667	-2.5625	-2.3167	-2.725	433.883	419.695	143.010	417.429	429.690	131.062	382.172	369.852	110.813	107.474	278.889	311.093	416.722	134.941	381.186	174.207	0.0005173	0.00016331	9.9022e-05	1007.6	2.9769e-06	2.0379e-06	1101.4	211.99	2.6977e-06	2.6151e-06	267.57	74.521	57.974	16.906	2.3247e-06	23.519	9.7807e-05	8.0289e-05	2.2414e-05	985.62	9.3093e-07	8.7727e-07	1072.1	208.43	8.9926e-07	9.2087e-07	262.93	73.389	57.051	16.934	8.8381e-07	23.672	97.943	133.531	143.152	84.050	240.252	227.906	84.099	92.003	211.499	243.777	91.337	98.500	98.537	105.706	213.574	105.260	-8191	255	
8564.285	1	1	0	0	0.19462	0.1488	0.10846	0.38788	0.13732	0.23695	0.049895	0.057253	0.075019	0.34059	0.26618	0.20681	0.098286	0.12753	0.26821	0.069824	-1.9042	-2.5771	-2.8812	-2.4521	-2.4583	-2.5812	-2.5083	-2.8229	-2.5479	-2.5208	-2.8958	-2.5042	-2.525	-2.6604	-2.5229	-2.8042	76.668	125.634	347.874	339.944	356.985	287.772	240.695	245.648	336.277	197.773	396.490	341.354	105.733	269.172	97.258	126.757	0.00056589	0.00010064	7.3453e-05	997.45	2.8965e-06	1.7448e-06	1085.8	208.71	3.0434e-06	3.2731e-06	263.81	73.219	57.173	16.697	2.9178e-06	23.426	9.641e-05	8.1182e-05	2.2848e-05	976.79	9.4187e-07	8.967e-07	1063.3	205.24	9.5362e-07	9.0077e-07	258.34	72.301	56.294	16.7	9.3178e-07	23.472	95.789	118.699	186.530	84.210	181.397	181.543	84.396	91.756	262.167	152.892	90.942	98.258	98.586	106.108	192.356	105.220	-8191	255	
8564.381	1	1	0	0	0.047312	0.15271	0.046627	0.17962	0.094749	0.42442	0.32256	0.10365	0.095984	0.21394	0.44586	0.18693	0.36148	0.17501	0.1398	0.19974	-2.0021	-2.3521	-2.8333	-2.4604	-2.4875	-2.6167	-2.4354	-2.8979	-2.5083	-2.4146	-2.7833	-2.3417	-2.6667	-2.5146	-2.4313	-2.9562	341.706	156.519	433.479	361.738	215.763	396.517	343.313	296.869	350.120	256.008	379.993	276.359	347.164	219.141	177.291	328.577	0.00047092	0.00030118	7.4533e-05	991.24	3.3397e-06	1.8459e-06	1080	207.74	3.4358e-06	1.7932e-06	262.01	73.254	57.49	16.652	3.2663e-06	23.546	9.9043e-05	8.3926e-05	2.3406e-05	972.45	9.9125e-07	9.1706e-07	1057.9	203.78	1.003e-06	9.266e-07	258.08	72.158	56.346	16.683	9.2462e-07	23.515	94.325	171.440	146.038	84.134	194.193	247.119	84.134	91.961	194.669	255.445	91.133	98.232	99.042	106.189	170.918	105.024	-8191	255	
8564.477	1	1	0	0	0.20026	0.1113	0.31501	0.40972	0.22542	0.22421	0.35159	0.15785	0.16089	0.19303	0.16007	0.45553	0.073387	0.25942	0.04403	0.05685	-2.0625	-2.3771	-2.8396	-2.525	-2.6292	-2.7875	-2.375	-2.6542	-2.5896	-2.3917	-2.8438	-2.5187	-2.6417	-2.6813	-2.3604	-2.8125	161.892	231.272	118.630	413.383	297.842	189.549	339.794	248.597	147.054	317.995	343.899	98.229	292.663	366.626	355.298	81.431	0.00056316	0.00034544	5.2738e-05	988.75	3.8876e-06	1.4738e-06	1085.7	207.7	3.9742e-06	3.0018e-06	262.44	73.337	57.265	16.761	1.7729e-06	23.648	0.00010171	8.4968e-05	2.3496e-05	969.22	9.3304e-07	8.9621e-07	1058.7	204.02	9.4542e-07	9.25e-07	258.49	72.449	56.379	16.764	9.0605e-07	23.608	102.101	142.891	207.701	84.286	202.850	213.255	83.992	91.979	208.529	211.365	91.453	98.592	98.221	105.636	188.621	104.991	-8191	255	
8564.573	1	1	0	0	0.08446	0.11063	0.26252	0.24381	0.13098	0.12162	0.13897	0.10849	0.14978	0.14994	0.14035	0.051417	0.10747	0.22324	0.1016	0.16017	-2.2604	-2.3417	-2.5146	-2.3646	-2.4667	-2.8292	-2.3	-2.7375	-2.6083	-2.3208	-3.1063	-2.5354	-2.3667	-2.8417	-2.3125	-2.7208	321.703	251.497	335.150	78.961	268.533	210.339	412.395	266.357	312.207	91.552	361.068	431.205	248.066	121.209	398.584	154.637	0.00052883	0.00020504	9.1234e-05	997.21	3.4471e-06	1.0216e-06	1085.6	208.04	6.2556e-06	6.8253e-07	265.39	73.714	57.633	16.973	2.6868e-06	23.673	9.7507e-05	8.2685e-05	2.2542e-05	973.61	9.55e-07	8.8793e-07	1061.7	204.72	9.1715e-07	8.9814e-07	259.5	72.67	56.76	16.896	8.8421e-07	23.713	100.393	183.167	172.934	84.146	165.765	310.998	84.233	92.103	215.162	224.733	91.540	98.137	98.479	106.121	216.573	104.996	-8191	255	
8564.670	1	1	0	0	0.077006	0.080862	0.26999	0.064364	0.13621	0.23454	0.17139	0.36349	0.18976	0.073863	0.17447	0.17607	0.07014	0.036187	0.10643	0.069063	-2.1542	-2.2104	-2.5625	-2.8458	-2.4938	-2.7146	-2.6208	-2.7229	-2.7562	-2.2729	-2.7729	-2.6521	-2.4875	-2.8958	-2.3729	-2.6312	267.660	254.997	272.227	339.682	265.632	304.193	365.333	356.954	401.266	346.817	398.923	428.559	124.706	360.585	311.513	155.274	0.00053615	0.00036135	7.8983e-05	995.91	2.27e-06	2.5095e-06	1083.1	208.37	4.6293e-06	2.0836e-06	265.53	73.591	58.225	16.889	4.3292e-07	23.784	9.5143e-05	8.0798e-05	2.2506e-05	972.06	9.1419e-07	8.6549e-07	1059.2	205.2	8.9741e-07	8.5545e-07	260.09	72.844	56.847	16.836	8.7903e-07	23.731	102.946	111.320	174.858	84.293	190.065	243.315	84.326	91.753	222.749	212.152	91.180	98.351	98.619	106.041	233.882	104.887	-8191	255	
8564.766	1	1	0	0	0.18583	0.19475	0.050067	0.36142	0.16719	0.10944	0.23301	0.098519	0.38049	0.098014	0.16923	0.073079	0.038886	0.26858	0.22279	0.17961	-2.3292	-2.2292	-2.8333	-2.7375	-2.4167	-2.8104	-2.5896	-2.5938	-2.7583	-2.4	-2.6375	-2.675	-2.3771	-2.8458	-2.6292	-2.4333	326.920	334.033	369.342	400.549	91.386	393.954	397.246	226.316	402.339	427.456	427.412	267.518	231.447	214.820	359.568	74.164	0.00053699	0.00028926	5.4175e-05	993.52	4.3781e-06	1.3666e-06	1085.3	209.81	3.5672e-06	4.0102e-06	266.12	74.04	58.298	16.983	3.1683e-06	23.932	9.3268e-05	7.8531e-05	2.1801e-05	972.27	9.1182e-07	8.6824e-07	1060.3	206.66	8.8138e-07	8.9356e-07	260.91	73.069	57.151	16.939	8.506e-07	23.81	102.746	156.428	170.856	84.274	212.698	283.633	84.170	91.651	227.108	218.715	91.462	98.754	98.714	105.771	216.911	105.254	-8191	255	
8564.862	1	1	0	0	0.20114	0.20196	0.21293	0.42926	0.20368	0.16573	0.17064	0.076311	0.11102	0.14627	0.092942	0.09356	0.12554	0.19155	0.11994	0.15775	-2.3167	-2.2125	-2.7542	-2.6625	-2.3417	-2.7479	-2.6104	-2.6	-2.8083	-2.3354	-2.6958	-2.7125	-2.2625	-2.7417	-2.5208	-2.5208	176.072	256.586	335.578	375.992	349.153	232.746	419.891	340.915	85.157	398.187	422.253	372.236	300.775	107.617	429.797	182.607	0.00062485	0.0001153	4.3811e-05	999.33	1.2686e-07	1.7956e-06	1084.4	210.11	4.0808e-06	2.4718e-06	266.09	74.497	58.404	16.955	2.7896e-06	23.885	9.1963e-05	7.8887e-05	2.2174e-05	973.73	8.8335e-07	8.2513e-07	1060.3	206.92	8.6455e-07	8.7284e-07	261.54	73.381	57.142	16.999	8.6493e-07	23.813	95.829	185.906	96.256	84.300	254.969	313.578	84.383	92.173	232.942	216.661	90.783	98.098	98.680	105.847	173.046	105.020	-8191	255	
8564.958	1	1	0	0	0.06377	0.10139	0.18343	0.4506	0.19248	0.079208	0.06647	0.27637	0.32169	0.22076	0.11675	0.35143	0.11847	0.26091	0.11993	0.13784	-2.4333	-2.3604	-2.65	-2.8396	-2.3896	-2.5604	-2.9437	-2.4229	-2.9	-2.5125	-2.5812	-2.8396	-2.4229	-2.7958	-2.6771	-2.5542	84.098	410.010	277.827	421.578	423.112	311.418	392.431	119.398	156.730	233.362	240.818	406.324	351.109	186.161	386.117	290.414	0.00058724	0.00015898	6.2014e-05	993.37	4.0283e-06	2.6134e-06	1088.6	211.03	3.3576e-06	1.242e-06	267.27	74.515	58.118	16.942	1.7886e-06	23.686	9.3568e-05	7.6579e-05	2.2274e-05	973.86	8.6524e-07	8.2513e-07	1064.4	207.52	8.6028e-07	8.4549e-07	262.08	73.324	56.985	16.97	8.6502e-07	23.788	103.777	140.332	142.689	84.342	215.064	200.748	84.242	91.702	225.297	246.119	91.717	98.699	98.662	105.716	216.546	105.411	-8191	255	
8565.077	1	1	0	0	0.013113	0.09012	0.24415	0.30176	0.14573	0.11232	0.20047	0.17745	0.19745	0.2647	0.13746	0.27237	0.064438	0.081877	0.10293	0.17186	-2.3312	-2.4458	-2.4875	-2.7687	-2.2125	-2.5625	-2.8104	-2.3396	-2.8937	-2.5583	-2.5833	-2.8688	-2.3542	-2.6583	-2.7	-2.475	405.876	335.622	168.030	433.118	96.027	349.845	350.799	86.408	291.975	153.557	427.505	140.233	177.748	393.822	253.967	110.251	0.00056457	0.00020383	3.702e-05	995.5	2.3418e-06	1.9866e-06	1088	211.54	2.7015e-06	3.2308e-06	267.63	74.193	58.307	17.009	3.6512e-06	24.114	9.3095e-05	7.7444e-05	2.125e-05	973.31	9.0061e-07	8.3588e-07	1064.1	207.52	8.6125e-07	8.4398e-07	262.09	73.413	57.239	17.011	8.3225e-07	23.873	91.529	143.056	192.125	84.598	213.299	200.263	84.104	91.996	203.745	230.315	91.320	98.245	99.014	105.862	218.339	104.923	-8191	255	
8565.173	1	1	0	0	0.35257	0.10865	0.12514	0.082197	0.20768	0.015675	0.39019	0.26218	0.24603	0.12942	0.084093	0.12845	0.099536	0.26874	0.19085	0.18705	-2.3083	-2.6333	-2.5104	-3.025	-2.475	-2.5917	-2.9125	-2.4708	-2.7	-2.6083	-2.6188	-2.7542	-2.3729	-2.65	-2.8125	-2.4604	107.435	401.748	104.554	74.851	428.034	189.004	384.720	416.434	371.084	119.661	83.418	123.265	222.713	127.065	417.190	82.054	0.00049937	0.00033218	5.2781e-05	993.23	3.0356e-06	2.8351e-06	1081.2	211.2	5.1673e-06	1.5308e-06	268.59	74.505	57.882	17.144	1.6868e-06	23.891	8.8882e-05	7.586e-05	2.1002e-05	974.36	8.7364e-07	8.1986e-07	1062.4	207.48	8.9622e-07	8.6475e-07	262.01	73.511	57.064	17.036	8.4768e-07	23.833	100.755	159.186	166.402	84.456	226.408	228.204	84.635	92.107	221.739	269.719	91.643	98.426	98.807	105.490	210.292	105.481	-8191	255	
8565.269	1	1	0	0	0.082267	0.18796	0.13444	0.1791	0.29183	0.30055	0.22137	0.3638	0.27412	0.12303	0.41566	0.051665	0.094261	0.13195	0.073044	0.15137	-2.1813	-2.4979	-2.4146	-2.8979	-2.5271	-2.7208	-2.9104	-2.4208	-2.7667	-2.6354	-2.4625	-2.9708	-2.3354	-2.6521	-2.8333	-2.3896	349.721	271.460	151.243	156.097	248.455	408.371	337.755	374.702	105.982	246.864	111.916	95.983	195.097	391.639	268.958	128.466	0.00049492	0.00038749	6.1456e-05	997.26	3.0108e-06	1.357e-06	1088.8	211.85	5.4258e-06	1.701e-06	266.96	75.241	58.085	16.988	3.3047e-06	23.817	9.3356e-05	7.5807e-05	2.1542e-05	974.43	8.9556e-07	8.4766e-07	1064.6	207.89	8.7997e-07	8.4358e-07	261.88	73.689	57.134	17.031	8.4543e-07	23.794	101.849	122.015	210.695	84.173	227.576	309.738	84.188	91.947	188.421	243.881	91.058	98.077	98.922	105.966	217.112	105.369	-8191	255	
8565.365	1	1	0	0	0.026492	0.25509	0.27235	0.29162	0.27157	0.10092	0.59439	0.20519	0.047505	0.52714	0.1311	0.156	0.15345	0.045529	0.24295	0.15132	-2.2208	-2.6979	-2.1396	-3.0208	-2.525	-2.5146	-2.9938	-2.6167	-2.7396	-2.6458	-2.525	-2.6437	-2.5542	-2.3229	-2.7729	-2.4479	149.114	181.494	171.021	97.830	120.933	98.142	379.149	297.904	86.831	229.700	320.915	320.626	105.442	193.011	185.675	418.098	0.00052325	0.00024693	6.0524e-05	997.64	2.9091e-06	1.5173e-06	1083	211.29	2.998e-06	1.2355e-06	267.52	74.655	58.434	17.047	1.7005e-06	23.676	9.2117e-05	7.7893e-05	2.1377e-05	974.37	8.9934e-07	8.4022e-07	1064.1	208.31	8.7002e-07	8.4518e-07	261.68	73.451	57.252	17.022	8.4039e-07	23.827	95.427	167.294	167.402	84.233	209.355	224.373	84.398	91.864	235.403	241.361	91.179	98.569	98.736	105.612	231.183	105.121	-8191	255	
8565.461	1	1	0	0	0.34801	0.12463	0.19898	0.03399	0.20176	0.18375	0.18433	0.24243	0.051658	0.39763	0.23315	0.12202	0.13944	0.13315	0.083703	0.13654	-2.2083	-2.7146	-2.2313	-2.9583	-2.4375	-2.4104	-2.9479	-2.4542	-2.6583	-2.8271	-2.3375	-2.6271	-2.5333	-2.5083	-3.0042	-2.5625	142.030	211.591	343.137	212.305	78.080	89.206	376.027	307.536	403.392	321.541	235.082	433.404	80.174	378.611	347.488	339.283	0.00054791	0.00031778	2.937e-05	998.18	1.7923e-06	3.5872e-06	1082.7	210.82	2.8697e-06	9.2755e-07	266.67	74.531	58.135	16.935	1.337e-06	24.017	9.4608e-05	7.7367e-05	2.1366e-05	975.85	8.8295e-07	8.3991e-07	1064.2	207.53	8.8843e-07	8.1917e-07	261.8	73.586	57.168	16.982	8.4419e-07	23.879	95.135	172.816	155.814	84.207	238.059	199.915	84.392	91.866	227.852	183.737	91.247	98.085	98.865	105.774	230.534	105.252	-8191	255	
8565.558	1	1	0	0	0.071665	0.19506	0.11608	0.1974	0.24772	0.056031	0.046715	0.17945	0.14206	0.24617	0.14003	0.12158	0.2012	0.064947	0.18884	0.1332	-2.2167	-2.7792	-2.3458	-2.8021	-2.5917	-2.2875	-3.0563	-2.6167	-2.5458	-2.7188	-2.3833	-2.7521	-2.6708	-2.2729	-2.8187	-2.6021	141.727	331.427	399.447	384.775	405.744	329.598	342.173	408.844	247.990	380.548	381.233	246.802	312.353	399.562	125.934	315.371	0.00052315	0.00033242	9.5388e-05	994.24	3.5617e-06	1.8551e-06	1089.5	211.18	2.1755e-06	2.9569e-06	265.52	74.7	58.037	17.013	2.3601e-06	24.127	9.2609e-05	7.8074e-05	2.1066e-05	974.44	8.7443e-07	8.5713e-07	1065.4	207.79	9.0675e-07	8.2939e-07	261.52	73.515	57.121	17.006	8.4278e-07	23.907	97.768	125.881	151.525	84.126	214.901	259.990	84.317	91.990	259.569	169.532	91.113	98.209	98.681	105.684	188.397	105.119	-8191	255	
8565.678	1	1	0	0	0.21175	0.24839	0.12753	0.2933	0.30211	0.35682	0.083003	0.17502	0.18947	0.11023	0.13433	0.052211	0.26894	0.24746	0.19349	0.31609	-1.9854	-2.625	-2.4938	-2.7375	-2.6479	-2.3021	-2.9042	-2.625	-2.2833	-2.5875	-2.5833	-2.6542	-2.6729	-2.2396	-2.7396	-2.5167	159.704	87.135	228.300	340.829	228.530	178.163	409.922	92.530	275.896	411.536	326.798	423.086	87.417	371.608	263.088	379.062	0.0005552	0.00038711	8.4184e-05	1000.6	4.3964e-06	2.0338e-06	1085.8	211.58	5.0895e-06	2.4403e-06	269.89	75.228	58.137	17.076	2.8465e-06	23.988	9.1454e-05	7.7634e-05	2.1766e-05	975.78	8.8559e-07	8.2986e-07	1062.9	207.63	8.6755e-07	8.6862e-07	262.48	73.725	57.023	17.013	8.778e-07	23.837	105.146	137.811	203.074	84.183	223.464	213.670	84.272	91.845	230.699	231.295	91.335	98.380	98.363	105.260	221.973	104.985	-8191	255	
8565.773	1	1	0	0	0.18581	0.054819	0.068255	0.038783	0.32035	0.22883	0.16715	0.16612	0.15529	0.29605	0.07959	0.27778	0.18065	0.15811	0.076465	0.29181	-1.9917	-2.7458	-2.4146	-2.7792	-2.6104	-2.2687	-2.8708	-2.5896	-2.4313	-2.8187	-2.5958	-2.5521	-2.8125	-2.3417	-2.6604	-2.7708	378.546	115.061	300.567	148.370	373.605	110.010	416.309	420.767	239.981	402.302	354.084	433.432	79.015	90.329	401.630	79.017	0.00046978	0.00033049	9.8281e-05	996.36	4.0829e-06	3.0633e-06	1090.2	210.75	3.6629e-06	9.1476e-07	265.85	74.622	58.344	17.013	1.9112e-06	23.982	9.3372e-05	7.7145e-05	2.1813e-05	974.59	8.9055e-07	8.5164e-07	1066	207.79	8.6367e-07	8.4056e-07	261.37	73.466	57.166	16.985	8.4353e-07	23.829	93.593	166.443	160.108	84.193	210.091	248.759	84.161	91.882	273.524	163.652	91.249	98.430	98.771	105.711	225.629	105.095	-8191	255	
8565.869	1	1	0	0	0.18667	0.096099	0.085703	0.026952	0.16132	0.059281	0.30901	0.22851	0.094819	0.16979	0.12184	0.19879	0.2134	0.1511	0.26441	0.13656	-1.8354	-2.8958	-2.2625	-2.5125	-2.9708	-2.3479	-2.9042	-2.7833	-2.5021	-2.9792	-2.5708	-2.5938	-2.7313	-2.3812	-2.4167	-2.6917	397.704	211.000	97.165	433.739	76.700	91.724	396.620	415.477	185.155	74.478	245.168	83.411	86.521	115.952	329.989	384.285	0.00054841	0.00020237	0.000113	997.38	2.3653e-06	4.1375e-06	1087.7	211.47	2.9635e-06	8.3097e-07	266.92	74.591	57.827	17.077	2.6442e-06	23.773	9.4111e-05	7.6123e-05	2.116e-05	975.42	8.7285e-07	8.369e-07	1064.6	207.29	8.7711e-07	8.2779e-07	261.57	73.559	56.961	17.027	8.6599e-07	23.792	103.656	120.034	143.395	84.409	238.043	189.732	84.325	91.792	224.925	223.475	91.286	98.175	98.802	105.702	192.304	105.087	-8191	255	
8565.967	1	1	0	0	0.16176	0.19191	0.12753	0.081599	0.28391	0.041529	0.14474	0.33078	0.089259	0.13931	0.20195	0.066361	0.2044	0.25902	0.12603	0.15476	-2.0271	-2.8646	-2.5604	-2.6208	-2.8896	-2.3937	-2.8187	-2.7854	-2.3271	-2.7833	-2.7146	-2.3854	-2.9437	-2.4479	-2.6667	-2.9521	97.753	275.149	343.652	263.079	287.603	403.222	114.168	377.039	133.158	243.331	191.624	117.512	403.918	428.755	344.207	219.182	0.00058198	0.00031745	7.0485e-05	996.67	5.132e-06	1.0089e-06	1089.7	212.07	2.0816e-06	7.8773e-07	266.67	74.579	58.033	16.952	2.2711e-06	23.85	9.5605e-05	7.8042e-05	2.2159e-05	974.95	9.2012e-07	8.5899e-07	1064.7	207.75	8.6971e-07	8.5136e-07	261.88	73.52	57.048	16.967	8.6674e-07	23.82	99.298	204.112	177.935	84.234	216.848	256.074	84.277	91.623	238.588	204.830	91.220	98.503	98.859	105.748	192.692	105.047	-8191	255	
8566.061	1	1	0	0	0.229	0.15325	0.1156	0.29762	0.15492	0.21647	0.34921	0.134	0.21575	0.13731	0.087944	0.30962	0.30279	0.3405	0.11163	0.13485	-1.8687	-2.9083	-2.7333	-2.3937	-2.6333	-2.5042	-2.8708	-2.875	-2.4729	-2.75	-2.8146	-2.3958	-2.8958	-2.5563	-2.3896	-2.8208	259.957	394.580	433.046	94.871	343.967	339.626	403.221	433.620	160.263	123.195	152.124	214.588	357.275	252.495	101.941	409.478	0.00058669	0.00029144	8.4783e-05	993.82	3.9039e-06	2.475e-06	1091	211.82	1.6378e-06	2.2111e-06	267.84	74.64	58.326	17.007	1.7955e-06	23.815	9.4331e-05	7.8337e-05	2.1304e-05	974.37	9.0426e-07	8.5629e-07	1064.1	207.95	8.8825e-07	8.4082e-07	262.54	73.477	57.209	16.991	8.6732e-07	23.865	101.416	161.358	153.151	83.915	200.175	202.541	84.445	91.964	228.240	219.702	91.412	98.414	98.755	106.098	132.892	104.995	-8191	255	
8566.157	1	1	0	0	0.4664	0.21239	0.16588	0.22887	0.16898	0.25306	0.18382	0.21662	0.046451	0.14029	0.32444	0.12386	0.27323	0.074458	0.26774	0.0076172	-1.9021	-2.6958	-2.6562	-2.5792	-2.8125	-2.6542	-2.6083	-2.8917	-2.3312	-2.6229	-2.6146	-2.3458	-2.7979	-2.6583	-2.2854	-2.9042	235.335	98.879	142.805	382.144	255.730	147.588	358.603	215.370	429.751	82.696	400.703	302.819	141.215	378.912	234.036	316.076	0.00051601	0.00017354	5.6018e-05	991.12	3.406e-06	8.7078e-07	1086.8	213.22	2.4744e-06	2.5617e-06	267.85	74.045	57.894	17.047	2.6785e-06	23.868	9.3703e-05	7.7412e-05	2.1756e-05	972.46	8.8563e-07	8.5031e-07	1063.9	208.18	8.7896e-07	8.5078e-07	262.2	73.242	56.945	17.001	8.5525e-07	23.84	97.150	222.460	160.824	83.979	226.731	217.528	84.407	91.738	225.196	176.733	91.312	98.245	98.600	105.489	226.557	105.288	-8191	255	
8566.253	1	1	0	0	0.15391	0.15428	0.1051	0.21899	0.27777	0.13782	0.25253	0.19459	0.13848	0.2919	0.095218	0.12702	0.1883	0.29318	0.33592	0.086977	-2.0396	-2.6167	-2.6542	-2.3167	-2.7396	-2.6729	-2.5896	-2.825	-2.4167	-2.7917	-2.9292	-2.3083	-2.6125	-2.6854	-2.3083	-2.7417	260.652	385.122	263.614	357.902	346.199	151.140	324.086	306.371	306.730	204.161	268.927	196.054	175.258	82.596	248.948	309.868	0.00054016	0.00024265	5.6415e-05	993.25	4.3463e-06	2.2718e-06	1080.4	211.79	2.731e-06	1.2759e-06	268.39	74.478	58.337	16.938	3.5178e-06	23.758	8.9183e-05	7.9865e-05	2.1957e-05	972.71	8.7311e-07	8.2442e-07	1061.4	207.7	8.7305e-07	8.3197e-07	262.07	73.322	57.125	16.966	8.7956e-07	23.756	94.826	122.201	143.441	84.130	207.972	247.564	84.731	91.865	197.834	183.349	91.013	98.504	98.762	106.183	184.436	104.684	-8191	255	
8566.350	1	1	0	0	0.11712	0.087483	0.12958	0.2518	0.19296	0.13967	0.12585	0.16515	0.10918	0.15761	0.17074	0.041385	0.33052	0.067195	0.13507	0.10458	-2.0938	-2.6979	-2.8063	-2.4396	-2.8875	-2.6958	-2.4667	-2.8708	-2.4917	-2.5979	-2.6417	-2.3375	-2.7708	-2.6312	-2.1542	-2.8917	121.930	93.951	174.513	381.771	274.860	283.035	361.971	371.622	191.700	134.122	401.503	408.571	375.926	280.560	239.504	404.574	0.00049909	0.00015898	6.0874e-05	996.06	3.5313e-06	1.6001e-06	1087.6	211.32	2.3427e-06	2.4678e-06	265.97	74.579	58.114	17.108	1.1231e-06	23.859	9.2028e-05	7.6713e-05	2.2414e-05	974.83	8.9371e-07	8.4522e-07	1064.6	207.45	8.8134e-07	8.5621e-07	261.63	73.522	57.006	17.017	8.7585e-07	23.765	102.777	159.742	132.408	84.337	234.229	219.482	84.136	91.743	239.404	215.586	91.293	98.459	98.620	105.622	211.973	104.901	-8191	255	
8566.470	1	1	0	0	0.08908	0.13819	0.17635	0.25129	0.16935	0.068376	0.47105	0.10393	0.076306	0.20247	0.1878	0.1661	0.21065	0.31989	0.24716	0.22946	-1.9542	-2.6063	-2.8021	-2.4979	-2.5354	-2.7979	-2.6	-2.7417	-2.6458	-2.2917	-2.8438	-2.2792	-2.7167	-2.8583	-2.4292	-2.8271	202.730	91.946	241.768	353.226	406.074	368.988	369.102	100.233	320.240	228.441	363.516	387.477	367.399	99.037	208.625	184.536	0.00052312	0.0002336	5.3622e-05	995	2.6625e-06	2.3931e-06	1093	211.51	4.5587e-06	2.5161e-06	265.94	74.359	58.084	16.942	1.5825e-06	23.944	9.1493e-05	8.1121e-05	2.1503e-05	975.04	9.0619e-07	8.5182e-07	1063.8	207.68	8.9318e-07	8.6212e-07	261.3	73.324	57.071	17.002	8.7585e-07	23.801	99.876	117.213	171.982	84.101	224.297	220.548	84.236	91.644	229.588	220.069	91.530	98.744	98.581	105.707	226.626	104.938	-8191	255	
8566.542	1	1	0	0	0.15977	0.34027	0.0411	0.18403	0.21688	0.17108	0.31902	0.22259	0.29581	0.11802	0.11433	0.15062	0.18216	0.077179	0.30971	0.058387	-2.0083	-2.4896	-2.6854	-2.5563	-2.6646	-2.8688	-2.4417	-2.8417	-2.5708	-2.4479	-2.7458	-2.4833	-2.4958	-2.5875	-2.1771	-2.5833	144.498	221.865	150.824	360.471	381.731	232.048	107.167	83.721	325.884	220.375	174.817	91.724	249.655	269.635	237.241	206.375	0.00056987	0.00023581	6.7872e-05	999.26	4.5808e-06	2.8715e-06	1086.9	212.27	2.7106e-06	3.5235e-06	267.24	74.73	57.799	16.887	3.1151e-06	23.848	9.4227e-05	7.8018e-05	2.1697e-05	974.15	8.902e-07	8.5717e-07	1063.2	207.95	8.9578e-07	8.7039e-07	261.61	73.359	57.093	16.974	8.6091e-07	23.814	99.710	190.635	169.011	84.354	245.291	204.808	84.126	91.610	196.636	229.669	91.139	98.698	98.439	105.705	211.444	104.898	-8191	255	
8566.638	1	1	0	0	0.16734	0.2427	0.071177	0.23875	0.22478	0.24172	0.12465	0.1922	0.16241	0.32055	0.15253	0.10009	0.30334	0.32334	0.17795	0.038236	-2.1396	-2.4208	-2.7625	-2.5312	-2.4083	-2.8208	-2.5792	-2.6604	-2.6229	-2.5667	-2.7083	-2.6208	-2.5979	-2.8958	-2.4062	-2.7208	353.692	393.487	240.827	91.126	356.262	173.131	376.135	374.374	279.516	172.598	383.358	223.490	373.795	384.329	295.028	325.278	0.00049904	0.00027891	2.2345e-05	995.95	2.3668e-06	1.7698e-06	1089.4	210.99	2.2636e-06	1.3223e-06	266.41	74.161	58.178	16.943	2.3785e-06	23.692	9.3472e-05	7.8567e-05	2.0866e-05	973.99	8.8629e-07	8.3995e-07	1063.2	207.68	8.7803e-07	8.3211e-07	261.15	73.345	57.007	16.931	8.5617e-07	23.812	101.742	133.055	153.869	84.406	199.554	209.133	84.331	91.947	274.795	233.307	91.310	98.339	98.834	105.671	208.689	104.968	-8191	255	
8566.759	1	1	0	0	0.09338	0.21973	0.30498	0.31784	0.1914	0.1679	0.41099	0.05471	0.29998	0.1515	0.093173	0.17438	0.19	0.24792	0.062376	0.19578	-2.2104	-2.3208	-2.8083	-2.5312	-2.4792	-2.7604	-2.4542	-2.6646	-2.6146	-2.2562	-2.7208	-2.4437	-2.5812	-2.7292	-2.4354	-2.6562	82.654	221.426	432.243	394.053	275.082	282.737	363.303	268.156	136.664	312.133	234.428	340.817	100.862	395.161	309.112	332.430	0.00058541	0.00033959	3.3005e-05	993.14	3.1777e-06	3.3314e-06	1084	210.08	3.9707e-06	8.6174e-07	269.95	74.407	58.086	16.944	1.7647e-06	23.955	9.1208e-05	7.8264e-05	2.1597e-05	972.51	8.6959e-07	8.531e-07	1063.1	207.06	8.8975e-07	8.6292e-07	262.86	73.371	57.134	16.947	8.3915e-07	23.863	101.693	167.970	193.342	84.303	216.169	225.157	84.266	92.022	203.976	210.440	91.093	98.240	98.723	105.617	259.335	105.305	-8191	255	
8566.855	1	1	0	0	0.36447	0.067546	0.10635	0.14863	0.17685	0.19196	0.1998	0.31599	0.10944	0.077192	0.17243	0.032894	0.14221	0.10959	0.082417	0.24945	-2.3688	-2.2896	-2.6896	-2.7958	-2.5062	-2.9542	-2.55	-2.6083	-2.9854	-2.4646	-2.6792	-2.7354	-2.4417	-2.7625	-2.6917	-2.6479	397.989	268.275	366.159	112.089	370.264	286.438	350.870	365.006	146.665	348.881	422.590	294.516	85.267	431.436	356.385	319.415	0.00053529	0.00012801	5.8255e-05	997.03	3.1917e-06	2.5617e-06	1091.8	212.1	4.265e-06	5.4633e-06	268.51	74.379	58.029	16.927	4.1729e-06	23.846	9.2917e-05	7.7816e-05	2.121e-05	974.45	9.0531e-07	8.4602e-07	1064.1	207.93	8.8085e-07	8.3495e-07	262.54	73.329	57.151	16.962	8.6033e-07	23.806	98.036	151.164	161.324	84.117	210.037	195.699	84.548	91.924	228.682	189.670	90.783	98.277	98.462	105.602	216.417	105.016	-8191	255	
8566.951	1	1	0	0	0.0867	0.093697	0.42132	0.15984	0.080204	0.11908	0.12306	0.16591	0.044446	0.20297	0.18724	0.32092	0.18745	0.12408	0.3008	0.19061	-2.4542	-2.375	-2.7979	-2.8	-2.4146	-2.8937	-2.7708	-2.6292	-2.9437	-2.4813	-2.6188	-2.9396	-2.4437	-2.8354	-2.4667	-2.3563	148.190	76.290	170.042	433.642	196.079	397.266	432.734	329.634	174.416	129.798	91.276	103.094	116.566	386.162	122.755	376.288	0.00059082	0.00027431	7.6897e-05	992.14	2.6134e-06	2.1466e-06	1084.6	211.59	4.3732e-06	2.2125e-06	267.01	74.754	58.224	17.123	8.1605e-07	23.843	9.0577e-05	7.6216e-05	2.1989e-05	972.51	9.1757e-07	8.1171e-07	1062.5	207.68	8.9812e-07	8.6759e-07	262.24	73.643	57.048	17.042	8.72e-07	23.874	100.539	138.324	174.360	84.464	249.281	227.765	84.510	91.770	215.147	221.130	91.107	98.259	98.753	105.743	227.887	105.449	-8191	255	
8567.070	1	1	0	0	0.17416	0.23973	0.15627	0.44612	0.14071	0.16779	0.20803	0.19981	0.13619	0.0507	0.17958	0.055278	0.17911	0.095974	0.11438	0.061006	-2.3917	-2.575	-2.5146	-2.9375	-2.3688	-2.6708	-2.75	-2.4	-3.0479	-2.4104	-2.6417	-2.7521	-2.2583	-2.7625	-2.6833	-2.3771	100.011	385.867	280.161	406.329	91.960	375.632	345.307	428.810	361.409	193.276	353.058	273.724	380.341	396.255	256.027	119.507	0.00053679	0.00025567	9.4098e-05	999.9	2.7205e-06	1.4386e-06	1086.9	211.1	2.9851e-06	4.6105e-06	269.09	75.123	57.948	16.994	2.8876e-06	23.963	9.2482e-05	8.0143e-05	2.1603e-05	975.23	8.8383e-07	8.2406e-07	1064.3	207.49	8.8085e-07	8.3593e-07	262.41	73.621	56.973	16.997	8.6077e-07	23.845	100.668	165.185	125.864	84.360	190.190	269.763	84.425	91.825	230.281	254.138	91.457	98.727	98.693	105.846	232.699	104.751	-8191	255	
8567.142	1	1	0	0	0.13894	0.04592	0.20542	0.23454	0.21845	0.10728	0.17029	0.17112	0.23198	0.16426	0.1708	0.36607	0.16829	0.19906	0.3233	0.2872	-2.3729	-2.3104	-2.7062	-2.9771	-2.4396	-2.7979	-2.7708	-2.4104	-2.8708	-2.5563	-2.5854	-2.9417	-2.4521	-2.6271	-2.7062	-2.4542	378.243	409.558	304.701	367.852	371.913	170.676	414.439	414.655	88.184	175.383	162.058	403.356	333.146	108.390	141.477	432.673	0.00055684	0.00011272	8.96e-05	996.95	1.5833e-06	2.2636e-06	1093.1	212.63	4.7275e-06	1.8535e-06	266.67	74.683	58.243	17.075	5.2227e-06	23.887	9.1227e-05	7.9153e-05	2.1746e-05	975.1	8.7096e-07	8.5792e-07	1065.6	208.21	8.7107e-07	8.5136e-07	261.69	73.729	57.131	17.079	8.6926e-07	23.916	102.482	277.622	134.726	84.225	158.599	263.551	84.313	91.885	203.886	176.322	91.325	98.421	98.736	106.179	216.029	105.051	-8191	255	
8567.239	1	1	0	0	0.089983	0.13326	0.055009	0.12287	0.18601	0.18733	0.42495	0.13176	0.1921	0.13913	0.41709	0.045074	0.1628	0.17748	0.088046	0.14437	-2.3042	-2.5208	-2.5104	-2.8771	-2.3896	-2.8104	-2.7979	-2.3479	-2.7771	-2.6375	-2.3458	-2.9646	-2.3521	-2.5354	-2.7083	-2.525	192.541	406.325	166.854	81.020	194.362	249.769	371.785	175.673	119.318	342.669	393.286	254.729	309.340	380.525	175.372	138.660	0.00054686	0.00034816	8.021e-05	1000.8	3.9187e-06	4.2153e-06	1088.7	210.89	2.7318e-06	3.4705e-06	267.5	74.333	58.433	17.006	4.6241e-07	23.839	9.3449e-05	7.7092e-05	2.1568e-05	978.48	9.1208e-07	8.3823e-07	1067	207.92	8.631e-07	8.3815e-07	263.2	73.536	57.338	17.078	8.6024e-07	23.862	99.810	129.162	172.489	84.103	196.917	228.638	84.164	92.207	245.905	215.000	91.327	98.069	98.864	105.495	199.829	105.081	-8191	255	
8567.358	1	1	0	0	0.06475	0.10403	0.27239	0.27566	0.037876	0.023636	0.28589	0.28587	0.026435	0.18702	0.12477	0.32893	0.21919	0.097429	0.094664	0.092044	-2.3521	-2.4917	-2.2979	-2.9125	-2.4542	-2.4729	-3.0229	-2.475	-2.5979	-2.5396	-2.3104	-2.7333	-2.4313	-2.5062	-2.9437	-2.3646	411.446	272.006	423.155	401.737	299.370	131.764	328.489	357.675	310.934	164.449	109.055	300.983	253.972	248.275	280.497	412.885	0.00053629	0.00016679	2.0983e-05	996.71	1.9867e-06	4.0849e-06	1087	212.03	1.6551e-06	2.7386e-06	269.21	74.966	58.35	17.016	3.0977e-06	23.928	9.5474e-05	8.0139e-05	2.1845e-05	977.46	8.8396e-07	8.5031e-07	1066.4	208.21	8.8728e-07	8.3122e-07	262.88	73.634	57.261	17.041	8.3017e-07	23.902	97.777	412.576	155.607	84.234	209.995	224.499	84.121	92.073	220.966	189.716	91.344	98.352	98.545	105.725	229.211	104.928	-8191	255	
8567.454	1	1	0	0	0.16146	0.10619	0.07988	0.24624	0.18112	0.010957	0.2301	0.089766	0.12381	0.12863	0.20689	0.097935	0.253	0.19546	0.2882	0.073083	-2.2062	-2.4479	-2.4625	-2.9167	-2.4938	-2.2062	-3.025	-2.3146	-2.5417	-2.6312	-2.3771	-2.7833	-2.6542	-2.4896	-2.7833	-2.45	135.010	389.274	123.625	400.033	273.930	219.951	387.745	122.816	165.221	132.267	385.512	402.345	93.814	354.284	392.887	313.561	0.00053304	0.00020937	0.00013166	997.76	2.861e-06	2.5228e-06	1088.1	212.72	6.3535e-06	2.3492e-06	266.3	74.906	58.531	16.957	2.0821e-06	23.989	9.2867e-05	7.7662e-05	2.1507e-05	976.41	8.4908e-07	8.4721e-07	1066.6	208.56	8.6728e-07	8.6034e-07	262.53	73.669	57.305	17.02	8.5555e-07	23.922	101.679	160.908	156.928	84.012	226.341	207.315	84.027	91.562	227.414	215.559	91.331	98.274	98.414	105.605	192.348	105.065	-8191	255	
8567.551	1	1	0	0	0.10383	0.22306	0.10242	0.19134	0.31155	0.074834	0.041969	0.37185	0.20647	0.26425	0.20587	0.085625	0.13327	0.081887	0.32105	0.18187	-2.1312	-2.775	-2.25	-2.7333	-2.6708	-2.3688	-2.9167	-2.4604	-2.6104	-2.6063	-2.1792	-2.8167	-2.7771	-2.3688	-2.9646	-2.5854	153.036	104.305	210.771	321.811	164.019	178.498	310.370	370.916	408.971	285.113	375.562	171.275	258.757	75.080	427.448	389.962	0.00060895	0.00034391	6.5243e-05	998.27	2.4388e-06	9.8511e-07	1089.4	210.67	2.6796e-06	1.7363e-06	266.88	74.729	58.126	17.032	2.7066e-06	23.948	9.5343e-05	7.5763e-05	2.1366e-05	976.73	9.0083e-07	8.3243e-07	1064.4	207.26	8.9437e-07	8.2544e-07	262.54	73.517	57.079	17.06	8.5317e-07	23.802	100.981	151.790	149.529	84.070	239.067	150.129	84.296	91.880	219.502	141.447	91.239	98.130	98.760	106.061	227.763	105.454	-8191	255	
8567.671	1	1	0	0	0.2455	0.17686	0.12637	0.033013	0.060263	0.16236	0.17402	0.071756	0.12228	0.088547	0.22864	0.39675	0.027041	0.049772	0.082904	0.08478	-2.2	-2.8542	-2.5	-2.8583	-2.7396	-2.3542	-3.0667	-2.5625	-2.4292	-2.8833	-2.3937	-2.6937	-2.7271	-2.2542	-2.8542	-2.6021	370.449	361.323	412.072	105.747	336.722	312.711	338.788	283.446	95.094	336.959	82.091	92.955	94.282	236.919	259.920	195.257	0.00062259	0.00014507	5.1709e-05	998.61	4.2636e-06	2.8822e-06	1087.5	211.16	1.3528e-06	2.0715e-06	268.54	74.946	57.968	16.983	3.3303e-06	23.77	9.3753e-05	7.9032e-05	2.1215e-05	974.74	8.6349e-07	8.3247e-07	1065.4	207.83	8.7041e-07	8.2401e-07	261.93	73.554	57.044	16.982	8.3672e-07	23.782	98.676	112.602	131.945	84.032	214.127	201.979	84.285	91.801	267.399	200.615	91.239	98.435	98.732	105.409	194.201	104.565	-8191	255	
8567.767	1	1	0	0	0.18646	0.17276	0.1927	0.26597	0.059957	0.28849	0.20437	0.036366	0.22143	0.12235	0.31885	0.28169	0.15052	0.12793	0.38372	0.064003	-2.0687	-2.6562	-2.4646	-2.7875	-2.9354	-2.3583	-2.8354	-2.7687	-2.4375	-2.9333	-2.5563	-2.5042	-2.7646	-2.3479	-2.6917	-2.6688	208.939	183.820	91.482	334.967	351.491	106.399	413.809	421.146	386.263	359.242	403.251	332.674	416.390	403.784	172.842	346.784	0.00054617	0.00021509	6.3998e-05	997.21	4.2849e-06	1.7422e-07	1088.3	211.75	2.4712e-06	3.5854e-06	267.93	74.49	58.608	17.093	2.363e-07	23.733	9.4612e-05	7.7137e-05	2.1756e-05	977.8	8.9899e-07	8.6868e-07	1063.3	208.03	8.8477e-07	8.3215e-07	262.17	73.597	57.285	17.05	8.3048e-07	23.822	99.056	169.949	156.045	84.409	209.247	128.169	84.225	91.834	208.755	208.047	91.231	98.340	98.896	105.550	355.526	105.512	-8191	255	
8567.839	1	1	0	0	0.20975	0.26771	0.10458	0.21624	0.082915	0.19561	0.3334	0.23917	0.1764	0.10233	0.20089	0.1663	0.21088	0.1039	0.34929	0.14147	-1.8625	-3.0229	-2.2458	-2.7521	-2.8167	-2.4521	-2.8104	-2.6479	-2.4417	-2.8125	-2.6292	-2.5875	-2.9792	-2.3729	-2.6667	-2.7958	219.494	298.173	229.402	110.449	277.879	186.827	86.802	399.340	199.153	426.894	339.770	167.701	412.392	100.392	328.018	335.237	0.00055052	0.0002065	7.5601e-05	996.87	3.0826e-06	9.4993e-07	1092.2	211.74	4.4842e-06	3.997e-06	265.94	74.709	57.9	16.913	3.0562e-06	23.703	9.4396e-05	7.8143e-05	2.2306e-05	975.36	8.8897e-07	8.357e-07	1065.8	207.7	8.8455e-07	8.5794e-07	261.85	73.557	57.085	16.98	8.5162e-07	23.843	92.454	146.147	197.525	84.321	209.688	270.140	84.313	91.663	209.334	233.307	91.534	98.264	98.862	105.838	225.344	105.467	-8191	255	
8567.935	1	1	0	0	0.25668	0.20942	0.064472	0.087859	0.084665	0.12977	0.1379	0.22567	0.22263	0.13829	0.25404	0.27149	0.31556	0.25198	0.17044	0.1347	-2.0458	-2.8375	-2.4292	-2.6979	-2.9458	-2.3521	-2.8438	-2.85	-2.2479	-2.8125	-2.7375	-2.4604	-2.8625	-2.5625	-2.7396	-2.8104	154.984	416.893	155.811	205.649	416.092	89.279	410.666	323.295	416.054	215.224	285.656	82.230	321.911	171.328	247.201	338.320	0.0004849	0.00033053	9.0192e-05	998.31	3.6369e-06	2.4732e-06	1088.4	211.7	1.6656e-06	3.2636e-06	266.03	74.692	58.133	17.046	2.3857e-06	23.899	9.2979e-05	7.6474e-05	2.1455e-05	974.58	8.9253e-07	8.5987e-07	1064.6	207.86	8.5266e-07	8.4794e-07	262.2	73.497	57.114	17.039	8.6493e-07	23.877	100.016	176.056	158.958	84.385	204.511	187.508	84.270	91.783	211.922	188.934	91.255	98.126	98.935	105.914	262.912	105.236	-8191	255	
8568.031	1	1	0	0	0.21259	0.095515	0.0015072	0.35737	0.18709	0.10192	0.17834	0.38718	0.28053	0.26835	0.15223	0.12296	0.16365	0.32709	0.22363	0.16384	-1.9042	-2.8688	-2.6125	-2.5146	-2.8208	-2.4792	-2.7229	-2.9167	-2.1146	-2.6854	-2.75	-2.5396	-2.8854	-2.5292	-2.6667	-2.775	245.683	204.294	180.000	394.327	81.649	359.423	368.590	372.733	355.716	309.668	402.343	136.999	250.405	183.887	330.881	388.560	0.00048083	0.00021566	8.6183e-05	994.87	2.2934e-06	2.3654e-06	1087.8	211.76	2.9952e-06	2.2401e-06	266.31	74.507	58.71	16.961	3.1933e-06	23.884	9.3961e-05	7.9606e-05	2.1973e-05	973.73	8.8361e-07	8.5e-07	1064.5	207.88	8.8437e-07	8.6266e-07	261.58	73.427	57.15	17.003	8.7585e-07	23.829	95.971	168.794	174.051	84.171	165.546	262.305	84.285	92.002	257.059	239.858	91.101	98.515	98.848	105.399	150.804	104.885	-8191	255	
8568.150	1	1	0	0	0.17549	0.16644	0.2444	0.12322	0.045891	0.13881	0.10546	0.22571	0.17491	0.14981	0.066867	0.11735	0.12672	0.10103	0.14041	0.16854	-1.9229	-2.7229	-2.7083	-2.4708	-2.95	-2.4854	-2.7417	-2.8688	-2.4188	-2.7083	-2.8792	-2.3979	-2.8646	-2.6937	-2.4375	-2.9688	142.022	79.044	320.934	181.787	286.895	229.396	409.980	359.112	356.740	221.335	408.016	302.411	328.384	191.647	253.468	406.714	0.00048917	0.00048134	7.7356e-05	998.78	5.2741e-07	9.7434e-07	1088.1	211.54	2.976e-06	2.7655e-06	267.51	74.512	58.483	17.068	2.9729e-06	23.789	9.3491e-05	8.1598e-05	2.166e-05	975.11	8.844e-07	8.4274e-07	1064.1	208.17	8.4896e-07	8.2695e-07	262.4	73.47	57.276	17.007	8.9469e-07	23.887	97.395	155.563	115.231	84.262	211.572	219.954	84.410	92.033	209.185	233.142	91.312	98.515	98.454	105.556	232.596	105.348	-8191	255	
8568.246	1	1	0	0	0.14366	0.13277	0.083598	0.21974	0.18986	0.17375	0.17273	0.1543	0.072527	0.0428	0.029493	0.21193	0.14115	0.061734	0.10876	0.084713	-2.0458	-2.7042	-2.8688	-2.6167	-2.9042	-2.7875	-2.8854	-2.925	-2.5396	-2.7542	-3.0167	-2.4708	-2.6917	-2.6354	-2.5	-2.9583	414.185	270.092	358.594	302.770	188.869	194.120	291.793	401.083	318.263	105.812	314.632	110.087	292.751	340.807	103.269	220.465	0.00056893	0.00011619	1.2752e-05	999.33	3.4473e-06	1.3129e-06	1091.6	212.22	3.0067e-06	2.3807e-06	268.31	74.612	57.8	17.106	1.7385e-07	23.883	9.3684e-05	7.9372e-05	2.1425e-05	976.06	9.0066e-07	8.6266e-07	1065.7	208.05	9.1878e-07	8.7284e-07	262.13	73.452	57.028	17.073	8.5931e-07	23.828	94.413	100.486	156.254	84.074	205.595	207.557	84.140	92.386	149.169	230.935	91.447	98.662	98.746	105.725	94.806	105.278	-8191	255	
8568.343	1	1	0	0	0.3746	0.16112	0.081664	0.10994	0.15983	0.25525	0.25972	0.29865	0.10208	0.33732	0.17069	0.16971	0.27662	0.22818	0.17228	0.11207	-1.9562	-2.5833	-2.8979	-2.6729	-2.8896	-2.5854	-2.5479	-2.9062	-2.7188	-2.6396	-2.8146	-2.4021	-2.7958	-2.75	-2.4854	-2.9729	395.927	162.808	430.439	356.359	300.610	397.351	368.510	369.415	82.805	396.666	387.837	93.598	433.711	145.103	84.720	287.842	0.00052151	0.00020535	8.1464e-05	996.01	2.5034e-06	2.66e-06	1087.6	211.26	4.1874e-06	3.0264e-06	267.5	74.621	57.886	16.927	1.9475e-06	23.857	9.4639e-05	7.9541e-05	2.0956e-05	974.91	8.9771e-07	8.5531e-07	1064.4	208.05	9.1587e-07	8.7484e-07	262.11	73.52	56.946	17.011	8.9677e-07	23.877	96.004	154.100	174.749	84.125	219.766	246.726	84.109	91.895	195.785	233.241	91.418	98.781	98.752	105.997	243.079	104.967	-8191	255	
8568.439	1	1	0	0	0.11384	0.20658	0.10807	0.31574	0.13292	0.11482	0.20486	0.23027	0.10144	0.18427	0.31354	0.085119	0.095964	0.15996	0.19109	0.091853	-2.175	-2.6417	-2.7354	-2.5958	-2.7958	-2.6458	-2.4521	-2.9667	-2.5417	-2.5333	-2.9771	-2.3542	-2.6229	-2.9625	-2.3833	-2.7229	431.330	426.747	175.204	99.862	146.814	374.046	357.241	372.763	250.509	87.872	393.888	376.523	338.959	82.750	158.790	79.736	0.00058579	0.0003428	6.7414e-05	997.87	3.4336e-06	2.6884e-06	1089.3	211.51	2.4264e-06	2.1373e-06	267.08	74.677	58.045	16.956	1.445e-06	23.801	9.6206e-05	8.2184e-05	2.1721e-05	975.37	8.8493e-07	8.4938e-07	1064.3	208.04	9.1671e-07	8.8369e-07	262.37	73.368	56.924	16.978	8.9301e-07	23.815	99.113	138.149	171.341	84.410	221.566	259.173	84.457	91.795	243.220	190.472	90.982	98.252	98.229	105.601	163.064	105.027	-8191	255	
8568.535	1	1	0	0	0.14858	0.12379	0.23823	0.19413	0.24594	0.32042	0.34322	0.30867	0.10522	0.083697	0.11934	0.062399	0.1904	0.15334	0.075491	0.071071	-2.2167	-2.3021	-2.8771	-2.5896	-2.6521	-2.7458	-2.5563	-2.7562	-2.5917	-2.6125	-2.8583	-2.3646	-2.6	-2.8646	-2.3646	-2.6979	275.645	262.412	91.989	380.016	162.746	266.787	385.316	430.221	186.232	145.233	186.395	403.174	211.150	365.096	379.108	269.989	0.00054557	0.00028083	3.0604e-05	997.1	2.9218e-06	1.1853e-06	1089.4	211.97	2.2322e-06	3.3564e-06	268.08	74.16	58.114	17.085	2.2463e-06	23.804	9.3118e-05	7.8454e-05	2.1217e-05	974.89	8.9582e-07	8.2973e-07	1065.5	208.09	8.8821e-07	8.5657e-07	262.32	73.235	57.095	16.999	8.8889e-07	23.803	97.824	129.926	231.323	84.024	204.511	205.443	84.195	92.079	221.675	202.107	91.398	98.179	98.625	105.920	223.658	104.577	-8191	255	
8568.631	1	1	0	0	0.080793	0.17449	0.221	0.061774	0.099617	0.22553	0.30936	0.066991	0.22577	0.041409	0.095545	0.16872	0.11806	0.2975	0.19946	0.26431	-2.2562	-2.3792	-2.8146	-2.5458	-2.3875	-2.7708	-2.3479	-2.8833	-2.6667	-2.5563	-2.9938	-2.7146	-2.6167	-2.5563	-2.3917	-2.7854	324.351	250.985	161.938	317.066	391.628	230.733	357.922	236.777	327.764	202.560	419.368	397.312	248.679	278.269	109.646	278.988	0.00051167	0.00039429	8.2728e-05	994.92	2.6571e-06	1.2005e-06	1087	210.98	4.1504e-06	3.1613e-06	266.96	74.825	58.368	16.86	4.354e-06	23.921	9.5101e-05	8.2152e-05	2.224e-05	974.2	8.8998e-07	8.5726e-07	1064.8	207.71	8.8222e-07	8.6871e-07	262.31	73.644	57.267	16.962	8.8067e-07	23.829	95.372	161.005	156.547	84.309	220.519	213.209	84.017	92.030	200.795	304.855	91.487	98.274	98.601	105.392	235.708	105.056	-8191	255	
8568.752	1	1	0	0	0.10915	0.2572	0.039217	0.51082	0.12645	0.064207	0.23113	0.2913	0.37827	0.20453	0.17824	0.11146	0.093692	0.10676	0.27786	0.1657	-2.2438	-2.375	-2.85	-2.7208	-2.4479	-3.0458	-2.4917	-2.8396	-2.8146	-2.4104	-2.9896	-2.7667	-2.3833	-2.7875	-2.4375	-2.6562	430.604	389.041	331.362	406.728	375.782	155.023	285.423	316.419	318.792	422.850	356.022	326.375	409.521	133.447	243.796	431.380	0.00055811	0.00039237	5.5935e-05	997.34	2.5002e-06	4.6803e-06	1092.4	212.15	2.7848e-06	4.227e-06	268.08	74.336	57.871	17.031	1.8582e-06	23.824	9.2871e-05	7.7331e-05	2.1921e-05	975.77	9.0813e-07	8.4991e-07	1065.7	208.18	8.9728e-07	8.6564e-07	262.37	73.419	57.068	17.033	8.7497e-07	23.87	94.402	126.819	161.768	84.205	246.217	215.702	84.333	92.064	238.650	199.965	91.215	98.475	99.011	105.710	221.105	105.164	-8191	255	
8568.846	1	1	0	0	0.17552	0.095662	0.072931	0.31027	0.24798	0.14055	0.33126	0.35567	0.074701	0.13192	0.24744	0.15265	0.31339	0.11467	0.44398	0.092443	-2.3583	-2.3146	-2.7146	-2.7812	-2.3812	-2.9813	-2.4938	-2.5687	-2.8667	-2.3667	-2.8167	-2.6958	-2.7375	-2.7562	-2.4521	-2.7625	283.198	264.702	129.403	351.246	218.225	432.665	352.962	74.702	289.120	187.883	354.147	325.443	117.434	309.135	240.898	264.881	0.00049121	0.00017932	9.9878e-05	997.42	3.4623e-06	5.7161e-07	1089.6	212.33	2.7515e-06	3.3434e-06	268.44	74.086	58.002	17.045	6.0091e-07	23.857	9.2609e-05	7.506e-05	2.148e-05	976.73	9.3238e-07	8.4717e-07	1065.4	207.99	8.8658e-07	8.9619e-07	261.85	73.288	57.212	17.061	8.6745e-07	23.838	99.539	126.022	136.778	84.335	205.760	184.699	84.390	91.834	262.745	233.665	91.213	98.205	98.868	105.387	310.197	104.946	-8191	255	
8568.942	1	1	0	0	0.20296	0.35955	0.14184	0.2452	0.081295	0.092205	0.15508	0.24435	0.10116	0.061924	0.086628	0.34416	0.2805	0.13528	0.33266	0.259	-2.3271	-2.2625	-2.6854	-2.6979	-2.2521	-2.9042	-2.6708	-2.4813	-2.85	-2.3354	-2.6479	-2.7479	-2.4479	-2.7979	-2.6604	-2.4562	137.647	161.356	99.851	97.843	174.122	171.838	422.906	334.688	310.759	393.914	105.321	357.145	242.771	175.995	285.890	407.102	0.00055834	0.00015778	3.605e-05	995.78	3.4016e-06	2.4015e-06	1089.3	212.06	1.0765e-06	2.0662e-06	267.65	75.006	58.34	17.038	1.8643e-06	23.676	9.2602e-05	7.8555e-05	2.1896e-05	974.07	8.8743e-07	8.5182e-07	1064.9	208.31	8.7803e-07	8.6448e-07	262.56	73.469	57.288	17.016	8.674e-07	23.779	94.246	175.042	189.778	84.470	239.084	216.714	84.144	91.648	212.875	188.993	90.989	98.409	98.879	105.408	193.466	105.001	-8191	255	
8569.040	1	1	0	0	0.069675	0.038905	0.21483	0.13834	0.27507	0.22563	0.1319	0.056639	0.097034	0.44053	0.14605	0.34258	0.063373	0.21291	0.12452	0.35604	-2.2604	-2.4125	-2.7104	-2.8625	-2.4667	-2.7438	-2.7792	-2.3333	-2.6479	-2.2792	-2.6042	-2.85	-2.4292	-2.8438	-2.3917	-2.3771	215.588	231.479	268.514	419.742	378.180	225.108	311.905	230.396	313.426	418.191	322.371	391.272	132.431	125.140	408.968	194.593	0.00057405	0.00027258	5.5501e-05	996.41	1.5109e-06	2.9475e-06	1089.7	211.32	3.0149e-06	1.344e-06	267.37	74.709	58.006	17.063	3.944e-06	23.658	9.2259e-05	7.8143e-05	2.1554e-05	974.97	9.1032e-07	8.2774e-07	1065.1	207.93	9.0102e-07	8.635e-07	262.66	73.632	57.079	17.018	8.7585e-07	23.849	100.747	166.135	165.977	84.235	224.748	155.179	84.210	92.055	215.423	275.570	91.256	98.077	98.794	105.427	219.411	105.294	-8191	255	
8569.134	1	1	0	0	0.23701	0.042536	0.052876	0.30714	0.15102	0.15059	0.33249	0.27729	0.23939	0.22221	0.23494	0.13691	0.15448	0.24312	0.30668	0.1385	-2.2479	-2.4604	-2.5396	-2.9375	-2.2375	-2.6042	-2.7396	-2.6875	-2.6479	-2.6521	-2.4833	-2.875	-2.3167	-2.6083	-2.7562	-2.3833	177.617	264.878	377.037	401.634	124.776	159.423	339.566	282.628	353.038	160.705	388.698	394.703	377.619	81.001	229.110	331.221	0.0005571	0.0003223	0.00010198	996.33	4.1127e-06	1.2691e-06	1085.6	210.93	2.0929e-06	2.7804e-06	268.03	74.442	58.053	16.94	1.7788e-06	23.971	9.1682e-05	8.0798e-05	2.234e-05	974.3	9.1805e-07	8.4916e-07	1064.6	207.62	8.6993e-07	8.547e-07	261.98	73.329	57.168	16.961	8.7497e-07	23.876	98.034	157.264	165.538	84.378	184.807	215.201	84.241	92.105	241.215	243.608	91.011	98.707	98.798	105.560	218.116	105.157	-8191	255	
8569.231	1	1	0	0	0.22202	0.23206	0.18983	0.50331	0.13101	0.12226	0.26491	0.034556	0.14585	0.056783	0.17929	0.059103	0.21698	0.10507	0.17024	0.18425	-2.2792	-2.4313	-2.3833	-2.9146	-2.4	-2.4313	-2.8104	-2.4521	-2.6708	-2.5729	-2.3667	-2.8146	-2.45	-2.5854	-2.8083	-2.35	387.561	176.919	129.659	333.568	302.113	312.789	421.670	406.603	428.450	316.380	386.378	365.870	410.511	244.655	114.702	263.207	0.00055825	0.00014851	9.4101e-05	999.05	3.087e-06	2.0199e-06	1083.6	211.6	1.9505e-06	1.5803e-06	266.27	74.958	57.962	17.013	3.6769e-06	23.777	9.2178e-05	7.9262e-05	2.2788e-05	975.37	9.1001e-07	8.5934e-07	1063.9	207.72	8.6861e-07	8.8187e-07	262.02	73.481	57.161	16.999	8.8447e-07	23.874	98.360	136.125	184.100	84.446	232.331	192.276	84.299	91.772	199.484	244.289	91.169	98.197	98.600	105.453	201.744	105.189	-8191	255	
8569.327	1	1	0	0	0.20148	0.27434	0.22967	0.094005	0.21058	0.24757	0.21242	0.34376	0.11194	0.10047	0.39711	0.26261	0.19353	0.25946	0.10269	0.11683	-2.2708	-2.325	-2.5792	-2.9771	-2.525	-2.4583	-2.8125	-2.4729	-2.7104	-2.6813	-2.4542	-2.7896	-2.5854	-2.6646	-2.7354	-2.45	278.248	243.688	417.690	329.095	183.242	281.041	392.493	393.163	387.268	188.494	398.916	88.641	283.806	228.691	334.877	414.629	0.00056766	0.00042647	3.3947e-05	1001.1	3.4908e-06	1.1251e-06	1088.9	211.68	4.6433e-06	1.4083e-06	267.73	74.114	58.338	17.034	2.5305e-06	23.868	9.3226e-05	7.8523e-05	2.2006e-05	976.2	8.8269e-07	8.5204e-07	1064.3	207.53	8.7103e-07	8.5456e-07	262.68	73.272	57.151	17.027	8.4242e-07	23.853	104.488	151.125	233.779	84.159	191.019	179.549	84.296	91.785	224.663	187.208	91.307	98.487	99.066	105.384	176.729	105.514	-8191	255	
8569.447	1	1	0	0	0.083943	0.058661	0.15437	0.21093	0.10444	0.18259	0.1628	0.14394	0.13887	0.19182	0.16715	0.11998	0.27507	0.12856	0.073028	0.25774	-2.3042	-2.7062	-2.2875	-3.0583	-2.6021	-2.4833	-2.9542	-2.525	-2.6958	-2.7062	-2.3875	-2.8042	-2.5563	-2.6167	-2.8479	-2.4667	207.500	357.124	335.716	372.525	241.548	372.777	371.443	178.370	396.734	105.808	406.502	96.306	166.730	185.409	236.553	292.331	0.00055377	0.00022812	4.0938e-05	998	3.4878e-06	1.1459e-06	1089.8	210.78	3.0537e-06	3.6036e-06	265.81	74.502	57.93	17.099	2.4708e-06	23.858	9.701e-05	7.6474e-05	2.1245e-05	975.54	9.0127e-07	8.2756e-07	1065.1	207.95	8.8671e-07	8.5977e-07	262	73.495	57.107	17.023	8.6108e-07	23.886	96.725	119.645	167.097	84.062	219.784	198.761	84.097	91.927	275.002	203.470	91.332	98.319	98.676	105.841	131.823	105.277	-8191	255	
8569.544	1	1	0	0	0.10535	0.0098735	0.1932	0.22811	0.203	0.23763	0.2393	0.14459	0.083846	0.28803	0.05864	0.15488	0.13018	0.10192	0.052456	0.041056	-2.2208	-2.7146	-2.425	-2.9271	-2.7021	-2.3083	-2.9333	-2.3896	-2.6083	-2.7438	-2.4188	-2.85	-2.5021	-2.2292	-2.8521	-2.4917	240.637	276.286	383.970	420.030	402.841	234.389	367.244	265.611	90.155	375.982	291.849	336.731	140.266	286.102	303.372	212.632	0.00050438	0.00043431	7.7225e-05	996.46	2.6563e-06	1.9317e-06	1087.3	210.86	2.7839e-06	4.591e-06	266.44	74.434	57.427	17.005	1.6618e-06	23.855	9.4989e-05	7.6692e-05	2.1989e-05	974.39	9.0518e-07	8.6085e-07	1063.7	207.39	8.7054e-07	8.575e-07	262.32	73.417	56.991	17.024	8.7828e-07	23.867	85.244	132.141	163.800	83.993	315.549	220.538	84.176	91.664	199.001	229.848	91.117	98.127	98.688	105.447	216.014	105.212	-8191	255	
8569.640	1	1	0	0	0.088007	0.22254	0.21885	0.12991	0.094667	0.035922	0.070867	0.21222	0.20271	0.20677	0.24922	0.25091	0.17673	0.089662	0.25677	0.16159	-2.2646	-2.5625	-2.2687	-2.5354	-2.7042	-2.3521	-2.8771	-2.4646	-2.6125	-2.7625	-2.4396	-2.7771	-2.6562	-2.6854	-2.9083	-2.5208	203.652	422.434	257.107	310.345	316.448	188.211	238.746	222.378	337.466	421.592	394.404	74.526	402.216	139.822	274.111	282.248	0.00050047	0.00013793	0.00010652	994.03	3.1468e-06	2.757e-06	1087.4	211.21	3.865e-06	4.8816e-07	266.41	74.197	58.179	17.015	2.8846e-06	23.867	9.3915e-05	7.8058e-05	2.1771e-05	974.39	8.8752e-07	8.7173e-07	1064.2	207.58	8.8772e-07	8.5643e-07	261.66	73.22	57.111	17.037	8.3853e-07	23.827	98.160	314.010	160.855	84.393	234.836	250.337	84.062	91.823	248.911	256.437	91.100	98.373	98.620	106.076	197.756	104.807	-8191	255	
8569.711	1	1	0	0	0.19042	0.16822	0.38739	0.26785	0.16507	0.13157	0.13423	0.40524	0.18858	0.1605	0.1412	0.08877	0.07364	0.10134	0.012597	0.31915	-2.0833	-2.8542	-2.2854	-2.6167	-2.5771	-2.3583	-2.9813	-2.6667	-2.5292	-2.6813	-2.6	-2.6729	-2.7979	-2.4479	-2.8875	-2.5146	323.012	209.837	73.794	397.897	126.118	325.831	352.311	372.826	353.070	257.662	342.314	395.827	409.416	327.559	297.028	344.859	0.00054811	0.0001213	8.9077e-05	996.78	3.1093e-06	2.0816e-06	1087.4	211.82	2.6626e-06	3.847e-06	267.16	74.661	58.288	17.05	4.1775e-06	24.023	9.3807e-05	7.7549e-05	2.1066e-05	974.75	9.0171e-07	8.5938e-07	1064.3	208.14	8.968e-07	8.402e-07	261.81	73.438	57.275	16.988	8.6139e-07	23.895	94.354	87.719	184.154	84.307	213.724	162.246	84.213	91.738	226.202	188.946	91.491	98.576	98.748	105.784	233.619	104.604	-8191	255	
8569.832	1	1	0	0	0.26714	0.075619	0.077593	0.22427	0.069656	0.02859	0.22541	0.34055	0.09149	0.073543	0.19531	0.15479	0.13935	0.1476	0.083532	0.22298	-2.0292	-2.7375	-2.3771	-2.6542	-2.5896	-2.4333	-2.7375	-2.8375	-2.4729	-3.025	-2.5729	-2.7	-2.775	-2.4625	-2.7438	-2.5958	154.132	208.017	83.456	410.790	281.188	349.330	391.533	352.122	351.719	315.482	211.183	90.293	191.550	406.858	430.396	386.944	0.00052478	0.00024788	4.4796e-05	995.41	3.0729e-06	3.7212e-06	1092	211.58	4.3196e-06	1.9399e-06	267.16	74.815	57.706	16.957	3.6043e-06	23.876	9.1531e-05	7.9477e-05	2.181e-05	974	8.9389e-07	8.5084e-07	1066.3	207.4	8.9257e-07	8.3936e-07	262.26	73.503	56.938	16.983	8.8496e-07	23.777	100.317	157.632	141.337	84.414	173.973	201.012	84.117	92.102	222.573	234.695	91.131	98.160	98.835	106.382	208.618	104.393	-8191	255	
8569.928	1	1	0	0	0.15589	0.25126	0.29125	0.15728	0.13627	0.084208	0.25464	0.10387	0.23065	0.19848	0.26145	0.18625	0.1065	0.18926	0.10041	0.18034	-1.9417	-2.7479	-2.4646	-2.8417	-2.9	-2.4604	-2.8333	-2.6937	-2.4583	-2.8854	-2.5042	-2.6625	-2.8667	-2.3792	-2.6458	-2.7062	100.162	244.002	315.766	406.415	206.411	321.636	322.106	325.520	405.058	83.303	240.695	380.183	353.483	255.696	369.732	281.165	0.00051224	0.00016493	7.6037e-05	994.48	1.2277e-06	2.016e-06	1086.3	210.38	6.0483e-06	3.2176e-06	266.94	74.936	58.066	16.99	2.3465e-06	23.812	9.353e-05	7.8236e-05	2.116e-05	973.32	8.8242e-07	8.5846e-07	1065.2	207.33	8.8671e-07	8.3518e-07	262.02	73.713	57.136	16.995	8.7271e-07	23.836	93.645	170.488	159.832	84.392	193.372	211.126	84.260	91.843	252.256	238.730	91.140	98.437	98.933	105.289	160.320	104.915	-8191	255	
8570.024	1	1	0	0	0.19371	0.16232	0.2042	0.29832	0.13892	0.13119	0.33238	0.25835	0.14033	0.10398	0.18946	0.21547	0.068788	0.16026	0.067496	0.35152	-1.8854	-2.7229	-2.4146	-2.5	-2.8021	-2.5458	-2.6833	-2.7396	-2.35	-2.7646	-2.5312	-2.5771	-2.9313	-2.2333	-2.5354	-2.7229	410.351	324.700	231.851	396.215	245.173	274.959	330.572	397.468	260.081	157.221	386.139	304.924	424.802	95.220	228.575	402.505	0.00045436	0.00021974	5.8856e-05	994.09	3.2531e-06	1.4224e-06	1088.2	211.12	3.6732e-06	3.2162e-06	267.41	74.343	58.196	17.232	9.3314e-07	24.009	9.3299e-05	7.7169e-05	2.1696e-05	973.52	9.1353e-07	8.4867e-07	1064.1	207.45	8.9829e-07	8.5683e-07	261.8	73.355	57.108	17.079	8.7169e-07	23.842	104.102	174.408	161.356	84.243	212.157	151.722	84.518	91.995	231.859	198.425	91.187	98.229	98.470	105.805	252.156	104.697	-8191	255	
8570.120	1	1	0	0	0.13103	0.1732	0.23092	0.43804	0.20607	0.17548	0.029066	0.1908	0.07025	0.064936	0.20146	0.17479	0.10864	0.16014	0.17584	0.078199	-1.8771	-2.675	-2.6437	-2.6063	-2.7938	-2.5146	-2.7583	-2.8208	-2.4833	-2.65	-2.5917	-2.4062	-2.9542	-2.5312	-2.6104	-2.9625	425.808	119.462	396.263	404.716	201.066	263.038	284.430	402.936	208.849	154.528	333.611	359.374	387.477	166.991	230.398	277.987	0.00050215	0.00022266	3.2013e-05	997.56	3.0174e-06	2.0738e-06	1084.1	211.11	3.9118e-06	1.5376e-06	267.86	74.708	57.412	16.911	2.4782e-06	23.721	9.4246e-05	7.9473e-05	2.1716e-05	974.22	9.0285e-07	8.2645e-07	1064.8	207.31	8.7812e-07	8.4923e-07	262.33	73.25	56.776	16.983	8.6679e-07	23.772	98.222	192.727	156.509	84.121	230.548	276.031	84.487	91.651	227.191	212.096	90.838	98.449	98.648	105.500	249.925	104.965	-8191	255	
8570.239	1	1	0	0	0.21248	0.12103	0.30209	0.30485	0.03132	0.066325	0.20409	0.15667	0.23094	0.068741	0.21593	0.17241	0.13125	0.2766	0.051705	0.27181	-2.0396	-2.8542	-2.875	-2.5396	-2.9542	-2.5417	-2.7979	-2.9146	-2.5271	-2.775	-2.6896	-2.5771	-2.9292	-2.7062	-2.4083	-2.9292	177.828	173.897	211.189	411.044	210.812	425.945	322.731	430.526	112.433	169.701	235.602	114.673	316.368	110.992	243.260	419.298	0.00048481	0.00022914	8.0241e-05	998.59	3.5758e-06	1.7499e-06	1083.5	210.35	4.0119e-06	2.7621e-06	268.99	74.323	58.568	16.971	4.6161e-06	23.744	9.3926e-05	8.142e-05	2.1499e-05	975.05	8.7575e-07	8.5235e-07	1062.5	207.24	9.0045e-07	8.5994e-07	262.36	73.309	57.109	16.973	8.8213e-07	23.804	99.370	135.408	177.897	84.307	211.821	221.047	84.355	91.938	224.888	216.294	91.098	98.351	98.882	105.705	197.017	105.332	-8191	255	
8570.313	1	1	0	0	0.061358	0.19653	0.12947	0.26279	0.2702	0.22965	0.20099	0.031343	0.14421	0.12955	0.23	0.11226	0.099212	0.12534	0.22328	0.15394	-2.0979	-2.7	-2.8187	-2.4104	-2.9917	-2.7979	-2.8583	-2.8771	-2.5542	-2.9229	-3.0583	-2.4062	-2.7875	-2.7125	-2.5062	-3.1604	198.067	128.938	380.532	354.975	219.207	344.056	82.770	232.797	356.819	309.118	377.432	391.505	317.258	334.417	362.510	300.193	0.00046571	0.00022704	6.3698e-05	992.45	2.4017e-06	2.2477e-06	1087.3	211.4	3.347e-06	3.4481e-06	265.91	74.032	57.995	16.919	2.5676e-06	23.9	9.0892e-05	7.7048e-05	2.1268e-05	973.11	8.8972e-07	8.4606e-07	1063.9	207.8	8.7477e-07	8.5265e-07	261.21	73.219	57.043	16.957	8.663e-07	23.838	93.701	166.108	161.156	84.350	208.703	252.864	84.577	91.863	198.576	217.252	91.007	98.836	98.706	105.355	234.085	104.789	-8191	255	
8570.432	1	1	0	0	0.16985	0.15461	0.25326	0.19813	0.04328	0.1145	0.19486	0.06703	0.27114	0.2171	0.11164	0.21136	0.17324	0.28726	0.18123	0.093051	-2.1875	-2.6542	-2.5917	-2.6521	-2.9521	-2.7125	-2.8583	-3.0583	-2.7	-2.6875	-2.9104	-2.6896	-2.8458	-2.8646	-2.5771	-2.9021	163.261	113.820	223.554	354.985	305.019	111.299	402.702	94.993	428.502	256.232	337.379	112.069	90.578	313.045	185.593	417.062	0.00054615	0.00034755	7.1661e-05	995.11	2.7507e-06	1.4358e-06	1087.3	211.06	3.11e-06	2.6278e-06	268.92	74.703	57.867	17.023	1.7199e-06	23.9	9.5301e-05	7.8127e-05	2.1261e-05	972.81	8.797e-07	8.423e-07	1063.4	207.07	8.9759e-07	8.5874e-07	262.2	73.455	56.901	16.966	8.5034e-07	23.819	96.172	135.043	214.406	84.231	175.109	196.233	84.374	91.879	201.967	221.695	91.422	98.129	98.754	105.780	225.368	105.539	-8191	255	
8570.528	1	1	0	0	0.19128	0.18743	0.18496	0.26402	0.185	0.11592	0.068491	0.44098	0.16578	0.28657	0.15941	0.15229	0.065748	0.15317	0.21134	0.21173	-2.1375	-2.6208	-2.9729	-2.6292	-2.8125	-2.9583	-2.7375	-3.1063	-2.8208	-2.7188	-2.9479	-2.4938	-2.7458	-2.9271	-2.5542	-2.9542	244.490	305.207	219.416	419.118	114.030	195.845	292.680	362.305	88.524	216.637	320.280	264.091	118.525	175.280	178.998	320.462	0.00058467	0.00021588	6.1589e-05	994.95	2.6941e-06	1.3172e-06	1085.3	210.9	3.7668e-06	3.6194e-06	266.04	74.615	58.254	17.006	1.8962e-06	23.802	9.4034e-05	7.9125e-05	2.1261e-05	973.35	9.0725e-07	8.7718e-07	1061.6	207.45	8.8702e-07	8.6066e-07	261.59	73.306	57.05	17.01	8.5091e-07	23.812	101.696	163.556	146.014	84.325	198.881	219.043	84.255	91.917	237.787	221.711	91.532	98.319	98.836	105.517	218.015	104.755	-8191	255	
8570.624	1	1	0	0	0.12216	0.10323	0.17491	0.18238	0.34937	0.10728	0.086084	0.20802	0.050401	0.086011	0.32807	0.16056	0.09113	0.22926	0.051432	0.18713	-2.2229	-2.4938	-3.0521	-2.7292	-2.7375	-2.9625	-2.6667	-2.8937	-2.9042	-2.5333	-2.9938	-2.4688	-2.825	-2.9396	-2.45	-3.0208	130.369	212.829	274.750	138.920	274.132	78.417	407.230	427.671	308.274	320.630	416.458	366.448	344.027	354.952	210.451	258.520	0.00051043	0.00025841	5.3365e-05	996.35	3.5611e-06	7.7339e-07	1083.3	211.53	2.697e-06	3.4424e-06	268.64	74.348	57.438	17.003	2.2702e-06	23.793	9.3741e-05	8.0572e-05	2.1386e-05	973.23	9.061e-07	8.4673e-07	1062.6	207.48	8.7596e-07	8.4918e-07	261.57	73.388	56.933	16.974	8.7912e-07	23.743	95.693	170.693	136.126	84.265	188.854	175.931	84.112	91.756	222.092	203.050	91.182	98.389	98.348	105.667	212.844	105.304	-8191	255	
8570.720	1	1	0	0	0.10607	0.15364	0.049396	0.26906	0.26128	0.25551	0.20596	0.29513	0.18312	0.16769	0.28645	0.26902	0.20392	0.25469	0.089979	0.095048	-2.3646	-2.4688	-2.7979	-2.7375	-2.7021	-3.0125	-2.7271	-2.7062	-2.7333	-2.5187	-3	-2.6083	-2.6521	-2.9979	-2.5687	-2.9271	246.917	114.987	91.178	87.175	101.665	191.293	426.527	273.584	305.446	335.108	386.958	149.671	351.714	75.531	121.306	417.395	0.00051821	0.00016938	8.1149e-05	996.33	4.2031e-06	2.5105e-06	1087.4	209.94	3.9381e-06	2.5026e-06	265.49	74.315	57.995	17.008	4.3722e-06	23.824	9.4076e-05	7.8183e-05	2.1756e-05	971.65	9.0804e-07	8.4925e-07	1062.6	207.44	8.6636e-07	8.5167e-07	261.54	73.348	57.006	16.931	8.7032e-07	23.826	95.564	90.109	158.491	84.347	210.684	228.486	84.194	92.009	222.499	237.022	91.170	98.283	98.759	105.833	218.412	105.086	-8191	255	
8570.841	1	1	0	0	0.05565	0.14704	0.21266	0.22612	0.087852	0.12662	0.23155	0.21776	0.092503	0.26312	0.059694	0.12788	0.036065	0.095134	0.049135	0.28096	-2.3729	-2.4479	-2.9188	-2.8396	-2.6271	-2.8667	-2.6542	-2.8187	-2.8875	-2.5958	-2.9938	-2.6708	-2.5708	-2.8771	-2.3354	-2.7396	265.253	107.945	320.475	398.616	362.487	256.484	396.048	404.069	306.740	421.021	119.640	126.471	430.870	269.553	145.547	155.810	0.00056276	0.00024743	8.8578e-05	988.47	4.4559e-06	1.9375e-06	1088.9	210.85	2.6729e-06	2.6273e-06	266.77	75.116	57.935	16.949	1.0229e-06	23.823	9.4862e-05	7.6668e-05	2.1337e-05	971.77	8.9951e-07	8.3318e-07	1064.8	207.31	8.8032e-07	8.531e-07	261.78	73.62	57.003	16.988	8.6683e-07	23.832	100.494	111.669	156.164	84.194	194.310	208.682	84.382	91.722	190.395	183.469	91.660	98.243	98.460	105.406	182.248	105.238	-8191	255	
8570.935	1	1	0	0	0.1325	0.14623	0.047804	0.24823	0.041583	0.059209	0.13327	0.19879	0.15792	0.21286	0.32241	0.18314	0.16108	0.25777	0.27433	0.032413	-2.4875	-2.4729	-2.9771	-2.8417	-2.5312	-2.9417	-2.7104	-2.7083	-2.6813	-2.4813	-3.0062	-2.5896	-2.5583	-3.1417	-2.5938	-2.5312	406.559	352.771	267.094	162.595	364.199	389.996	394.869	387.042	277.201	141.580	374.695	374.850	100.807	309.269	273.805	167.322	0.0005423	0.00041554	7.3558e-05	993.84	3.9914e-06	1.8516e-06	1084.6	209.58	4.2423e-06	2.1259e-06	266.31	74.104	57.69	17.091	3.1934e-06	23.864	9.3045e-05	7.9772e-05	2.1565e-05	973.35	9.0158e-07	8.6536e-07	1062.8	207.51	8.6702e-07	8.6759e-07	261.54	73.275	57.001	16.979	8.5255e-07	23.847	97.005	161.520	124.591	84.380	221.764	226.779	84.208	92.109	257.534	211.670	91.230	98.538	98.588	105.637	211.642	104.874	-8191	255	
8571.008	1	1	0	0	0.13039	0.25179	0.10777	0.10736	0.14127	0.05498	0.37709	0.20508	0.17274	0.10964	0.32019	0.13717	0.30632	0.36488	0.26692	0.43558	-2.5167	-2.5167	-2.7979	-2.8708	-2.4896	-2.8479	-2.8521	-2.6729	-2.9479	-2.5521	-2.8521	-3.0187	-2.3917	-2.8896	-2.7562	-2.4396	111.004	87.126	207.185	379.526	125.978	131.081	318.872	376.481	391.550	113.383	389.548	255.392	371.055	81.180	225.115	432.623	0.0004899	0.00028115	6.96e-05	995.72	4.0655e-06	1.263e-06	1091.9	210.18	3.8971e-06	9.3449e-07	265.56	75.041	58.082	16.933	1.0994e-06	23.769	9.3202e-05	8.0111e-05	2.22e-05	974.35	8.7482e-07	8.2495e-07	1063.5	207.09	8.6671e-07	8.5892e-07	261.5	73.521	56.937	16.97	8.9478e-07	23.781	99.808	151.785	157.260	84.373	214.673	230.606	84.406	91.905	205.558	222.252	91.260	98.288	98.634	105.923	238.495	105.054	-8191	255	
8571.127	1	1	0	0	0.1124	0.046452	0.10517	0.27566	0.47029	0.097966	0.21072	0.14238	0.12112	0.19324	0.19681	0.029819	0.21849	0.3904	0.11013	0.26566	-2.3187	-2.5729	-2.7396	-2.9562	-2.5438	-2.8021	-2.9313	-2.4979	-2.9313	-2.4792	-2.5062	-2.75	-2.4375	-2.7167	-2.7708	-2.4229	106.579	100.931	251.492	340.389	304.654	420.634	375.814	362.294	419.695	360.706	343.615	193.324	381.246	322.723	127.742	106.163	0.00052233	0.00033813	4.5678e-05	994.84	1.8873e-06	2.5186e-06	1084.9	210.53	4.4536e-06	1.7887e-06	269.22	74.57	57.748	17.018	3.512e-06	24.051	9.1851e-05	7.9355e-05	2.1476e-05	973.84	8.906e-07	8.4137e-07	1062.6	207.68	8.731e-07	8.5572e-07	262.38	73.311	56.955	17	8.8257e-07	23.861	98.594	144.945	123.848	84.395	189.898	270.305	84.106	92.341	212.895	178.991	91.083	98.640	98.489	105.702	217.824	104.817	-8191	255	
8571.224	1	1	0	0	0.22029	0.1922	0.047708	0.23589	0.27072	0.22191	0.38712	0.20508	0.20287	0.038917	0.13279	0.079789	0.035188	0.21343	0.12698	0.080599	-2.4646	-2.4062	-2.5125	-2.8729	-2.2854	-2.825	-2.7458	-2.5125	-2.775	-2.6521	-2.5563	-3.1229	-2.3729	-2.575	-2.5354	-2.3896	413.053	357.953	315.597	321.923	416.883	282.751	306.662	429.349	306.305	267.769	294.357	429.917	403.045	116.602	298.309	370.352	0.00053212	0.0001819	6.791e-05	994.05	3.7865e-06	1.0936e-06	1084.9	211.28	3.3229e-06	3.1278e-06	266.7	73.962	58.034	16.996	3.2784e-06	23.748	9.4173e-05	7.8074e-05	2.164e-05	972.77	9.0694e-07	8.4075e-07	1063.5	207.21	8.9851e-07	8.6208e-07	261.95	73.284	57.068	16.998	8.4052e-07	23.789	96.010	136.457	171.627	84.110	219.885	196.105	84.446	91.766	231.217	220.126	91.425	98.614	98.950	105.854	226.914	105.017	-8191	255	
8571.320	1	1	0	0	0.15005	0.068321	0.16816	0.070427	0.062142	0.083978	0.11751	0.18202	0.056241	0.15556	0.16022	0.059194	0.48429	0.19698	0.11619	0.20786	-2.3146	-2.6208	-2.5396	-2.95	-2.4625	-2.7917	-2.9958	-2.1729	-2.6937	-2.5604	-2.4938	-2.8604	-2.5083	-2.775	-2.6521	-2.2771	164.456	253.010	122.209	84.409	235.751	256.889	90.779	182.592	101.338	382.724	305.793	121.943	332.630	80.861	359.950	358.852	0.00053929	0.00022067	9.0381e-05	996.34	2.6111e-06	1.6864e-06	1083.8	210.1	4.2127e-06	4.8698e-06	267.35	74.347	57.974	16.947	1.0014e-06	23.835	9.2344e-05	7.763e-05	2.1677e-05	974.06	8.8484e-07	8.5292e-07	1063.1	207.24	8.6737e-07	8.5443e-07	261.37	73.373	56.973	16.983	8.613e-07	23.789	101.635	153.409	202.894	84.128	212.098	233.015	84.449	91.792	211.538	220.840	91.213	98.446	98.339	105.564	239.908	105.175	-8191	255	
8571.416	1	1	0	0	0.093783	0.21888	0.033882	0.16303	0.049501	0.15503	0.16415	0.10251	0.20882	0.27868	0.21218	0.24933	0.16437	0.037573	0.2351	0.23946	-2.2104	-2.6083	-2.2271	-2.9083	-2.4271	-2.5396	-3.1333	-2.45	-2.6667	-2.5354	-2.4792	-2.875	-2.4333	-2.6688	-2.6646	-2.3042	91.134	220.883	211.181	234.755	391.142	217.871	386.167	77.217	245.639	191.086	374.348	413.325	405.235	271.695	389.721	294.698	0.00051039	0.00022356	5.3282e-05	997.53	3.2516e-06	1.6268e-06	1087.8	212.03	2.6689e-06	3.6241e-06	266.05	74.292	57.819	16.905	1.8064e-06	24.008	9.4088e-05	7.9452e-05	2.1776e-05	973.25	9.0562e-07	8.4889e-07	1064.3	207.69	8.8556e-07	8.3277e-07	261.65	73.269	56.931	16.972	8.7054e-07	23.832	92.842	150.841	182.599	84.409	187.315	179.557	84.481	91.812	263.741	212.702	91.173	98.426	98.772	105.811	172.924	105.311	-8191	255	
8571.536	1	1	0	0	0.087605	0.15888	0.092107	0.26957	0.19896	0.22655	0.12667	0.10943	0.11602	0.15206	0.10784	0.090974	0.20438	0.21441	0.1872	0.040821	-2.0167	-2.5896	-2.2229	-2.9083	-2.4167	-2.3917	-2.9708	-2.4292	-2.6396	-2.6833	-2.6042	-2.8	-2.5229	-2.3958	-2.7271	-2.4271	323.240	156.671	274.347	426.200	103.870	219.440	199.343	396.106	277.928	141.469	376.056	405.891	155.021	321.374	277.802	420.502	0.00047781	0.00012474	8.3877e-05	995.16	3.0957e-06	2.0607e-06	1092.9	211.3	4.2864e-06	3.3282e-06	267.44	75.09	58.107	17.058	2.6205e-06	23.979	9.2398e-05	7.5747e-05	2.2686e-05	972.61	8.8835e-07	8.4314e-07	1064.3	207.89	9.2477e-07	8.6421e-07	261.41	73.528	56.924	17.003	8.9013e-07	23.835	99.208	152.040	188.859	84.170	216.476	202.610	84.179	91.776	219.568	213.361	91.381	98.389	98.641	105.914	196.074	105.314	-8191	255	
8571.608	1	1	0	0	0.26023	0.13152	0.13974	0.10427	0.060418	0.23105	0.12327	0.12727	0.17976	0.13168	0.22101	0.03867	0.088819	0.20904	0.022633	0.079107	-1.9146	-2.6813	-2.3896	-2.9917	-2.4021	-2.3312	-2.8917	-2.4104	-2.4083	-2.8479	-2.2521	-2.7417	-2.6479	-2.2667	-2.775	-2.3292	288.834	367.584	374.118	325.667	350.078	156.711	429.186	385.573	405.408	163.194	390.712	226.268	415.859	371.557	75.055	79.899	0.00056589	0.0002666	4.5456e-05	996.62	1.9537e-06	1.7664e-06	1088.2	211.75	2.0191e-06	1.0948e-06	268.44	74.823	57.898	17.018	1.2215e-06	23.508	9.3125e-05	7.8858e-05	2.1312e-05	972.85	8.9956e-07	8.2535e-07	1062.4	207.45	8.753e-07	8.3437e-07	262.34	73.507	57.091	17.011	8.8178e-07	23.736	97.580	116.179	160.847	84.306	212.518	158.936	84.304	91.662	258.609	172.077	91.144	98.284	98.677	105.772	231.888	105.339	-8191	255	
8571.704	1	1	0	0	0.15859	0.23113	0.15452	0.068974	0.15712	0.17898	0.18283	0.10466	0.28921	0.18429	0.10742	0.097209	0.056258	0.12677	0.082979	0.29115	-2.0563	-2.7417	-2.2125	-2.8458	-2.6521	-2.4583	-2.95	-2.6104	-2.4625	-2.7062	-2.35	-2.6729	-2.675	-2.4562	-2.7333	-2.5542	216.160	305.976	207.613	414.892	304.169	180.437	357.073	278.248	328.524	152.375	89.544	324.042	343.278	416.615	402.945	348.618	0.00053609	0.00015123	4.9675e-05	994.76	4.0694e-06	1.0302e-06	1080.5	211.53	3.7866e-06	2.6969e-06	268.01	74.757	58.573	16.966	3.2591e-06	23.647	9.3091e-05	7.6923e-05	2.14e-05	974.35	8.6419e-07	8.3101e-07	1063.3	207.47	8.9719e-07	8.2401e-07	261.53	73.406	57.031	16.995	8.4578e-07	23.807	96.670	148.213	154.970	84.270	194.018	219.712	84.277	92.186	182.926	216.926	91.279	98.456	98.895	105.822	222.981	105.162	-8191	255	
8571.800	1	1	0	0	0.31372	0.034329	0.37443	0.27919	0.29478	0.13416	0.20835	0.18415	0.13773	0.08131	0.079689	0.088101	0.25237	0.41772	0.11548	0.14098	-1.9708	-2.7542	-2.4333	-2.725	-2.6417	-2.4313	-2.7083	-2.5854	-2.4167	-2.8	-2.5479	-2.6979	-2.6917	-2.4625	-2.6667	-2.7104	381.318	273.331	303.069	392.687	217.181	292.633	304.448	382.875	172.484	432.039	347.803	170.485	321.801	354.631	209.925	106.354	0.00059139	0.00025697	4.907e-05	991.18	3.3574e-06	5.1228e-07	1085.7	210.63	3.0092e-06	2.3939e-06	266.11	74.279	58.104	17.084	1.6033e-06	23.916	9.4311e-05	7.7113e-05	2.1583e-05	972.07	8.9253e-07	8.5217e-07	1060.7	207.15	8.6799e-07	8.3735e-07	261.72	73.311	56.984	16.961	8.5321e-07	23.798	95.471	167.827	156.979	84.163	211.173	139.414	84.080	91.856	218.166	265.205	91.259	98.246	98.990	105.508	176.900	105.241	-8191	255	
8571.921	1	1	0	0	0.11383	0.16616	0.20881	0.18109	0.2026	0.078317	0.23265	0.26851	0.21479	0.066559	0.20843	0.35706	0.065989	0.22948	0.19216	0.13272	-1.8917	-2.9813	-2.5521	-2.65	-2.7229	-2.3542	-2.8875	-2.625	-2.2292	-2.8187	-2.5708	-2.5646	-2.9229	-2.4375	-2.5292	-2.8792	354.812	125.855	427.833	93.789	386.349	346.863	374.495	81.201	150.415	276.940	135.152	77.578	385.305	386.965	413.645	327.378	0.00056609	0.00021645	4.0094e-05	991.67	2.8191e-06	6.7242e-07	1083.6	210.56	2.6884e-06	1.9745e-06	267.72	74.386	57.94	16.933	4.5789e-06	23.828	9.3175e-05	7.6373e-05	2.1843e-05	970.01	8.9929e-07	8.5784e-07	1062.6	207.06	8.8371e-07	8.5345e-07	261.76	73.347	57.021	16.963	8.4852e-07	23.863	100.080	156.137	162.479	84.250	209.834	283.214	84.280	91.878	185.072	196.992	91.293	98.631	98.703	105.833	197.368	105.212	-8191	255	
8572.015	1	1	0	0	0.17103	0.11132	0.38793	0.23641	0.061911	0.25386	0.074631	0.16985	0.30945	0.083433	0.23678	0.20595	0.29014	0.30618	0.19993	0.15915	-2.1542	-2.7875	-2.3792	-2.7125	-2.8063	-2.5042	-2.7917	-2.6958	-2.3021	-2.7375	-2.5521	-2.5021	-2.9188	-2.3271	-2.8646	-2.7521	394.974	312.519	95.286	387.853	337.475	289.002	363.886	373.889	166.956	320.086	386.169	231.840	163.718	138.576	312.026	373.811	0.00057548	0.00026284	8.9255e-05	992.29	1.4945e-06	1.1776e-06	1087.6	211.38	2.8285e-06	1.0867e-06	265.94	74.757	58.029	16.929	2.3515e-06	23.658	9.4669e-05	7.5302e-05	2.1272e-05	972.35	8.9732e-07	8.319e-07	1061.3	207.51	8.9041e-07	8.2099e-07	261.06	73.385	57.045	16.979	8.7612e-07	23.77	98.461	177.298	200.696	84.222	217.798	162.422	84.452	92.036	228.812	254.355	91.696	98.372	98.476	106.035	233.869	105.263	-8191	255	
8572.113	1	1	0	0	0.15697	0.14168	0.16769	0.20946	0.045566	0.036001	0.38033	0.1577	0.26216	0.2111	0.16445	0.22068	0.14751	0.19873	0.12531	0.16586	-2	-2.9854	-2.5438	-2.6604	-2.875	-2.4125	-2.775	-2.9042	-2.3187	-2.7938	-2.6	-2.5563	-2.8375	-2.4729	-2.7021	-2.7396	200.494	247.686	316.646	317.953	190.499	237.698	427.429	404.860	207.543	236.391	311.903	360.672	92.173	336.056	213.038	402.429	0.00046627	0.00029632	4.8845e-05	992.23	1.1695e-06	2.3064e-06	1086.9	209.37	3.293e-06	7.9509e-07	266.8	74.106	58.01	16.903	2.3739e-06	23.913	9.1354e-05	7.641e-05	2.1244e-05	973.01	8.8229e-07	8.288e-07	1061.9	206.97	9.1071e-07	8.3295e-07	261.53	73.227	56.898	16.974	8.6701e-07	23.775	92.362	141.169	194.800	84.275	133.232	169.129	84.180	91.937	201.188	256.800	91.356	98.226	98.950	106.008	137.638	104.995	-8191	255	
8572.232	1	1	0	0	0.2528	0.2825	0.16028	0.15665	0.31979	0.16857	0.17897	0.071353	0.2372	0.24323	0.067829	0.20599	0.16262	0.14281	0.2271	0.056887	-1.8167	-2.6104	-2.5667	-2.6396	-2.9	-2.5708	-2.7667	-3	-2.3583	-2.6375	-2.7979	-2.4396	-2.8854	-2.4229	-2.4	-2.9437	386.354	251.469	310.958	375.005	230.076	274.408	315.201	272.485	368.450	214.551	409.135	363.807	232.073	357.509	114.959	332.101	0.00057181	0.00022667	6.7017e-05	993.99	3.5692e-06	2.5505e-06	1085.9	211.04	3.8317e-06	5.3236e-07	267.1	74.031	57.861	17.003	1.9286e-06	23.654	9.3661e-05	7.6834e-05	2.0996e-05	972.56	8.9516e-07	8.6018e-07	1062.2	207.44	8.9706e-07	8.4002e-07	261.68	73.278	56.831	16.968	8.7085e-07	23.75	93.367	181.162	182.991	84.199	203.123	240.563	84.193	92.013	252.364	190.047	91.055	98.107	98.836	105.193	208.277	104.962	-8191	255	
8572.304	1	1	0	0	0.27661	0.29619	0.15494	0.17439	0.059299	0.14229	0.15652	0.21646	0.19348	0.14847	0.20099	0.18384	0.19756	0.15349	0.15246	0.15514	-2.0938	-2.6667	-2.5271	-2.5417	-2.7375	-2.4792	-2.5146	-2.8167	-2.4813	-2.6167	-2.8438	-2.3417	-2.8396	-2.6354	-2.4917	-2.9479	304.837	117.131	114.655	350.379	301.241	123.604	393.253	374.078	415.608	109.141	272.172	354.156	383.436	161.745	315.531	314.425	0.000568	0.00018776	0.00010484	995.15	2.0239e-06	2.2076e-06	1086.4	211.44	3.2832e-06	8.4123e-07	265.72	74.508	57.998	16.99	2.5937e-06	23.708	9.3002e-05	7.7282e-05	2.1196e-05	973.9	8.9033e-07	8.5447e-07	1062.3	207.55	8.8402e-07	8.3091e-07	260.72	73.275	56.866	16.966	8.4658e-07	23.719	96.614	172.602	175.176	84.275	206.158	224.694	84.366	91.853	188.008	200.490	91.171	98.110	98.719	105.450	222.863	105.373	-8191	255	
8572.400	1	1	0	0	0.3135	0.2213	0.08674	0.1574	0.12191	0.091008	0.32793	0.064018	0.080222	0.11421	0.13135	0.16837	0.19853	0.057172	0.13023	0.27401	-1.9979	-2.5604	-2.7188	-2.4667	-2.6813	-2.7	-2.7313	-2.975	-2.4479	-2.6542	-2.9833	-2.3937	-2.7438	-2.7292	-2.3604	-2.8271	386.357	352.061	218.001	78.395	117.596	80.684	377.231	410.354	397.741	185.681	287.192	124.443	320.011	139.848	355.869	304.793	0.00051565	0.00015458	6.2292e-05	992.93	2.3285e-06	1.835e-06	1083.9	211.18	8.1307e-07	3.3141e-06	265.89	74.029	57.904	16.987	3.5064e-06	23.913	9.4046e-05	7.7933e-05	2.1272e-05	971.7	8.4688e-07	8.3061e-07	1061.1	207.16	8.805e-07	8.7764e-07	261.29	73.341	57.047	16.995	8.7156e-07	23.834	103.175	134.683	192.572	84.493	229.595	244.702	84.174	91.604	267.910	198.067	91.163	98.285	99.201	105.496	229.506	105.300	-8191	255	
8572.521	1	1	0	0	0.18894	0.12536	0.19793	0.30728	0.17522	0.27002	0.18799	0.1534	0.16202	0.074688	0.10049	0.080681	0.11508	0.097292	0.25195	0.27062	-1.8438	-2.4979	-2.5979	-2.3896	-2.7229	-2.775	-2.3729	-2.7708	-2.4417	-2.7333	-2.9208	-2.5187	-2.7562	-2.9813	-2.5104	-2.8354	355.987	77.826	381.710	387.103	209.586	371.822	132.461	133.956	358.645	182.810	418.896	330.821	414.302	351.407	105.742	365.341	0.00054856	0.00020562	6.7838e-05	993.51	3.7904e-06	3.1329e-06	1082.3	210.75	4.7259e-06	2.4379e-06	267.33	73.625	58.058	16.924	1.6076e-06	23.71	9.3765e-05	7.5698e-05	2.1624e-05	973.61	8.8932e-07	8.5403e-07	1059.7	207.41	8.7301e-07	8.4042e-07	261.88	73.209	56.935	16.966	8.3274e-07	23.791	102.176	231.159	129.266	84.447	234.243	233.719	84.147	91.927	208.309	243.741	91.177	98.413	98.358	105.919	212.727	105.199	-8191	255	
#DATA ENDS
