BOXY.EXE: ISS Imagent and Oximeter Data Acquisition Program Version 0.80
Ascii Record File

#ACQ INFORMATION
2  Detector Channels 
16  External MUX Channels 
1  Auxiliary Channels 
5000  Waveform (CCF) Frequency (Hz)
1  Waveforms Skipped 
30  Waveforms Averaged 
1  Cycles Averaged 
16  Acquisitions per Waveform 
10.0806  Updata Rate (Hz) 

#FILE INFORMATION
TRUE -- External MUX Channel results are PARSED.
FALSE -- AC DC and Phase are NOT grouped.
TRUE -- Companion Program Settings File CREATED.
FALSE -- AC data not excluded
FALSE -- DC data not excluded
FALSE -- Phase data not excluded
FALSE -- Auxillary Chn. data not excluded
Tab delimiters

#CALIBRATION STATE
TRUE -- Waveform Calibration Values APPLIED.


#AUX CALIBRATION VALUES
Val Type	aux-1	

Term	1.0000e+00	
Factor	0.0000e+00	


#WF CALIBRATION VALUES
A = Detector Channel
Val Type	A-AC1	A-AC2	A-AC3	A-AC4	A-AC5	A-AC6	A-AC7	A-AC8	A-AC9	A-AC10	A-AC11	A-AC12	A-AC13	A-AC14	A-AC15	A-AC16	A-DC1	A-DC2	A-DC3	A-DC4	A-DC5	A-DC6	A-DC7	A-DC8	A-DC9	A-DC10	A-DC11	A-DC12	A-DC13	A-DC14	A-DC15	A-DC16	A-Ph1	A-Ph2	A-Ph3	A-Ph4	A-Ph5	A-Ph6	A-Ph7	A-Ph8	A-Ph9	A-Ph10	A-Ph11	A-Ph12	A-Ph13	A-Ph14	A-Ph15	A-Ph16	

Term	0.00000e+00	0.00000e+00	0.00000e+00	0.00000e+00	0.00000e+00	0.00000e+00	0.00000e+00	0.00000e+00	0.00000e+00	0.00000e+00	0.00000e+00	0.00000e+00	0.00000e+00	0.00000e+00	0.00000e+00	0.00000e+00	0.00000e+00	0.00000e+00	0.00000e+00	0.00000e+00	0.00000e+00	0.00000e+00	0.00000e+00	0.00000e+00	0.00000e+00	0.00000e+00	0.00000e+00	0.00000e+00	0.00000e+00	0.00000e+00	0.00000e+00	0.00000e+00	0.00000e+00	0.00000e+00	0.00000e+00	0.00000e+00	0.00000e+00	0.00000e+00	0.00000e+00	0.00000e+00	0.00000e+00	0.00000e+00	0.00000e+00	0.00000e+00	0.00000e+00	0.00000e+00	0.00000e+00	0.00000e+00	
Factor	1.00000e+00	1.00000e+00	1.00000e+00	1.00000e+00	1.00000e+00	1.00000e+00	1.00000e+00	1.00000e+00	1.00000e+00	1.00000e+00	1.00000e+00	1.00000e+00	1.00000e+00	1.00000e+00	1.00000e+00	1.00000e+00	1.00000e+00	1.00000e+00	1.00000e+00	1.00000e+00	1.00000e+00	1.00000e+00	1.00000e+00	1.00000e+00	1.00000e+00	1.00000e+00	1.00000e+00	1.00000e+00	1.00000e+00	1.00000e+00	1.00000e+00	1.00000e+00	X	X	X	X	X	X	X	X	X	X	X	X	X	X	X	X	

B = Detector Channel
Val Type	B-AC1	B-AC2	B-AC3	B-AC4	B-AC5	B-AC6	B-AC7	B-AC8	B-AC9	B-AC10	B-AC11	B-AC12	B-AC13	B-AC14	B-AC15	B-AC16	B-DC1	B-DC2	B-DC3	B-DC4	B-DC5	B-DC6	B-DC7	B-DC8	B-DC9	B-DC10	B-DC11	B-DC12	B-DC13	B-DC14	B-DC15	B-DC16	B-Ph1	B-Ph2	B-Ph3	B-Ph4	B-Ph5	B-Ph6	B-Ph7	B-Ph8	B-Ph9	B-Ph10	B-Ph11	B-Ph12	B-Ph13	B-Ph14	B-Ph15	B-Ph16	

Term	0.00000e+00	0.00000e+00	0.00000e+00	0.00000e+00	0.00000e+00	0.00000e+00	0.00000e+00	0.00000e+00	0.00000e+00	0.00000e+00	0.00000e+00	0.00000e+00	0.00000e+00	0.00000e+00	0.00000e+00	0.00000e+00	0.00000e+00	0.00000e+00	0.00000e+00	0.00000e+00	0.00000e+00	0.00000e+00	0.00000e+00	0.00000e+00	0.00000e+00	0.00000e+00	0.00000e+00	0.00000e+00	0.00000e+00	0.00000e+00	0.00000e+00	0.00000e+00	-3.43671e-01	-1.28886e+02	-1.25619e+02	-1.82862e+02	-5.71745e+01	-6.81809e+01	-1.60871e+02	-1.62015e+02	-3.19388e+01	-6.41406e+01	-1.72576e+02	-1.72478e+02	-1.82445e+02	-1.78185e+02	-5.29652e+01	-1.51172e+02	
Factor	3.74574e-05	1.65184e-04	5.15718e-05	1.65372e-01	2.41300e-06	1.69649e-06	1.91291e-01	5.90050e-02	2.23131e-06	1.72544e-06	9.08189e-02	3.18365e-02	2.88288e-02	9.23025e-03	2.06985e-06	1.33595e-02	8.31791e-06	1.05830e-05	2.94811e-06	8.55080e-02	1.10851e-07	1.17203e-07	9.29119e-02	3.05842e-02	1.10972e-07	1.16886e-07	4.57212e-02	1.59736e-02	1.50964e-02	4.83111e-03	1.13233e-07	6.77596e-03	X	X	X	X	X	X	X	X	X	X	X	X	X	X	X	X	



#DISTANCE SETTINGS
A = Detector Channel
A-1	A-2	A-3	A-4	A-5	A-6	A-7	A-8	A-9	A-10	A-11	A-12	A-13	A-14	A-15	A-16	

2.5000e+00	3.0000e+00	2.5000e+00	3.0000e+00	2.0000e+00	3.0000e+00	1.5000e+00	3.0000e+00	3.0000e+00	3.0000e+00	3.0000e+00	3.0000e+00	3.0000e+00	3.0000e+00	1.5000e+00	3.0000e+00	

B = Detector Channel
B-1	B-2	B-3	B-4	B-5	B-6	B-7	B-8	B-9	B-10	B-11	B-12	B-13	B-14	B-15	B-16	

1.0000e+01	1.0000e+01	1.0000e+01	1.4400e+00	1.0000e+01	1.0000e+01	1.5100e+00	1.9400e+00	1.0000e+01	1.0000e+01	1.9900e+00	2.4900e+00	2.4100e+00	2.9000e+00	1.0000e+01	2.9800e+00	




#DATA BEGINS
time	group	step	mark	flag	A-AC1	A-AC2	A-AC3	A-AC4	A-AC5	A-AC6	A-AC7	A-AC8	A-AC9	A-AC10	A-AC11	A-AC12	A-AC13	A-AC14	A-AC15	A-AC16	A-DC1	A-DC2	A-DC3	A-DC4	A-DC5	A-DC6	A-DC7	A-DC8	A-DC9	A-DC10	A-DC11	A-DC12	A-DC13	A-DC14	A-DC15	A-DC16	A-Ph1	A-Ph2	A-Ph3	A-Ph4	A-Ph5	A-Ph6	A-Ph7	A-Ph8	A-Ph9	A-Ph10	A-Ph11	A-Ph12	A-Ph13	A-Ph14	A-Ph15	A-Ph16	B-AC1	B-AC2	B-AC3	B-AC4	B-AC5	B-AC6	B-AC7	B-AC8	B-AC9	B-AC10	B-AC11	B-AC12	B-AC13	B-AC14	B-AC15	B-AC16	B-DC1	B-DC2	B-DC3	B-DC4	B-DC5	B-DC6	B-DC7	B-DC8	B-DC9	B-DC10	B-DC11	B-DC12	B-DC13	B-DC14	B-DC15	B-DC16	B-Ph1	B-Ph2	B-Ph3	B-Ph4	B-Ph5	B-Ph6	B-Ph7	B-Ph8	B-Ph9	B-Ph10	B-Ph11	B-Ph12	B-Ph13	B-Ph14	B-Ph15	B-Ph16	aux-1	digaux	

7605.796	1	1	0	768	0.098206	0.31827	0.24366	0.077981	0.18237	0.12382	0.15263	0.15182	0.11551	0.061307	0.041261	0.041678	0.2586	0.026317	0.17877	0.16935	-2.3521	-2.6667	-2.4521	-3.1208	-2.5479	-2.7208	-2.9229	-2.5104	-2.7979	-2.6917	-2.6958	-3.0146	-2.7229	-2.6875	-2.95	-2.4437	371.750	190.521	250.553	395.039	100.641	184.845	377.535	271.706	255.898	323.802	127.203	288.245	375.299	371.899	394.538	227.110	0.00061807	0.00098671	0.00026874	848.42	5.5798e-06	4.7381e-06	950.19	202.25	5.8873e-06	2.0896e-06	266.01	89.675	59.999	22.238	5.3245e-06	35.984	0.0014245	0.001703	0.00046777	780.37	1.7602e-05	1.8759e-05	874.34	187.62	1.7874e-05	1.8426e-05	247.89	83.637	56.663	21.199	1.78e-05	34.045	277.527	194.015	81.480	68.075	269.583	143.981	67.804	73.261	267.560	254.223	72.704	77.600	79.375	83.705	103.657	81.432	-8191	255	
7605.893	1	1	0	0	0.11271	0.073577	0.052675	0.099719	0.11084	0.25318	0.081474	0.13645	0.12795	0.11819	0.13401	0.070757	0.19126	0.23586	0.14012	0.17176	-2.4354	-2.7417	-2.4042	-3.1042	-2.4875	-2.6833	-3.1396	-2.575	-2.8396	-2.9062	-2.6583	-2.9167	-2.7854	-2.6312	-2.9417	-2.5938	345.812	260.143	349.628	339.325	305.634	284.399	273.812	324.986	197.401	369.688	265.226	143.015	80.914	392.413	375.149	350.445	0.00062244	0.00081106	0.00014326	846.09	4.4652e-06	5.4718e-06	964.73	202.81	6.067e-06	9.2581e-06	267.67	91.367	60.401	22.668	2.5415e-06	36.468	0.0014015	0.0016563	0.00047379	780.52	1.7681e-05	1.8724e-05	880.84	189.3	1.7999e-05	1.8716e-05	250.77	84.869	57.333	21.387	1.8419e-05	34.35	278.996	113.785	156.048	67.794	128.096	247.873	67.708	73.850	118.108	133.910	72.197	78.182	79.864	83.415	310.165	81.147	-8191	255	
7605.989	1	1	0	0	0.23025	0.14877	0.11056	0.076905	0.34374	0.22116	0.20483	0.39778	0.1975	0.22866	0.19549	0.19667	0.37903	0.2423	0.15398	0.16671	-2.2354	-2.8792	-2.4625	-2.7917	-2.8854	-2.5333	-3.1354	-2.5542	-2.7833	-2.8875	-2.6188	-2.8563	-2.7458	-2.7354	-2.9521	-2.55	383.870	244.299	117.886	233.874	131.782	323.514	396.286	192.360	226.800	135.498	321.236	373.719	225.333	408.070	308.141	307.991	0.00057622	0.00049337	0.0001685	851.32	8.4121e-06	2.6323e-06	946.19	202.85	1.2885e-05	4.6621e-06	267.36	90.601	60.301	22.528	5.9469e-06	36.618	0.001449	0.0016763	0.00047196	782.79	1.7503e-05	1.8337e-05	872.56	187.6	1.7212e-05	1.8174e-05	248.52	84.432	56.805	21.396	1.7002e-05	34.502	292.884	178.951	185.435	68.154	192.688	212.701	68.057	73.439	266.197	269.278	72.716	78.373	79.421	83.436	207.155	80.486	-8191	255	
7606.085	1	1	0	0	0.17817	0.17375	0.14604	0.232	0.26717	0.23233	0.33634	0.16818	0.35633	0.14569	0.34918	0.39589	0.22476	0.17631	0.057499	0.28592	-2.1729	-2.8167	-2.3792	-2.8271	-2.8146	-2.2583	-3.0438	-2.6958	-2.7729	-3.1562	-2.55	-2.7479	-2.9458	-2.4208	-2.9396	-2.7188	61.577	336.368	278.845	397.496	229.114	74.951	405.862	62.018	288.867	331.705	365.817	84.100	373.548	381.794	287.027	369.953	0.00064311	0.00074046	7.8558e-05	821.82	1.6132e-06	4.2775e-06	939.12	197.16	1.1005e-05	7.956e-06	261.69	90.301	59.514	22.577	5.0927e-06	36.835	0.0013272	0.0015819	0.0004322	760.51	1.6745e-05	1.6798e-05	860.01	183.55	1.6581e-05	1.6615e-05	244.23	83.767	56.044	21.422	1.6573e-05	34.563	278.620	92.552	131.093	68.162	230.337	197.653	67.924	73.570	285.131	139.469	72.307	78.238	79.513	83.799	241.213	80.624	-8191	255	
7606.181	1	1	0	0	0.14119	0.014681	0.23047	0.22298	0.019305	0.079433	0.18685	0.12701	0.025841	0.19646	0.064761	0.088625	0.24044	0.40978	0.059494	0.15498	-2.2125	-2.775	-2.375	-2.9646	-2.7333	-2.5833	-3.0458	-2.8312	-2.5479	-3.1167	-2.6042	-2.8708	-2.9062	-2.3625	-2.9458	-2.7083	272.837	117.404	297.625	369.569	105.412	100.820	272.362	67.623	248.104	188.398	342.822	322.430	345.149	410.087	285.013	271.882	0.00048055	0.00025654	5.4343e-05	821.5	8.3805e-06	7.0968e-06	937.42	198.68	7.8617e-06	4.6664e-06	260.62	89.018	59.34	22.557	7.6827e-06	36.32	0.001281	0.0015024	0.00042519	759.61	1.588e-05	1.6711e-05	858	183.77	1.5991e-05	1.6388e-05	244.37	83.199	55.978	21.415	1.6573e-05	34.116	290.750	244.159	362.973	68.476	352.104	179.844	68.203	74.038	303.225	353.135	72.804	78.052	79.384	83.892	210.999	80.905	-8191	255	
7606.277	1	1	0	0	0.058066	0.30365	0.13471	0.18699	0.20849	0.31573	0.16156	0.24131	0.052754	0.18127	0.19284	0.38178	0.056209	0.235	0.28459	0.28852	-2.1354	-3.0833	-2.6333	-2.7229	-2.8667	-2.4833	-2.9688	-2.8937	-2.4125	-3.1208	-2.6646	-2.7042	-2.9521	-2.4542	-2.7708	-2.8438	132.700	307.997	254.182	328.915	346.452	384.909	385.417	266.218	109.123	271.056	314.462	376.116	254.024	153.872	226.338	337.493	0.00061051	4.1948e-05	0.00025724	838.86	1.1033e-05	2.8002e-06	945.95	200.13	8.1595e-06	2.1742e-06	263.24	88.743	59.614	22.362	8.2074e-06	36.2	0.0013337	0.0015698	0.00044011	771.41	1.6262e-05	1.6992e-05	867.54	185.34	1.6835e-05	1.714e-05	245.64	83.08	56.091	21.218	1.6684e-05	34.08	297.295	69.326	217.203	68.191	248.661	94.894	67.871	73.741	283.684	87.631	72.710	77.914	79.536	83.707	224.393	80.764	-8191	255	
7606.398	1	1	0	0	0.39354	0.10367	0.45264	0.26007	0.1886	0.17454	0.17243	0.11907	0.17304	0.13522	0.24573	0.16324	0.11617	0.16337	0.33063	0.26753	-1.9771	-2.8292	-2.5187	-2.6021	-2.8708	-2.6167	-2.8729	-2.8	-2.6437	-2.8646	-2.5	-2.6833	-3.0146	-2.4188	-2.9	-3.0229	369.314	128.806	335.152	307.496	172.950	244.802	65.428	366.763	373.529	86.228	224.694	255.150	90.706	310.180	402.687	299.396	0.00063291	0.00029475	0.00028901	837.25	1.1198e-05	1.7672e-06	933.19	198.66	4.0317e-06	4.9232e-06	261.02	89.476	59.055	22.249	9.334e-06	36.496	0.0013321	0.0015497	0.00042913	768.11	1.6159e-05	1.6786e-05	858.46	183.52	1.6059e-05	1.642e-05	243.75	82.789	55.588	21.137	1.5967e-05	34.209	284.243	146.713	144.508	68.487	238.991	176.866	68.161	73.714	119.900	252.771	72.562	78.590	80.420	84.248	322.466	80.607	-8191	255	
7606.494	1	1	0	0	0.20644	0.080246	0.14636	0.13926	0.27392	0.29882	0.37955	0.27004	0.40784	0.05816	0.33694	0.20984	0.15089	0.1303	0.12133	0.1794	-1.8771	-2.9562	-2.5687	-2.7062	-3.0333	-2.5479	-2.6917	-2.9271	-2.6708	-3.0146	-2.75	-2.5479	-2.9271	-2.5667	-2.7583	-2.8167	156.324	156.966	151.036	397.848	399.799	283.580	376.612	73.777	184.094	204.928	415.078	107.097	374.965	231.242	415.031	63.903	0.0005891	0.0002304	0.00013157	834.04	4.9521e-06	1.7983e-06	934.5	196.99	5.466e-06	5.3465e-06	263.69	89.123	59.347	22.65	2.5571e-06	36.677	0.0012756	0.0014855	0.00042432	766.26	1.5591e-05	1.661e-05	858.97	183.21	1.5856e-05	1.5901e-05	244.13	83.235	55.654	21.389	1.546e-05	34.406	284.187	242.920	71.382	68.116	229.563	229.716	68.062	73.670	220.748	268.382	72.602	78.539	79.484	83.676	281.733	80.683	-8191	255	
7606.588	1	1	0	0	0.12892	0.087759	0.0035386	0.2692	0.084987	0.16655	0.057955	0.080244	0.13307	0.23442	0.18289	0.20165	0.1246	0.24477	0.058686	0.16684	-1.8813	-2.7021	-2.6583	-2.4875	-2.8812	-2.6792	-2.75	-3.0875	-2.3896	-2.6271	-2.7875	-2.6667	-2.8187	-2.5604	-2.5542	-3.0792	147.970	143.562	387.157	412.713	393.768	385.707	215.884	349.771	99.697	311.125	311.973	99.375	384.614	353.532	259.681	341.911	0.00050524	0.00063071	0.00012572	824.58	8.1508e-06	5.4022e-06	929.7	196.45	5.6289e-06	4.1641e-06	262.79	89.759	59.057	22.537	2.1858e-06	36.565	0.0011919	0.0013921	0.00038863	757.55	1.4746e-05	1.5702e-05	852.24	181.95	1.4298e-05	1.4975e-05	243.32	83.208	55.62	21.28	1.5079e-05	34.255	285.291	157.959	131.954	67.884	229.258	211.364	67.992	73.615	259.489	166.854	72.768	78.223	79.863	83.846	119.391	80.753	-8191	255	
7606.686	1	1	0	0	0.14539	0.17705	0.094785	0.22661	0.042704	0.10991	0.19194	0.18461	0.17927	0.18807	0.15837	0.079712	0.081439	0.23675	0.22075	0.14203	-2.15	-2.8771	-2.8083	-2.8021	-2.9146	-2.7479	-2.7104	-2.95	-2.3708	-2.8708	-2.8208	-2.525	-3.0042	-2.6458	-2.4458	-3.0125	235.591	90.006	249.412	345.772	337.148	197.670	344.952	406.878	122.971	196.482	93.740	384.568	167.459	299.978	270.384	84.876	0.00053112	0.00079581	1.8201e-05	827.51	2.4118e-06	8.7712e-06	932.7	197.71	6.2261e-06	5.4959e-06	262.6	89.426	59.106	22.499	5.1901e-06	36.275	0.0011954	0.0014013	0.00039292	759.59	1.483e-05	1.5619e-05	853.56	182.53	1.4851e-05	1.6336e-05	244.7	82.988	55.595	21.224	1.6159e-05	34.233	284.180	119.678	97.461	68.198	129.812	286.214	68.257	74.011	236.743	190.574	72.231	78.361	79.493	84.024	195.573	80.960	-8191	255	
7606.781	1	1	0	0	0.23812	0.057328	0.090484	0.08197	0.37569	0.28401	0.26376	0.039706	0.30346	0.13081	0.091243	0.12065	0.152	0.29531	0.16267	0.19185	-2.1375	-2.8167	-2.8854	-2.4708	-2.7458	-2.7896	-2.5938	-2.9	-2.6646	-2.6604	-2.9083	-2.3063	-2.8146	-2.7104	-2.4458	-2.9104	384.231	91.055	63.662	106.779	171.326	378.940	252.454	76.103	186.746	111.434	392.354	183.548	66.534	340.744	347.758	112.229	0.0004811	0.0013048	0.00011699	849.82	1.0361e-05	7.1483e-06	953.01	200.39	7.6135e-06	3.8895e-06	264.48	89.762	59.34	22.287	6.7159e-06	36.54	0.0013199	0.0015476	0.00042854	780.01	1.6449e-05	1.7354e-05	873.4	186.23	1.6322e-05	1.6726e-05	246.56	83.362	56.028	21.246	1.596e-05	34.175	268.723	168.771	117.804	67.959	302.858	217.861	68.053	73.970	200.035	220.418	72.541	78.068	79.200	84.409	160.105	80.527	-8191	255	
7606.877	1	1	0	0	0.16433	0.13753	0.15666	0.19886	0.11488	0.072853	0.11956	0.1539	0.040208	0.28829	0.26854	0.17381	0.010778	0.10755	0.16658	0.23902	-2.0104	-2.7188	-2.8479	-2.6146	-2.6312	-2.8125	-2.525	-2.9917	-2.6646	-2.5583	-3.0021	-2.5812	-2.9938	-3.0292	-2.5125	-2.8708	77.845	260.244	112.208	395.449	102.662	166.160	390.408	239.586	304.502	219.320	267.897	251.839	343.417	158.299	297.783	290.156	0.0005864	0.00033548	0.00011561	834.6	1.2771e-05	2.9021e-06	931.17	195.77	4.4964e-06	1.1069e-06	259.7	88.682	58.639	22.391	1.0394e-05	36.579	0.0012912	0.0014513	0.00041772	765.71	1.6128e-05	1.606e-05	855.66	181.93	1.5043e-05	1.5767e-05	242.63	82.995	55.226	21.258	1.5e-05	34.35	288.439	117.975	337.506	68.023	314.330	207.667	68.482	74.132	204.487	179.410	72.727	78.079	79.511	83.517	287.839	80.844	-8191	255	
7606.997	1	1	0	0	0.24259	0.32831	0.020829	0.19209	0.065323	0.20644	0.026313	0.14057	0.095687	0.12605	0.038804	0.13054	0.20883	0.14179	0.14097	0.12205	-2.1458	-2.5083	-2.9479	-2.725	-2.5875	-2.775	-2.4813	-2.8438	-2.7	-2.4708	-2.9667	-2.6104	-2.6813	-2.8812	-2.5438	-2.9437	340.892	391.437	111.340	364.182	111.007	285.295	355.912	344.678	107.209	211.935	367.363	331.821	286.127	354.711	127.467	275.683	0.00063416	0.00051824	0.0001311	833.41	8.3605e-06	4.3156e-06	942.38	199.16	1.0511e-05	7.359e-06	263.91	89.399	59.408	22.556	3.4444e-06	36.702	0.0012333	0.0013994	0.00040696	763.81	1.5324e-05	1.6068e-05	861.4	184.18	1.5682e-05	1.6968e-05	245.79	83.64	56.245	21.403	1.6637e-05	34.28	290.200	191.907	405.485	67.981	222.622	115.195	68.018	74.042	243.474	171.639	72.362	78.042	79.411	83.544	222.035	80.933	-8191	255	
7607.094	1	1	0	0	0.26367	0.065253	0.12897	0.23422	0.16326	0.25496	0.11532	0.16988	0.10677	0.14198	0.16445	0.14995	0.066506	0.14622	0.094774	0.13721	-2.1625	-2.5604	-2.7583	-2.7042	-2.4917	-2.8438	-2.5146	-2.8021	-2.6	-2.7458	-3.0875	-2.6479	-2.6021	-3.0521	-2.3208	-2.8917	293.519	224.608	215.473	408.711	392.457	392.643	371.907	321.170	104.383	87.160	152.900	266.922	164.227	270.021	83.746	338.873	0.00063483	0.00086362	0.00025954	852.82	4.8025e-06	1.6597e-06	957.95	205.82	7.9938e-06	6.0959e-06	268.62	90.167	60.394	22.633	6.4542e-06	35.956	0.001364	0.0016602	0.00044607	784.74	1.7415e-05	1.8204e-05	881.91	190.59	1.7647e-05	1.8629e-05	251.78	84.596	57.21	21.419	1.8276e-05	34.089	272.824	164.318	156.083	68.164	307.970	124.463	68.399	73.860	254.178	269.360	72.522	78.137	79.587	84.261	178.899	80.861	-8191	255	
7607.190	1	1	0	0	0.097592	0.2714	0.15951	0.057148	0.079484	0.087293	0.13512	0.11633	0.030627	0.17921	0.079418	0.1213	0.26338	0.094117	0.37203	0.083656	-2.2729	-2.3771	-2.7979	-2.6979	-2.5312	-3.0479	-2.6188	-2.8104	-3.0104	-2.5521	-2.9708	-2.6521	-2.5167	-3.0208	-2.4938	-2.7979	68.803	181.528	232.877	124.662	180.417	244.331	397.965	252.110	403.955	125.284	279.148	386.455	265.799	409.399	212.621	403.718	0.00042057	0.00067839	0.00022262	857.88	1.38e-05	5.4499e-06	959.35	204.92	5.6534e-06	9.3217e-06	268.43	90.361	60.27	22.45	1.4354e-05	35.907	0.0014348	0.0016893	0.00047177	792.04	1.8532e-05	1.8831e-05	882.87	190.27	1.7923e-05	1.8866e-05	251.02	84.647	57.083	21.423	1.8397e-05	34.104	280.476	150.001	75.303	67.988	193.485	235.002	67.650	73.621	411.236	244.298	72.286	78.286	79.618	83.802	175.542	81.031	-8191	255	
7607.286	1	1	0	0	0.20149	0.29117	0.24765	0.11086	0.11612	0.12329	0.15247	0.19696	0.19028	0.23511	0.16815	0.34388	0.33461	0.11493	0.10519	0.074642	-2.3771	-2.2875	-2.8396	-2.8063	-2.3646	-2.8625	-2.525	-2.7729	-2.875	-2.4021	-2.7604	-2.7271	-2.4708	-2.9021	-2.5875	-2.75	369.980	319.263	267.339	331.370	403.870	408.093	296.394	196.675	178.267	271.424	357.801	100.266	344.647	344.105	61.905	89.817	0.000502	0.0002424	5.9433e-05	854.14	1.1545e-05	6.3486e-06	954.52	203.91	4.9182e-06	6.4172e-06	270.34	90.014	60.392	22.682	4.7231e-06	36.64	0.0014274	0.0016686	0.0004612	786.56	1.7523e-05	1.843e-05	880.74	189.36	1.7079e-05	1.8266e-05	250.87	84.47	57.036	21.517	1.7476e-05	34.569	288.317	256.697	175.585	68.234	232.014	224.492	68.129	73.761	381.183	245.278	72.115	78.346	80.350	83.533	272.732	80.921	-8191	255	
7607.358	1	1	0	0	0.12517	0.058777	0.30839	0.18973	0.0043455	0.19251	0.22338	0.090635	0.12711	0.15848	0.24182	0.28809	0.165	0.2887	0.31501	0.026193	-2.5417	-2.3021	-2.7146	-2.6604	-2.5125	-3.0479	-2.5062	-2.575	-2.8771	-2.6125	-2.8354	-2.7208	-2.4062	-2.9146	-2.6562	-2.6042	314.248	291.833	236.849	102.121	237.804	306.891	65.234	361.491	91.611	88.518	286.839	373.828	386.269	56.790	69.612	69.586	0.00056296	0.00065475	0.00025722	849.62	7.946e-06	1.0932e-05	950.97	202.63	6.1834e-06	1.8185e-06	265.79	90.291	60.061	22.226	5.2325e-06	36.066	0.0013337	0.0015773	0.00044441	782.82	1.6808e-05	1.7666e-05	878.09	188.53	1.7078e-05	1.7945e-05	249.13	84.04	56.853	21.324	1.7524e-05	33.994	291.541	123.815	129.607	67.946	188.963	159.523	67.944	73.524	208.215	211.702	72.296	78.211	79.470	83.855	291.584	80.838	-8191	255	
7607.478	1	1	0	0	0.18843	0.094872	0.26232	0.28125	0.13039	0.12756	0.25386	0.065511	0.17893	0.067452	0.23508	0.13956	0.34948	0.1906	0.16934	0.085209	-2.5687	-2.4542	-2.6792	-2.8917	-2.4667	-2.8208	-2.7229	-2.3333	-2.8354	-2.4688	-2.675	-2.8375	-2.5042	-3.0104	-2.5812	-2.4125	272.027	114.890	77.666	317.593	133.271	258.190	384.287	117.169	146.655	138.978	297.718	343.067	131.541	187.305	266.565	134.061	0.00060726	0.00036529	0.00020299	860.08	8.0481e-06	5.0236e-06	961.27	205.01	2.3633e-06	5.9467e-06	264.25	89.654	60.042	22.299	1.2911e-05	35.846	0.0013966	0.0016334	0.00045223	790.74	1.7303e-05	1.8123e-05	882.17	189.91	1.6829e-05	1.7456e-05	248.9	83.394	56.607	21.208	1.7311e-05	33.98	292.819	111.041	163.994	68.088	320.218	277.141	67.751	73.627	345.552	215.639	72.848	78.192	79.667	84.097	221.464	80.968	-8191	255	
7607.574	1	1	0	0	0.049868	0.1979	0.26742	0.070032	0.078075	0.2316	0.10609	0.14394	0.18974	0.074101	0.15858	0.04124	0.063868	0.26054	0.24243	0.30411	-2.6292	-2.6771	-2.5563	-2.8833	-2.4646	-2.9479	-2.875	-2.5792	-2.8688	-2.6354	-2.6271	-2.8458	-2.5229	-2.8354	-2.8438	-2.625	256.494	222.233	245.456	414.580	145.056	376.729	148.120	239.278	412.734	227.697	204.243	178.866	383.849	360.751	216.835	191.071	0.00054196	0.00094755	0.00026369	861.75	3.9752e-06	4.557e-06	946.39	201.01	1.0388e-05	7.75e-06	266.87	88.957	59.792	22.559	9.4673e-06	36.338	0.0013295	0.0015683	0.00043524	787.61	1.6629e-05	1.7213e-05	872.03	187.3	1.6108e-05	1.7154e-05	248.05	83.393	56.227	21.372	1.6547e-05	34.295	289.543	81.174	123.933	68.529	211.462	283.659	67.957	73.751	292.425	171.519	72.699	78.388	79.449	83.708	327.912	81.140	-8191	255	
7607.669	1	1	0	0	0.093354	0.07564	0.11255	0.089032	0.22271	0.14414	0.10166	0.29041	0.22056	0.32744	0.1536	0.18082	0.21297	0.020682	0.19298	0.19086	-2.4375	-2.6458	-2.5396	-2.9938	-2.2146	-2.6583	-2.8667	-2.3771	-2.8458	-2.5542	-2.6937	-2.825	-2.5125	-2.6292	-2.7687	-2.5229	357.121	58.619	193.867	403.010	191.917	63.735	411.987	235.249	108.502	152.128	331.344	122.996	355.468	396.533	267.975	403.893	0.00070401	0.0002791	0.00010244	849.45	1.1926e-05	6.1178e-06	943.36	198.92	6.3718e-06	3.5809e-06	262.75	89.176	59.143	22.533	1.2426e-05	36.545	0.0012971	0.0015229	0.00042834	779.57	1.6077e-05	1.6732e-05	868.03	185.8	1.5309e-05	1.6396e-05	245.5	82.883	55.828	21.388	1.5632e-05	34.347	285.480	151.055	122.141	68.056	251.554	242.444	68.078	73.500	219.184	253.297	72.376	78.227	79.754	83.620	190.185	80.912	-8191	255	
7607.767	1	1	0	0	0.21598	0.091344	0.12763	0.12827	0.11632	0.15528	0.2782	0.32182	0.3034	0.27168	0.24555	0.13413	0.18069	0.20221	0.21735	0.17709	-2.4729	-2.6333	-2.2667	-2.9708	-2.6167	-2.5979	-2.9083	-2.3312	-2.7417	-2.6083	-2.4146	-2.9917	-2.4229	-2.5708	-2.8146	-2.2938	345.713	329.221	208.553	354.306	251.052	249.718	301.026	394.123	331.701	121.153	88.513	100.588	406.944	373.376	370.419	378.554	0.00063565	0.00042562	0.00012415	845.36	3.501e-06	8.2142e-06	939.57	200.28	9.3155e-06	4.2527e-06	265.95	88.801	59.345	22.283	3.6648e-06	36.233	0.0012512	0.0014567	0.0004074	777.24	1.5483e-05	1.62e-05	866.32	186.1	1.5352e-05	1.6278e-05	246.64	82.486	55.799	21.233	1.5941e-05	34.021	282.373	151.292	139.754	68.161	293.933	151.873	67.994	73.623	60.805	164.540	72.530	78.565	79.455	83.936	249.889	80.968	-8191	255	
7607.886	1	1	0	0	0.14984	0.066602	0.15905	0.15471	0.17542	0.26149	0.11148	0.24709	0.0095452	0.086922	0.22129	0.10516	0.034354	0.21582	0.16578	0.30926	-2.2417	-2.7083	-2.4667	-2.8896	-2.7604	-2.7167	-2.9167	-2.5958	-2.8417	-2.8	-2.5042	-2.8375	-2.5542	-2.4271	-2.8917	-2.6021	114.613	269.091	119.842	341.092	103.279	269.113	367.054	363.958	159.418	113.945	315.676	316.389	187.459	105.242	315.384	324.035	0.00051423	0.00043861	0.00025597	857.33	1.529e-05	6.2391e-06	954.93	203.25	1.0936e-06	3.5234e-06	267.57	88.735	59.067	22.369	1.0452e-05	36.07	0.0012939	0.0014866	0.00041472	788.88	1.5783e-05	1.7162e-05	877.66	189.52	1.6045e-05	1.7067e-05	249.09	82.659	55.702	21.154	1.6678e-05	33.846	291.028	377.389	204.844	68.150	250.583	197.808	67.529	73.640	123.818	183.364	72.168	77.928	79.078	84.211	234.908	80.818	-8191	255	
7607.957	1	1	0	0	0.19691	0.18223	0.10755	0.18022	0.27912	0.077495	0.16843	0.046048	0.20651	0.043193	0.084225	0.12444	0.025315	0.16049	0.15377	0.047176	-2.3125	-2.8729	-2.3771	-2.9979	-2.6667	-2.6417	-3.0375	-2.7083	-2.6833	-2.7771	-2.2667	-3.0146	-2.7125	-2.5771	-2.9854	-2.6354	410.957	272.288	127.098	393.275	232.422	305.477	381.624	313.880	120.716	143.129	309.298	215.609	353.218	413.874	126.147	362.747	0.00056097	0.00032693	0.00027596	856.65	1.1308e-05	4.5867e-06	952.88	200.7	5.5063e-06	2.3968e-06	260.81	87.52	58.005	22.261	1.1138e-06	35.999	0.0013225	0.0014999	0.00043155	789.52	1.592e-05	1.6812e-05	871.84	186.48	1.5783e-05	1.6528e-05	244.18	81.645	54.762	21.094	1.5783e-05	33.972	271.736	108.294	145.551	68.135	232.749	191.295	67.975	73.730	334.668	281.286	72.802	77.883	80.101	83.835	303.632	81.028	-8191	255	
7608.078	1	1	0	0	0.23736	0.42631	0.14374	0.12376	0.22703	0.38895	0.091365	0.13511	0.097313	0.075218	0.082936	0.1199	0.41896	0.094732	0.19821	0.072532	-2.4313	-2.8333	-2.4542	-3.0375	-2.775	-2.425	-3.125	-2.5583	-2.7125	-2.925	-2.4354	-2.9021	-2.8104	-2.6042	-2.9562	-2.6271	189.414	258.634	288.357	290.644	205.456	85.722	394.410	79.124	400.105	198.327	319.652	75.983	77.084	362.003	356.705	277.596	0.00059341	0.00071741	0.00014587	849.33	3.9767e-06	3.5757e-06	933.21	197.54	3.1977e-06	5.4715e-06	258.66	87.403	57.007	22.236	9.6551e-06	36.033	0.0012601	0.0014575	0.00041131	779.58	1.5268e-05	1.5611e-05	856.37	182.74	1.5479e-05	1.5821e-05	240.9	81.22	53.963	21.08	1.5614e-05	33.979	285.508	193.219	367.168	68.074	166.601	243.249	67.862	73.639	270.541	297.635	72.788	78.598	79.793	83.744	293.312	81.526	-8191	255	
7608.174	1	1	0	0	0.29198	0.16571	0.076136	0.2703	0.13219	0.14947	0.0196	0.18155	0.099023	0.01803	0.16917	0.15428	0.13755	0.21613	0.15095	0.094826	-2.1292	-2.8583	-2.2896	-2.6792	-2.7292	-2.4625	-2.9271	-2.6083	-2.5896	-2.9354	-2.5687	-2.7687	-2.8958	-2.4458	-2.8563	-2.6375	354.785	171.982	207.736	341.400	135.304	224.796	87.888	408.886	223.606	347.920	105.998	115.161	253.295	378.898	129.235	384.590	0.0005471	0.00059926	0.00024285	840.08	9.5902e-06	1.1748e-05	923.58	194.19	1.294e-05	6.6637e-06	254.43	84.971	55.416	21.388	7.7888e-06	35.053	0.0012323	0.0014351	0.00039238	770.94	1.555e-05	1.6101e-05	848.4	179.55	1.5122e-05	1.6143e-05	236.25	79.293	52.715	20.381	1.5711e-05	32.866	280.432	216.787	201.174	67.762	174.444	240.829	68.155	73.819	229.387	266.623	72.597	78.415	80.089	84.271	216.014	81.189	-8191	255	
7608.270	1	1	0	0	0.23313	0.18334	0.10947	0.2743	0.12357	0.12668	0.098803	0.19309	0.47002	0.14429	0.1031	0.041146	0.11247	0.19973	0.096172	0.17174	-2.2208	-2.7917	-2.5229	-2.9	-2.9375	-2.5104	-3.0104	-2.7062	-2.5583	-2.9792	-2.6625	-2.8063	-2.8896	-2.3729	-2.85	-2.5896	226.456	212.804	242.638	66.772	234.693	271.622	353.167	181.189	249.543	274.648	194.411	192.645	409.293	384.253	400.488	394.109	0.00059642	0.00058202	8.6083e-05	820.5	1.4491e-05	3.778e-06	890.3	185.87	6.1595e-06	7.9929e-06	245.07	83.799	54.439	21.081	8.0162e-06	34.809	0.001251	0.0014785	0.00039945	752.44	1.5272e-05	1.6063e-05	820.81	172.99	1.4756e-05	1.4971e-05	229.33	78.102	51.511	20.107	1.4237e-05	32.708	274.036	153.771	113.241	68.286	262.974	208.099	68.211	73.831	197.412	254.353	72.378	78.537	80.425	84.331	212.654	81.280	-8191	255	
7608.366	1	1	0	0	0.16145	0.1313	0.16055	0.21051	0.13828	0.18805	0.29524	0.080679	0.17108	0.3262	0.13912	0.22564	0.15472	0.087666	0.1373	0.12613	-2.1021	-2.9167	-2.65	-2.7812	-2.8917	-2.6167	-2.9792	-2.8812	-2.5708	-3.0396	-2.5958	-2.5271	-2.9542	-2.6729	-2.8146	-2.9667	402.298	163.365	229.349	382.314	134.924	377.212	337.900	316.760	113.163	120.797	269.358	377.401	200.189	108.432	149.019	383.715	0.00054409	0.00057365	5.7399e-05	798.55	6.6627e-06	2.8693e-06	880.95	184.29	3.1303e-06	4.1571e-06	245.93	84.597	55.032	21.297	8.4665e-06	35.295	0.0011344	0.0012843	0.00035529	730.83	1.3511e-05	1.3721e-05	804.3	170.02	1.2793e-05	1.3595e-05	228.39	78.344	51.213	20.148	1.3242e-05	32.971	292.340	174.250	405.497	68.274	169.668	240.236	68.197	74.132	58.008	182.472	72.708	78.525	80.154	84.404	246.188	80.974	-8191	255	
7608.487	1	1	0	0	0.070419	0.14934	0.061274	0.25459	0.24941	0.12307	0.20543	0.30779	0.014309	0.2849	0.19257	0.12916	0.24693	0.27965	0.1034	0.23101	-2.3104	-2.9646	-2.7146	-2.7083	-2.8875	-2.6	-2.8604	-2.9375	-2.4437	-2.9646	-2.8167	-2.7271	-2.9792	-2.5896	-2.7458	-3.0542	389.650	100.809	89.674	375.964	184.893	98.544	72.213	241.310	264.682	274.786	57.399	369.378	294.960	73.703	190.209	327.324	0.00048342	0.00022331	8.094e-05	792.58	4.5771e-06	2.7387e-06	886.95	185.12	1.1427e-05	6.6031e-06	248.05	85.573	54.902	21.58	6.6911e-06	35.182	0.0010418	0.0012285	0.00033558	728.22	1.2935e-05	1.3283e-05	808.01	171.03	1.3273e-05	1.3703e-05	229.97	78.951	51.678	20.317	1.3552e-05	33.007	279.736	114.071	192.895	68.211	231.511	139.032	68.004	73.870	327.718	247.988	72.744	78.769	80.660	84.288	241.604	81.026	-8191	255	
7608.581	1	1	0	0	0.038305	0.095977	0.32991	0.14447	0.35693	0.10829	0.15477	0.086065	0.14577	0.091864	0.22847	0.06894	0.20549	0.17629	0.18126	0.067723	-2.075	-2.8042	-2.5667	-2.4854	-2.9083	-2.4542	-2.7917	-2.8479	-2.4792	-2.7313	-2.7229	-2.6917	-2.9646	-2.6833	-2.6188	-3.0021	168.379	83.205	152.185	79.556	165.574	307.728	315.412	223.362	284.509	311.189	406.315	372.821	362.876	414.666	108.542	229.675	0.00055628	0.0011785	9.4761e-05	797.6	1.0961e-06	2.3947e-06	883.19	186.1	2.7189e-06	3.01e-06	247.18	85.588	55.087	21.559	9.1861e-06	35.235	0.0010183	0.0012273	0.00033691	731.4	1.2744e-05	1.3192e-05	809.81	171.95	1.2399e-05	1.3173e-05	229.08	78.965	51.72	20.326	1.2733e-05	32.83	285.784	98.780	113.201	67.911	217.710	250.881	68.192	73.425	287.839	240.674	72.992	78.768	80.301	84.400	158.584	81.501	-8191	255	
7608.655	1	1	0	0	0.18978	0.15983	0.15785	0.27503	0.078119	0.073533	0.17475	0.1637	0.28895	0.17022	0.26759	0.087266	0.014516	0.14384	0.011012	0.13194	-1.9208	-2.8229	-2.7562	-2.7167	-3.0708	-2.6542	-2.6688	-3.0563	-2.4125	-2.6917	-2.85	-2.4667	-2.8438	-2.7167	-2.3479	-2.9146	278.089	357.774	333.711	355.495	124.851	90.712	356.363	278.598	368.557	379.607	308.617	290.977	246.423	123.581	99.046	87.719	0.00046658	0.0004669	0.00012196	801.04	7.7043e-06	1.6788e-06	886.98	186.4	1.2821e-06	2.366e-06	248.55	85.008	55.542	21.776	3.0497e-06	35.562	0.0010106	0.00116	0.00032521	732.94	1.21e-05	1.3112e-05	810.55	172.43	1.2065e-05	1.2402e-05	229.3	78.713	51.98	20.451	1.1747e-05	33.251	293.133	188.777	147.619	68.428	280.912	262.278	68.106	73.970	120.677	59.004	72.612	78.590	80.133	84.138	258.014	81.024	-8191	255	
7608.774	1	1	0	0	0.22513	0.10924	0.20885	0.16396	0.099626	0.16771	0.43798	0.22761	0.075807	0.044364	0.064656	0.098956	0.14966	0.15463	0.072082	0.052442	-2.2729	-2.5833	-2.8333	-2.6083	-2.6688	-2.7292	-2.6833	-2.9708	-2.3812	-2.6479	-2.8896	-2.4417	-2.7167	-2.7542	-2.4021	-2.7896	252.350	410.998	239.763	292.107	300.397	152.202	374.323	315.570	221.249	161.099	94.013	270.441	202.847	70.145	82.017	143.776	0.00053985	0.00053934	0.00020681	794.03	3.5528e-06	6.0892e-06	890.65	187.07	5.0731e-06	4.2246e-06	249.39	85.592	56.324	22.11	9.4664e-06	35.689	0.0009446	0.0010852	0.00029496	727.73	1.1392e-05	1.1977e-05	810.36	173.07	1.1254e-05	1.191e-05	230.77	79.49	52.482	20.713	1.1703e-05	33.446	283.146	154.988	147.746	68.197	318.202	166.204	68.086	73.811	273.901	158.182	72.760	78.360	79.822	84.463	195.977	81.026	-8191	255	
7608.870	1	1	0	0	0.1112	0.14509	0.25713	0.12271	0.15113	0.2021	0.23447	0.42976	0.21665	0.10512	0.3432	0.19642	0.22521	0.18275	0.2003	0.22653	-1.875	-2.4021	-2.875	-2.5958	-2.7708	-2.8396	-2.5083	-2.9688	-2.6167	-2.5208	-2.8333	-2.3604	-2.8229	-2.6688	-2.5396	-3.0375	323.483	379.038	390.722	176.090	334.698	79.871	403.859	287.926	259.482	167.170	344.094	381.005	203.810	354.826	334.581	392.446	0.00056344	0.00072586	0.00021112	799.38	2.38e-06	6.4812e-06	894.78	191.63	7.0297e-06	2.86e-06	254.09	86.108	57.222	22.13	1.7779e-06	36.22	0.0009446	0.001073	0.0002998	735.74	1.1503e-05	1.2274e-05	818.93	176.22	1.1522e-05	1.2193e-05	235.04	80.127	53.151	20.809	1.1799e-05	33.685	293.058	160.234	175.300	67.768	272.728	263.782	67.988	73.645	257.539	190.676	72.544	78.673	80.271	83.535	193.118	81.416	-8191	255	
7608.966	1	1	0	0	0.31973	0.32543	0.11854	0.17052	0.14767	0.038674	0.25256	0.09588	0.026912	0.1327	0.091423	0.1225	0.21495	0.15818	0.31521	0.19333	-2.175	-2.6188	-2.7208	-2.3604	-2.6375	-2.7375	-2.6542	-2.8896	-2.7042	-2.5375	-2.8354	-2.5979	-2.6729	-2.85	-2.4354	-2.825	102.839	139.079	128.759	381.313	308.521	278.238	410.876	340.529	70.255	331.606	369.346	403.906	122.056	343.906	97.680	239.272	0.00054575	0.0011131	0.00012629	816.31	7.3799e-06	3.779e-06	905.67	190.32	1.1257e-05	3.7089e-06	253.37	86.533	56.292	22.074	4.4922e-06	35.792	0.00096588	0.0011033	0.00030564	745.95	1.1769e-05	1.1965e-05	827.37	176.63	1.1891e-05	1.2087e-05	234.31	79.816	52.744	20.728	1.2081e-05	33.326	299.158	158.179	216.287	67.975	291.782	217.150	67.833	73.518	283.972	231.166	72.652	78.524	79.957	84.092	321.074	81.152	-8191	255	
7609.062	1	1	0	0	0.41885	0.077964	0.080878	0.012965	0.23185	0.079529	0.06197	0.15472	0.22196	0.11007	0.29594	0.075188	0.17465	0.10922	0.015676	0.37155	-2.3479	-2.4125	-2.7938	-2.4896	-2.6188	-2.7333	-2.5563	-2.9833	-2.7646	-2.5812	-2.8312	-2.6375	-2.4854	-2.7625	-2.4896	-2.9021	128.799	286.205	83.660	389.902	356.958	368.246	410.986	387.123	362.420	173.788	82.151	240.207	113.542	223.190	316.446	340.726	0.0006868	0.00050027	0.00015579	814.48	1.2235e-05	3.0708e-06	901.4	191.49	6.0123e-06	1.3362e-06	251.51	85.077	56.028	22.108	4.4158e-06	35.932	0.00099229	0.0011371	0.00031212	746.52	1.1806e-05	1.1994e-05	822.83	176.64	1.2028e-05	1.2348e-05	233.39	79.273	52.713	20.785	1.2106e-05	33.495	287.068	200.243	198.473	67.991	218.200	123.285	68.275	73.669	397.022	280.095	72.501	78.423	80.327	83.515	262.096	81.233	-8191	255	
7609.183	1	1	0	0	0.11182	0.11419	0.22967	0.21198	0.26472	0.30525	0.042567	0.36632	0.20009	0.10412	0.22533	0.14065	0.090826	0.24573	0.028872	0.099898	-2.1542	-2.2896	-2.7292	-2.7083	-2.7083	-3.0521	-2.6625	-2.8583	-2.8583	-2.4396	-2.8604	-2.5542	-2.6437	-2.8271	-2.6271	-2.7375	324.974	208.663	330.679	346.906	175.871	129.110	95.564	296.190	274.210	160.812	350.713	387.218	345.742	365.704	112.205	105.655	0.0004568	0.00056758	8.6237e-05	820.93	8.5971e-07	2.327e-06	900.93	192.05	2.3728e-06	3.4783e-06	255.13	85.91	56.988	22.138	9.3154e-06	35.836	0.00097839	0.0011076	0.0003042	750.3	1.1616e-05	1.214e-05	825.13	176.96	1.1466e-05	1.2216e-05	235.67	79.824	53.262	20.852	1.2011e-05	33.572	281.444	261.396	150.781	68.131	171.407	346.468	68.359	73.956	214.198	170.269	72.569	78.769	80.210	84.151	182.870	80.585	-8191	255	
7609.254	1	1	0	0	0.23776	0.06003	0.1461	0.38343	0.15243	0.19693	0.22002	0.30987	0.02408	0.15687	0.081195	0.33654	0.31452	0.087504	0.021182	0.080729	-2.4396	-2.4042	-2.9271	-2.9333	-2.4958	-3.025	-2.6604	-2.5958	-2.9625	-2.4292	-2.8271	-2.9146	-2.2667	-3.0708	-2.6229	-2.7104	181.377	315.627	259.566	300.630	103.842	371.701	388.120	247.574	343.902	71.947	405.224	376.770	118.824	392.215	114.030	114.551	0.00073229	0.00052455	0.00012012	826.11	4.3995e-06	2.3704e-06	928.41	196.49	1.0061e-05	4.5494e-06	257.29	86.806	57.039	21.853	2.0486e-06	35.548	0.0010001	0.0011641	0.00033195	759.02	1.2901e-05	1.3107e-05	847.41	181.54	1.316e-05	1.3927e-05	240.2	80.378	53.694	20.703	1.3631e-05	33.405	283.454	117.410	377.308	68.249	241.785	79.298	68.391	73.464	228.336	354.965	72.367	78.807	80.000	83.673	288.442	80.912	-8191	255	
7609.351	1	1	0	0	0.15202	0.037108	0.066052	0.22897	0.057372	0.1639	0.36509	0.058794	0.1169	0.29691	0.098573	0.090536	0.22266	0.3231	0.26237	0.25426	-2.4833	-2.2646	-3.0021	-2.8	-2.5979	-2.8729	-2.7354	-2.6146	-2.9	-2.4208	-2.8833	-2.9896	-2.5125	-2.9083	-2.7687	-2.3271	253.862	208.534	327.893	56.938	364.258	252.027	404.262	241.359	171.747	146.460	55.749	283.402	140.463	170.069	331.237	330.377	0.00054094	0.00040005	0.00021975	835.27	1.949e-06	3.2419e-06	931.75	195.72	2.0706e-06	1.027e-06	258.73	87.242	57.92	22.299	1.1336e-05	35.909	0.0010947	0.0012712	0.00035474	767.21	1.3077e-05	1.3805e-05	851.6	181.59	1.3707e-05	1.4325e-05	241.5	80.889	54.135	20.988	1.4319e-05	33.709	286.330	153.395	108.350	68.437	347.208	97.422	68.320	73.459	238.988	199.808	72.583	78.442	79.860	83.942	212.996	81.517	-8191	255	
7609.447	1	1	0	0	0.25195	0.10064	0.072399	0.35249	0.25868	0.077147	0.10991	0.13687	0.1803	0.20157	0.14193	0.31848	0.23787	0.18682	0.21627	0.26544	-2.5542	-2.3438	-2.6625	-2.9021	-2.1917	-2.8	-2.8208	-2.6229	-3.05	-2.6479	-2.7792	-2.8417	-2.5333	-2.9958	-2.6458	-2.6396	215.503	154.300	96.885	398.836	146.848	188.209	281.572	96.170	272.759	195.725	399.243	385.574	324.779	286.596	362.189	63.130	0.00073469	0.00060623	0.00010497	867.79	9.8199e-06	7.2678e-06	955.94	205.22	1.1343e-05	1.0071e-05	267.02	88.634	59.06	22.368	1.0157e-05	36.365	0.0011712	0.0013783	0.00039337	792.84	1.4998e-05	1.5695e-05	877.8	190.18	1.543e-05	1.6171e-05	248.05	82.129	55.609	21.288	1.5691e-05	33.963	280.775	165.573	168.257	68.129	219.345	171.356	68.080	73.627	268.654	214.068	72.460	78.759	79.578	84.334	202.843	81.387	-8191	255	
7609.566	1	1	0	0	0.22358	0.15381	0.29389	0.30254	0.1286	0.39676	0.26234	0.15252	0.1615	0.20237	0.14803	0.087457	0.33477	0.12225	0.14187	0.057685	-2.4646	-2.5417	-2.7625	-3.0854	-2.4	-2.8833	-2.9167	-2.7208	-3.0292	-2.6479	-2.7667	-2.9792	-2.6208	-2.85	-2.8875	-2.5042	358.067	389.716	209.173	79.758	339.519	127.961	314.831	288.993	328.599	234.908	262.297	72.713	97.283	120.490	262.773	390.648	0.00045626	0.00051678	0.00019131	878.86	1.7437e-05	2.765e-06	977.49	211.34	7.2353e-06	3.7411e-06	274.89	88.767	60.054	22.12	1.0744e-05	35.522	0.0012519	0.0014559	0.00041626	808.11	1.5634e-05	1.6728e-05	897.98	196.52	1.6635e-05	1.7494e-05	256.88	82.731	56.791	21.15	1.714e-05	33.632	272.312	370.621	142.087	67.930	206.873	193.402	67.623	73.293	273.361	191.701	71.917	77.772	78.873	84.096	259.000	81.210	-8191	255	
7609.662	1	1	0	0	0.074901	0.1083	0.13689	0.028357	0.15343	0.22028	0.099553	0.1212	0.066939	0.14696	0.10162	0.072267	0.17496	0.22612	0.11826	0.19339	-2.525	-2.7	-2.6937	-2.9375	-2.325	-2.8333	-3.0083	-2.5125	-2.9167	-2.9125	-2.4896	-2.9125	-2.3167	-2.7375	-2.8	-2.5354	113.549	352.408	251.860	371.249	387.919	401.463	411.211	222.659	184.540	407.381	283.453	114.785	361.056	129.079	346.182	358.472	0.00064671	0.00027569	7.7992e-05	916.13	7.0923e-06	6.1374e-06	1014.3	218.77	1.4918e-06	9.9238e-06	280.09	89.064	60.139	22.085	1.823e-06	35.321	0.0013755	0.0016598	0.00046329	845.64	1.7366e-05	1.8607e-05	927.95	203.71	1.7483e-05	1.8707e-05	260.39	82.831	56.8	20.864	1.7394e-05	33.287	275.770	347.535	224.735	68.339	314.784	126.171	67.912	73.218	273.494	211.786	71.995	78.148	79.035	84.159	142.704	81.472	-8191	255	
7609.760	1	1	0	0	0.18044	0.2132	0.12993	0.12405	0.47507	0.2198	0.28645	0.10725	0.24447	0.071882	0.031639	0.1692	0.064695	0.10285	0.23702	0.19207	-2.4208	-2.4896	-2.35	-3.0208	-2.3937	-2.6646	-2.975	-2.4396	-2.8083	-2.6063	-2.4625	-2.8063	-2.5708	-2.6	-3.0146	-2.4625	287.877	334.047	248.638	331.877	272.698	389.386	356.716	394.908	196.833	318.125	216.846	78.194	110.195	332.725	90.065	342.041	0.000664	0.00084432	0.00033121	894.81	1.0312e-05	2.3994e-06	973.05	210.43	1.1141e-05	5.2984e-06	266.62	85.593	58.135	21.747	3.8121e-06	35.021	0.0014028	0.0016526	0.0004621	822.49	1.7303e-05	1.7391e-05	893.92	193.62	1.6756e-05	1.713e-05	249.11	80.553	54.7	20.732	1.6471e-05	33.2	284.299	165.503	190.445	68.251	222.295	304.461	68.097	73.280	214.345	313.527	72.458	78.280	79.285	84.273	257.492	81.484	-8191	255	
7609.854	1	1	0	0	0.22939	0.046625	0.03695	0.05236	0.10338	0.10239	0.32959	0.058201	0.15985	0.22564	0.070109	0.25787	0.079249	0.3514	0.10958	0.23004	-2.4021	-2.5708	-2.5271	-3.0312	-2.5938	-2.6667	-3.0583	-2.5167	-2.6437	-2.7354	-2.5979	-2.9479	-2.6542	-2.4333	-2.8271	-2.4792	67.802	266.119	158.132	86.936	354.653	321.511	338.675	235.499	178.865	267.223	413.514	395.957	56.753	357.334	145.277	230.945	0.00060202	0.00055244	0.00014357	874.33	1.112e-05	6.0603e-06	948.94	203.31	5.3661e-06	5.968e-06	263.06	86.41	57.019	22.143	1.2271e-06	35.076	0.001309	0.0015478	0.00042705	803.46	1.6207e-05	1.6909e-05	874.16	188	1.5734e-05	1.6706e-05	244.38	79.89	54.118	20.891	1.6219e-05	33.365	292.259	212.870	132.581	68.123	232.314	174.725	67.775	73.309	159.185	255.168	72.446	78.566	79.339	83.852	330.306	81.226	-8191	255	
7609.950	1	1	0	0	0.1132	0.135	0.18361	0.1134	0.2338	0.26349	0.2898	0.2122	0.084909	0.17203	0.38901	0.305	0.14263	0.1405	0.060863	0.19042	-2.2438	-2.7479	-2.4229	-2.775	-2.5354	-2.475	-2.9042	-2.5604	-2.6125	-2.8688	-2.4083	-3.0229	-2.9667	-2.3812	-2.8958	-2.5438	325.337	317.931	198.849	390.926	392.406	97.270	408.096	56.335	114.668	400.540	362.711	356.627	363.265	409.540	362.460	310.478	0.00046128	0.00031372	0.0001266	887.9	3.1158e-06	6.7199e-06	978.61	211.05	6.9716e-06	4.1373e-06	271.14	86.698	58.7	22.188	5.3765e-06	35.323	0.0012933	0.001538	0.00043513	814.98	1.6388e-05	1.7362e-05	896.36	195.89	1.6958e-05	1.7664e-05	253.75	81.224	55.787	21.002	1.7667e-05	33.362	280.286	140.978	137.464	68.013	106.853	222.970	67.832	73.253	260.230	206.655	71.566	78.460	78.962	83.908	242.287	80.938	-8191	255	
7610.046	1	1	0	0	0.38231	0.2451	0.15604	0.056723	0.12988	0.23696	0.096855	0.15406	0.073167	0.14357	0.14645	0.14139	0.052843	0.15536	0.19414	0.06107	-2.1396	-2.9458	-2.4958	-2.9896	-2.7771	-2.5958	-3.075	-2.5292	-2.6375	-2.7438	-2.5125	-2.7875	-2.8021	-2.5771	-2.8958	-2.6479	376.705	194.381	397.564	340.940	313.453	164.856	272.551	73.201	84.305	348.284	392.352	60.770	344.554	341.271	320.000	259.923	0.00054559	1.9805e-05	0.00017626	910	8.2966e-06	2.6948e-06	994.15	213.94	2.7814e-06	5.9533e-06	275.89	86.484	59.255	21.658	6.8032e-06	35.426	0.0013829	0.0016427	0.00045546	835.29	1.7417e-05	1.8371e-05	911.4	199.31	1.7629e-05	1.8225e-05	256.92	81.532	56.025	20.824	1.8229e-05	33.389	297.522	115.540	81.658	68.073	212.390	267.704	67.598	73.044	93.875	218.442	71.968	78.240	79.809	84.213	214.688	80.627	-8191	255	
7610.167	1	1	0	0	0.31831	0.1439	0.11429	0.2962	0.046112	0.24492	0.068504	0.22795	0.15491	0.081456	0.054781	0.11709	0.20851	0.15528	0.19914	0.22776	-2.2229	-2.7042	-2.6146	-2.7625	-2.7458	-2.3688	-3.1729	-2.5563	-2.5479	-3.0187	-2.55	-2.7188	-2.8875	-2.3375	-2.875	-2.6083	90.174	172.657	191.040	286.323	79.790	92.154	312.543	368.043	114.119	107.604	398.965	371.582	330.804	294.592	150.112	112.147	0.00052675	0.00030706	0.00025582	903.96	6.9362e-06	5.6731e-06	984.35	214.69	2.6239e-06	2.0736e-06	274.32	87.686	59.205	21.926	6.0366e-06	35.064	0.0014244	0.0016805	0.00045747	832.44	1.7629e-05	1.8433e-05	907.88	198.69	1.7175e-05	1.8252e-05	256.07	81.675	55.859	20.818	1.7862e-05	33.137	267.674	108.889	145.726	67.751	239.054	249.562	68.104	72.967	212.945	98.436	71.981	78.633	79.591	83.777	229.131	80.949	-8191	255	
7610.263	1	1	0	0	0.32955	0.020242	0.22582	0.34259	0.056683	0.20101	0.10202	0.44766	0.094493	0.039277	0.20758	0.12417	0.14241	0.24797	0.023161	0.22248	-2.2146	-2.8354	-2.4229	-2.7896	-2.7521	-2.5646	-2.9271	-2.7229	-2.5938	-2.9167	-2.6104	-2.8417	-2.9813	-2.5208	-2.9271	-2.8042	305.487	170.756	142.271	348.093	281.153	241.901	234.552	370.430	205.329	239.495	273.267	405.664	313.336	357.284	174.135	401.204	0.00056122	0.00049729	0.00014017	902.9	4.436e-06	7.0417e-06	981.94	212.36	3.1235e-06	7.0077e-06	269.91	86.648	58.432	21.581	6.1528e-06	34.901	0.0014007	0.0016605	0.00046583	830.73	1.7468e-05	1.87e-05	902.2	197	1.7323e-05	1.7974e-05	252.87	80.646	55.095	20.582	1.7524e-05	32.959	286.109	380.478	212.088	67.917	371.909	178.772	67.839	73.382	133.382	154.579	72.337	77.896	79.924	83.798	230.804	81.685	-8191	255	
7610.359	1	1	0	0	0.074756	0.12899	0.14538	0.14204	0.19661	0.11787	0.23634	0.20703	0.38802	0.21212	0.12521	0.089499	0.10027	0.25901	0.25971	0.086562	-1.8479	-2.925	-2.6312	-2.5438	-2.9562	-2.5187	-2.8917	-2.7687	-2.4542	-2.925	-2.7313	-2.5687	-2.8646	-2.5229	-2.8208	-2.9167	330.897	250.586	256.427	341.251	183.678	85.971	366.275	375.382	415.567	397.344	396.050	217.487	136.553	65.162	259.140	392.730	0.00046469	0.00037306	0.00020295	878.6	1.0523e-05	6.0541e-06	961.75	205.48	6.1929e-06	8.6201e-06	265.25	85.172	57.045	21.683	4.0515e-06	35.11	0.0013794	0.0015895	0.00044889	810.79	1.6689e-05	1.7456e-05	881.51	190.52	1.6151e-05	1.7156e-05	245.78	79.707	53.921	20.548	1.677e-05	33.029	279.682	187.592	195.752	67.998	234.610	165.437	67.948	73.719	221.834	134.318	72.248	78.874	79.594	83.835	183.037	81.082	-8191	255	
7610.480	1	1	0	0	0.09303	0.30973	0.28039	0.17757	0.12256	0.21946	0.091549	0.19665	0.20406	0.088695	0.10829	0.10176	0.15545	0.036637	0.13917	0.1837	-2.0042	-2.9833	-2.7625	-2.725	-2.9958	-2.5229	-2.8229	-2.9979	-2.4313	-2.9771	-2.7042	-2.4188	-3.0625	-2.4667	-2.6958	-2.9562	323.789	234.264	213.210	349.314	192.294	173.191	355.188	325.475	122.670	216.238	365.790	109.026	87.402	353.103	366.417	143.953	0.00053551	0.00071352	0.00022288	876.15	2.2753e-06	9.5369e-06	953.58	201.52	1.2537e-05	3.8927e-06	262.12	85.825	56.781	21.698	8.5053e-06	35.329	0.0013241	0.0015631	0.00042084	801.6	1.6017e-05	1.7017e-05	874.31	188	1.6307e-05	1.6342e-05	244.41	79.79	53.665	20.606	1.5988e-05	33.27	316.075	374.314	94.435	68.002	81.184	304.935	67.990	73.442	237.846	245.791	72.267	78.975	79.853	83.789	219.700	81.536	-8191	255	
7610.552	1	1	0	0	0.18084	0.047837	0.12383	0.027495	0.1878	0.12746	0.32121	0.093601	0.18159	0.15562	0.13715	0.22239	0.13472	0.09634	0.13958	0.2076	-1.9792	-2.9021	-2.7229	-2.6104	-2.8542	-2.4396	-2.8917	-2.9104	-2.5125	-2.8667	-2.8	-2.5167	-2.8896	-2.6375	-2.4979	-3.0354	90.671	359.658	367.550	218.100	208.211	292.165	355.871	210.608	346.166	216.984	337.061	378.479	166.404	324.934	166.722	392.227	0.00075805	0.00022878	0.00020302	852.46	1.0378e-05	2.7709e-06	932.97	199.26	1.1616e-05	9.1869e-06	260.39	85.984	56.777	21.716	3.1499e-06	35.209	0.0012464	0.0014592	0.00040664	782.4	1.5257e-05	1.6151e-05	857.67	183.96	1.5069e-05	1.5689e-05	242.78	79.769	53.434	20.638	1.5592e-05	33.26	290.502	219.298	122.187	68.297	281.582	220.308	67.791	73.428	198.356	200.198	72.445	78.455	79.792	84.287	301.394	81.364	-8191	255	
7610.646	1	1	0	0	0.22531	0.1451	0.054303	0.18147	0.11595	0.13325	0.34294	0.13131	0.15321	0.28477	0.070062	0.14624	0.031457	0.21602	0.26181	0.17173	-1.9375	-2.7292	-2.5708	-2.5521	-2.7542	-2.7729	-2.5396	-2.9146	-2.3417	-2.75	-2.8063	-2.5375	-2.8812	-2.5062	-2.4437	-3.1042	286.232	201.326	220.643	91.608	326.057	377.845	364.635	119.718	100.103	191.188	232.266	241.699	110.966	188.864	311.640	374.581	0.00052827	0.00065066	0.00020543	849.88	9.0785e-06	6.1615e-06	934.19	196.89	6.5225e-06	8.049e-06	257.77	85.061	57.331	21.908	4.3357e-06	35.166	0.0012253	0.0014218	0.00039301	779.61	1.4948e-05	1.5532e-05	854.91	182.83	1.4839e-05	1.5432e-05	240.75	79.453	53.618	20.748	1.5267e-05	33.294	287.650	120.776	142.414	67.843	301.167	228.019	68.105	73.679	257.880	184.102	72.250	78.162	79.484	83.985	273.980	81.066	-8191	255	
7610.742	1	1	0	0	0.16998	0.16736	0.1772	0.25036	0.11822	0.059881	0.46681	0.18006	0.19735	0.11727	0.1742	0.12351	0.074538	0.20719	0.094414	0.079486	-2.0563	-2.6437	-2.9104	-2.3479	-2.7583	-2.5729	-2.5854	-2.9062	-2.5896	-2.7333	-2.9	-2.4229	-2.8125	-2.9062	-2.6437	-2.9708	195.189	184.303	352.541	368.142	255.324	154.057	355.667	342.353	152.684	123.402	380.586	330.574	68.954	351.985	192.135	257.023	0.00035045	5.7306e-05	0.00017907	853.58	1.5095e-06	2.7281e-06	934.98	197.96	1.236e-05	1.3516e-06	259.61	85.204	56.27	21.844	8.8449e-06	35.531	0.0012141	0.0014618	0.00040173	786.91	1.5277e-05	1.5959e-05	862.11	184.27	1.5198e-05	1.6e-05	242.04	79.675	53.461	20.749	1.5588e-05	33.419	290.719	330.760	154.527	68.421	132.323	289.043	68.200	73.679	259.497	187.248	72.611	78.543	80.324	83.786	226.968	81.306	-8191	255	
7610.863	1	1	0	0	0.29712	0.13042	0.21448	0.15961	0.1803	0.14095	0.23718	0.13664	0.09211	0.34002	0.097107	0.07971	0.31313	0.25025	0.20578	0.066146	-2.1813	-2.5646	-2.8937	-2.4	-2.9437	-2.6833	-2.6292	-3.1437	-2.3708	-2.5354	-3.0062	-2.6208	-2.6229	-2.725	-2.4646	-3.0167	59.702	179.023	76.912	62.955	97.441	234.647	69.082	291.910	327.938	272.892	299.127	99.276	96.618	271.761	219.514	183.077	0.00054948	0.00080626	0.00017675	850	1.8152e-05	9.8077e-06	926.67	195.6	7.7107e-06	4.5623e-06	256.36	85.793	56.986	21.833	4.9157e-06	35.471	0.0012469	0.001461	0.00039739	777.76	1.5366e-05	1.6035e-05	851	181.82	1.4639e-05	1.4968e-05	239.24	79.62	53.338	20.727	1.4975e-05	33.404	266.611	166.854	92.112	68.034	219.531	242.846	67.986	73.762	286.722	187.600	72.852	78.497	79.631	84.437	229.098	81.100	-8191	255	
7610.959	1	1	0	0	0.10074	0.06171	0.13052	0.38286	0.098165	0.12647	0.26586	0.10087	0.11803	0.21135	0.15917	0.15184	0.26691	0.086363	0.33207	0.15192	-2.2687	-2.4167	-2.9479	-2.6417	-2.7562	-2.9021	-2.3771	-2.8937	-2.7208	-2.4354	-2.8896	-2.4792	-2.6437	-2.7729	-2.3583	-3.1021	79.148	359.600	375.992	378.722	375.376	388.256	323.080	193.967	70.566	102.188	327.993	408.124	314.795	218.251	173.008	239.834	0.00061951	0.00047973	0.0001124	839.64	7.0183e-06	2.5485e-06	922.25	195.57	7.2879e-06	1.8826e-06	257.08	85.626	56.778	22.041	8.1648e-06	35.826	0.0011688	0.0013986	0.00039065	770.34	1.4624e-05	1.5377e-05	846.23	180.94	1.4832e-05	1.5251e-05	238.78	79.899	53.33	20.908	1.468e-05	33.523	273.500	197.306	179.540	68.263	227.344	267.559	68.213	73.549	229.254	191.351	72.370	78.574	79.717	83.718	230.583	81.070	-8191	255	
7611.055	1	1	0	0	0.037334	0.17049	0.25032	0.24759	0.14707	0.050977	0.029832	0.25847	0.08738	0.013115	0.1776	0.12354	0.20876	0.21472	0.1343	0.023951	-2.3208	-2.4708	-2.9813	-2.7646	-2.6792	-3.0521	-2.525	-2.9917	-2.7938	-2.6396	-2.9188	-2.5896	-2.6979	-3.1042	-2.4792	-2.6708	326.674	303.473	275.763	373.479	370.839	273.618	231.093	93.735	252.071	70.444	289.449	352.494	359.984	118.995	224.327	355.916	0.00058149	0.00076417	0.00018076	846.56	7.1289e-06	7.0669e-06	926.78	197.31	5.4554e-06	5.5646e-06	258.21	86.03	56.866	21.904	2.6579e-07	35.371	0.0011916	0.0013671	0.00038728	778.58	1.4715e-05	1.5168e-05	854.72	183.62	1.4569e-05	1.5923e-05	239.95	79.573	53.384	20.774	1.511e-05	33.222	266.607	140.510	104.968	68.291	266.676	144.279	67.860	73.489	232.404	150.834	72.453	78.934	79.865	83.442	343.507	81.178	-8191	255	
7611.127	1	1	0	0	0.20217	0.02128	0.15128	0.027271	0.26506	0.40765	0.20121	0.071761	0.025419	0.12698	0.049415	0.11626	0.088254	0.17297	0.027872	0.16564	-2.4521	-2.3125	-2.825	-2.6125	-2.5229	-2.9333	-2.6813	-2.7729	-2.8333	-2.3312	-2.8479	-2.9813	-2.5146	-2.9625	-2.5604	-2.7458	216.918	373.893	400.667	343.837	282.223	69.217	415.198	87.684	131.695	335.654	411.291	240.236	278.902	225.093	333.375	275.300	0.00052307	0.00045825	0.00022563	854.82	1.1701e-05	4.3546e-06	934.22	200.22	1.0113e-05	1.8063e-06	257.75	85.559	56.625	21.806	4.1112e-07	35.573	0.0012024	0.0014266	0.00039337	781.95	1.48e-05	1.5443e-05	858.95	184.87	1.4723e-05	1.5359e-05	240.72	79.75	53.7	20.746	1.5142e-05	33.394	285.966	293.569	181.027	67.895	230.161	141.322	68.254	73.685	260.476	122.622	72.719	78.979	79.536	83.963	260.657	81.199	-8191	255	
7611.247	1	1	0	0	0.21154	0.072422	0.093684	0.25743	0.24732	0.025973	0.144	0.13064	0.21858	0.07549	0.15954	0.30586	0.19882	0.18833	0.15175	0.21215	-2.3063	-2.2729	-2.9521	-2.8229	-2.6583	-3.0229	-2.7438	-2.6896	-2.9354	-2.5042	-2.8354	-2.6333	-2.4437	-2.9458	-2.4562	-2.8208	317.738	300.810	210.767	386.784	170.673	199.243	381.453	410.828	392.273	380.136	192.415	271.876	149.386	394.320	378.710	179.589	0.00049234	0.00053325	0.00010901	849.45	2.1265e-06	8.6265e-06	935.9	197.81	6.9026e-06	3.166e-06	257.35	85.702	56.697	22.002	3.5274e-06	35.717	0.0012152	0.001435	0.00039435	781.73	1.487e-05	1.5534e-05	855.24	183.26	1.5155e-05	1.5295e-05	238.99	79.288	53.344	20.73	1.47e-05	33.382	282.916	139.561	403.256	68.111	348.005	212.061	67.703	73.791	214.026	174.223	72.185	78.271	80.062	83.863	176.145	81.099	-8191	255	
7611.343	1	1	0	0	0.17528	0.18505	0.19877	0.034312	0.18631	0.22643	0.10406	0.28354	0.12457	0.24648	0.27392	0.13164	0.1594	0.07829	0.22319	0.21786	-2.2979	-2.4896	-2.8333	-2.8958	-2.6042	-2.9208	-2.7188	-2.5583	-2.8125	-2.4146	-2.8646	-2.8896	-2.5958	-2.8729	-2.7438	-2.6521	400.489	183.302	245.122	390.884	157.246	103.362	342.306	333.550	157.390	97.915	321.630	413.168	321.115	88.096	78.783	403.584	0.00050408	0.00044527	0.00014777	849.67	6.1052e-06	7.7385e-06	928.44	196.21	3.3838e-06	5.192e-06	254	84.284	55.59	21.612	8.2684e-06	35.334	0.0011882	0.0013934	0.00038767	780.08	1.4746e-05	1.5401e-05	850.97	181.34	1.4471e-05	1.5035e-05	236.13	78.588	52.434	20.498	1.3947e-05	33.096	290.950	109.066	69.254	68.225	165.930	221.214	68.261	73.519	236.496	142.355	72.469	78.537	79.977	84.642	263.707	81.357	-8191	255	
7611.440	1	1	0	0	0.16026	0.24588	0.29169	0.11525	0.17161	0.25405	0.17482	0.14428	0.074209	0.1402	0.19602	0.14009	0.17248	0.082045	0.10325	0.14669	-2.3542	-2.4021	-2.4875	-2.8417	-2.4562	-2.9104	-2.7479	-2.6125	-2.9542	-2.4437	-2.7583	-2.6917	-2.3479	-2.9167	-2.6771	-2.4938	182.105	382.048	262.553	300.392	272.232	220.885	352.824	342.543	189.967	349.155	380.242	377.641	101.869	346.989	361.140	245.802	0.00062291	0.00015413	0.00011029	828.1	4.4308e-06	8.4635e-06	907.63	193.23	1.906e-05	3.6939e-06	252.66	83.233	55.559	21.411	1.211e-05	35.274	0.0011092	0.0012907	0.00036238	756.84	1.3511e-05	1.4347e-05	832.09	177.73	1.3822e-05	1.4489e-05	234.11	77.84	52.146	20.336	1.4594e-05	32.977	295.009	326.323	189.374	68.485	213.451	143.502	68.032	73.657	253.370	63.690	72.835	78.668	80.620	83.175	214.681	80.795	-8191	255	
7611.560	1	1	0	0	0.25995	0.1661	0.19238	0.33761	0.14638	0.16878	0.15416	0.32308	0.20162	0.046192	0.26986	0.31751	0.10496	0.20686	0.27307	0.062933	-2.5583	-2.3104	-2.5771	-2.8708	-2.4229	-2.8208	-2.8396	-2.4625	-2.9062	-2.6708	-2.6396	-2.7708	-2.3354	-2.7354	-2.6312	-2.625	373.177	115.056	138.682	294.763	347.264	93.558	318.732	362.515	250.941	322.997	310.608	82.994	159.149	405.060	231.643	273.156	0.00060107	0.00070778	0.00019322	836.63	8.4519e-06	3.6678e-06	914.89	192.49	3.2827e-06	9.6958e-06	251.78	83.806	55.59	21.722	8.6514e-06	34.994	0.0011396	0.0013367	0.00038048	767.03	1.4383e-05	1.4794e-05	838.68	178.97	1.4364e-05	1.4678e-05	235.46	77.994	52.462	20.431	1.4873e-05	32.996	295.385	177.559	109.289	68.551	267.090	146.270	68.081	73.965	318.290	172.364	72.600	78.246	79.650	83.835	271.573	81.340	-8191	255	
7611.655	1	1	0	0	0.19974	0.022035	0.30003	0.087833	0.34893	0.18251	0.11756	0.23951	0.26453	0.12773	0.27799	0.056103	0.11394	0.077674	0.087981	0.29508	-2.2979	-2.4625	-2.5417	-2.9771	-2.2646	-2.5083	-2.9917	-2.5271	-2.8417	-2.55	-2.5125	-2.6833	-2.6437	-2.5958	-2.6583	-2.4729	329.442	408.664	251.323	57.525	206.315	211.456	293.712	385.714	336.921	211.453	326.663	359.389	241.058	341.510	132.566	369.291	0.00058386	4.6201e-05	4.1263e-05	837.29	1.1466e-05	3.543e-06	917.52	193.37	3.8755e-06	2.2727e-06	252.33	84.094	55.453	21.647	6.992e-06	35.304	0.0011594	0.0013733	0.00038559	770.6	1.4343e-05	1.5323e-05	842.35	178.71	1.3998e-05	1.4838e-05	234.63	78.33	52.184	20.468	1.4282e-05	33.168	299.262	103.472	359.910	67.997	275.502	173.685	68.181	73.465	211.461	208.195	72.410	78.457	80.076	84.157	197.080	81.256	-8191	255	
7611.751	1	1	0	0	0.28594	0.093833	0.099597	0.018537	0.18427	0.19072	0.18922	0.021756	0.14882	0.09189	0.31886	0.064281	0.21217	0.17678	0.039734	0.22605	-2.3979	-2.5604	-2.4875	-2.9479	-2.5312	-2.6188	-2.9521	-2.4375	-2.7021	-2.5708	-2.4979	-2.9292	-2.4896	-2.6229	-2.8479	-2.575	414.891	133.547	142.116	300.188	73.769	240.093	305.973	305.864	254.006	355.101	350.187	217.344	352.924	399.909	397.933	379.440	0.00060983	0.00044448	0.00013225	827.13	1.064e-05	1.1279e-05	908.79	192.31	3.8974e-06	5.1822e-06	252.83	85.361	55.271	21.672	8.4344e-06	35.29	0.0011497	0.0012765	0.00036639	758.08	1.3762e-05	1.4294e-05	832.79	177.51	1.362e-05	1.4002e-05	234.73	78.896	52.175	20.533	1.392e-05	33.217	279.890	123.731	249.624	68.470	211.534	153.600	67.981	73.731	313.737	79.594	72.972	78.630	80.692	83.809	234.561	81.289	-8191	255	
7611.847	1	1	0	0	0.038328	0.22307	0.081185	0.24449	0.44116	0.18943	0.10726	0.35346	0.13009	0.24342	0.058125	0.12378	0.020331	0.21938	0.1459	0.19421	-2.3542	-2.6521	-2.4542	-2.8771	-2.5229	-2.6188	-2.9979	-2.4167	-2.8563	-2.8604	-2.5354	-3.0792	-2.5375	-2.7625	-2.9458	-2.6125	62.830	152.733	258.253	58.842	61.162	146.974	322.913	324.682	152.113	326.896	385.210	78.711	235.721	108.306	280.630	70.361	0.00056685	0.00053352	0.00033965	828.24	1.1427e-05	7.7241e-06	910.04	191.15	5.9219e-06	5.3338e-06	250.42	83.374	55.228	21.599	6.2529e-06	35.257	0.0011115	0.0013106	0.00036323	761.08	1.37e-05	1.4249e-05	832.53	177.41	1.3942e-05	1.4424e-05	232.38	77.824	51.852	20.367	1.3656e-05	33.136	276.759	199.835	154.509	68.114	106.010	196.838	68.205	74.059	176.215	247.361	72.453	78.802	80.127	84.076	199.889	81.299	-8191	255	
7611.943	1	1	0	0	0.23548	0.076324	0.098806	0.13309	0.16802	0.18524	0.11463	0.025954	0.1401	0.11373	0.081991	0.052199	0.26637	0.27974	0.12112	0.047704	-2.2188	-2.7125	-2.3958	-3.0021	-2.7833	-2.4292	-3.05	-2.6458	-2.6813	-3.0125	-2.575	-2.8542	-2.7938	-2.4771	-3.0438	-2.65	392.957	398.154	164.199	76.240	246.992	184.589	122.831	368.387	253.908	323.670	396.120	167.787	339.009	346.243	129.946	198.280	0.00060971	0.00070246	0.00014766	816.26	9.2612e-06	5.8438e-06	903.03	188.98	5.7912e-06	4.0516e-06	250.35	83.946	55.594	21.478	3.681e-06	35.291	0.0011061	0.0012567	0.0003489	750.62	1.3336e-05	1.3879e-05	822.41	175.24	1.3256e-05	1.3545e-05	231.39	77.856	51.972	20.296	1.3206e-05	32.915	298.679	238.109	64.620	68.254	284.048	136.178	67.685	74.009	345.587	310.312	72.648	78.228	79.839	84.054	289.719	81.416	-8191	255	
7612.039	1	1	0	0	0.20039	0.18531	0.14626	0.27521	0.31665	0.11006	0.12585	0.21013	0.027258	0.093233	0.16765	0.24808	0.070314	0.27369	0.23475	0.14878	-2.2417	-2.8771	-2.2979	-2.8896	-2.8271	-2.4917	-2.9958	-2.5104	-2.6104	-2.8667	-2.4958	-2.6854	-2.6792	-2.4229	-2.8042	-2.6729	201.065	311.085	354.899	233.182	326.824	322.933	245.330	352.768	316.743	327.367	384.118	261.227	210.641	288.786	62.483	400.569	0.00058002	0.00053063	0.00016625	824.45	2.2313e-06	3.261e-06	904.24	190.35	9.0718e-06	9.4829e-06	250.25	84.01	55.158	21.411	1.1603e-06	35.35	0.0011091	0.0012559	0.00035728	755.8	1.3497e-05	1.4e-05	827.3	176.5	1.3589e-05	1.4139e-05	232.56	78.028	51.992	20.307	1.3751e-05	32.906	277.798	129.066	100.885	68.438	267.014	81.791	67.841	74.092	255.847	238.378	72.801	78.807	79.771	84.095	278.581	80.732	-8191	255	
7612.160	1	1	0	0	0.1191	0.089668	0.24872	0.17914	0.12245	0.22821	0.31415	0.19865	0.32244	0.2396	0.071747	0.16346	0.14796	0.10311	0.095097	0.20826	-2.2854	-2.8875	-2.375	-2.8125	-2.7854	-2.4521	-2.9062	-2.6792	-2.5646	-2.8042	-2.5396	-2.6667	-2.8417	-2.425	-2.8104	-2.6583	247.233	148.107	139.631	299.703	273.752	353.761	374.662	97.649	291.095	170.591	392.440	182.946	370.201	203.116	229.828	379.500	0.00068291	0.00018361	0.00015768	828.2	5.7873e-06	1.0682e-06	905.93	191.96	9.78e-06	4.9168e-06	250.93	83.304	55.242	21.499	4.1013e-06	35.354	0.0011483	0.0013133	0.00037385	761.05	1.3982e-05	1.4555e-05	831.09	177.81	1.426e-05	1.4947e-05	232.66	77.795	51.82	20.279	1.4295e-05	32.998	296.223	339.667	186.474	67.917	149.282	73.869	68.266	74.373	257.666	185.774	72.564	78.393	79.663	83.949	183.754	81.642	-8191	255	
7612.256	1	1	0	0	0.038267	0.13947	0.091891	0.2018	0.15615	0.33158	0.21316	0.1519	0.18324	0.20423	0.27218	0.034159	0.15262	0.1744	0.035675	0.080114	-2.2229	-2.95	-2.6708	-2.7521	-2.8458	-2.5792	-3.0479	-2.7646	-2.5667	-2.8667	-2.4813	-2.5958	-2.7333	-2.4437	-2.8563	-2.8708	103.440	320.782	89.349	364.582	291.234	74.301	405.540	309.642	187.277	327.615	329.346	184.188	265.962	206.978	394.725	390.915	0.00053907	0.00037453	6.8014e-05	824.53	2.6426e-06	3.9798e-06	898.42	190.84	6.3867e-06	4.362e-06	247.03	82.473	54.659	21.489	4.8547e-06	34.722	0.0011617	0.0013418	0.00036813	756.82	1.4003e-05	1.4825e-05	823.38	175.99	1.4246e-05	1.4457e-05	230.67	77.086	51.508	20.222	1.4267e-05	32.484	290.696	106.248	84.688	68.009	103.331	149.285	68.291	73.730	297.959	264.576	72.962	78.528	80.248	84.297	201.061	81.195	-8191	255	
7612.352	1	1	0	0	0.18185	0.092753	0.18708	0.20371	0.12809	0.060904	0.15197	0.31406	0.25399	0.28946	0.46052	0.21092	0.081584	0.1625	0.10762	0.25493	-2.0812	-2.8625	-2.425	-2.5167	-2.75	-2.3896	-2.9792	-2.7375	-2.2729	-2.7938	-2.7208	-2.7833	-2.9896	-2.475	-2.7521	-2.7438	210.990	215.238	165.920	349.642	222.470	200.223	349.086	350.526	113.847	106.990	401.334	57.069	326.301	372.502	386.789	74.342	0.00046211	0.00030171	0.00013201	813.55	4.4436e-06	3.2211e-06	885.55	188.06	7.9587e-06	4.2749e-06	246.46	82.637	55.017	21.57	9.9955e-06	34.915	0.001151	0.0013279	0.0003687	746.99	1.3519e-05	1.4036e-05	812.92	174.27	1.3365e-05	1.4074e-05	229.4	77.355	51.617	20.358	1.3768e-05	32.656	289.003	173.099	113.860	68.464	164.185	289.101	67.692	73.704	206.655	186.086	72.659	78.886	80.236	84.205	243.565	81.048	-8191	255	
7612.424	1	1	0	0	0.38656	0.42152	0.17093	0.23094	0.10461	0.066201	0.24488	0.14938	0.21125	0.20578	0.11348	0.11528	0.23333	0.24756	0.19868	0.36766	-1.8396	-2.7188	-2.5208	-2.5333	-2.9958	-2.5812	-2.7771	-2.7146	-2.3521	-2.8271	-2.7812	-2.5708	-2.9208	-2.4167	-2.4625	-2.8458	361.689	81.916	353.277	328.354	323.829	408.917	368.253	353.089	280.771	233.123	295.776	76.595	148.990	61.640	195.353	327.816	0.00057638	0.00035713	8.6562e-05	817.47	5.3387e-06	9.7078e-06	889.72	188.63	1.5066e-06	2.5168e-06	248.59	83.922	55.324	21.251	1.3309e-06	35.069	0.001114	0.0013102	0.00036212	746.41	1.3497e-05	1.3981e-05	816.2	174.92	1.3621e-05	1.4615e-05	230.66	77.86	51.925	20.304	1.4115e-05	32.936	281.977	155.871	120.270	68.371	249.488	179.209	68.242	73.839	237.803	240.880	72.994	78.995	80.018	84.320	198.370	81.174	-8191	255	
7612.543	1	1	0	0	0.082083	0.085909	0.10682	0.26769	0.15504	0.15907	0.27557	0.22423	0.21405	0.28515	0.09544	0.12655	0.23323	0.20216	0.11481	0.17783	-1.9	-2.9417	-2.5917	-2.5625	-2.9271	-2.5417	-2.8312	-2.9375	-2.3146	-2.8438	-2.7188	-2.5	-2.9062	-2.6958	-2.7375	-2.9271	351.005	86.466	280.443	377.724	209.225	169.698	320.389	367.989	355.100	353.584	383.431	75.847	405.619	155.771	405.504	86.272	0.00057028	0.00033153	0.0001914	824.46	5.3864e-06	4.3012e-06	905.18	191.31	3.5842e-06	5.4129e-06	250.04	84.175	55.232	21.409	5.3231e-06	35.028	0.0011755	0.001344	0.00037886	760.74	1.4609e-05	1.536e-05	832.11	177.99	1.4668e-05	1.5488e-05	234.1	78.426	52.348	20.403	1.5772e-05	32.896	276.526	83.891	112.294	68.275	228.460	412.864	67.961	73.624	285.450	278.679	72.518	78.746	80.166	83.699	324.111	81.318	-8191	255	
7612.639	1	1	0	0	0.16783	0.15003	0.2554	0.061789	0.078023	0.15169	0.26903	0.18173	0.21648	0.11934	0.18104	0.15298	0.26041	0.2458	0.087285	0.12365	-2.075	-2.7896	-2.6937	-2.4333	-3.0271	-2.6063	-2.8792	-2.8979	-2.4104	-2.8187	-2.8896	-2.5229	-2.9208	-2.5708	-2.5563	-2.9021	261.274	170.868	128.658	179.631	264.231	165.357	349.018	337.846	280.065	115.558	384.626	98.950	280.669	392.925	246.603	253.573	0.00057202	0.00017797	0.00030671	851.16	9.4971e-06	3.3735e-06	933.14	195.52	5.784e-06	6.4138e-06	254.84	83.701	55.816	21.472	9.6002e-06	34.462	0.0012743	0.001518	0.00043291	780.53	1.6474e-05	1.7728e-05	853.48	182.3	1.6819e-05	1.7517e-05	237.38	78.285	53.013	20.397	1.7078e-05	32.709	284.987	183.568	186.781	68.143	98.356	94.789	68.030	73.793	350.813	154.871	72.584	78.729	79.620	84.075	191.446	81.000	-8191	255	
7612.735	1	1	0	0	0.038875	0.17612	0.12376	0.38356	0.046919	0.079759	0.16243	0.26609	0.18052	0.11048	0.02857	0.26278	0.14715	0.16219	0.2052	0.13895	-1.9479	-2.7	-2.8125	-2.4604	-2.6729	-2.7896	-2.6833	-2.8583	-2.5125	-2.6667	-2.9292	-2.4375	-2.9083	-2.7708	-2.4771	-2.9062	99.744	186.438	144.871	58.094	401.921	153.860	356.050	84.412	100.782	61.618	163.830	402.318	298.598	305.511	108.134	68.542	0.00048364	0.00080993	0.00022302	840.6	9.3642e-06	5.0712e-06	911.77	194.45	7.8541e-06	2.5731e-06	252.32	84.256	55.23	21.397	3.5427e-06	34.53	0.001372	0.001605	0.00044709	774.77	1.7036e-05	1.7485e-05	841.99	179.92	1.6864e-05	1.762e-05	235.69	78.378	52.603	20.375	1.6968e-05	32.709	282.656	164.438	141.169	68.236	111.681	139.704	67.847	73.890	323.264	202.470	72.549	78.903	79.297	83.782	65.432	81.445	-8191	255	
7612.831	1	1	0	0	0.10929	0.19642	0.10146	0.36167	0.11012	0.066422	0.056071	0.063536	0.18215	0.27079	0.13671	0.089507	0.10042	0.12529	0.24261	0.18759	-2.0208	-2.6917	-2.8167	-2.4854	-2.7583	-2.8125	-2.6021	-3.0625	-2.5812	-2.5812	-2.9792	-2.5479	-2.6937	-2.7104	-2.6396	-2.9979	91.896	245.370	278.721	84.225	57.807	93.218	154.052	262.138	392.291	382.996	149.658	77.766	415.230	398.183	381.154	240.684	0.00062415	0.00042675	0.00015866	843.53	3.1225e-06	4.4442e-06	921.83	195.57	8.5466e-06	3.0222e-06	253.45	83.752	55.903	21.427	5.2455e-06	34.616	0.0013268	0.0016134	0.00043297	775.38	1.6594e-05	1.7831e-05	845.45	181.63	1.6651e-05	1.7342e-05	237.65	78.26	52.888	20.4	1.7409e-05	32.76	282.075	185.662	160.410	68.271	292.449	58.922	67.769	74.091	234.140	164.974	72.599	78.578	79.713	83.852	366.957	81.166	-8191	255	
7612.927	1	1	0	0	0.16539	0.1181	0.051065	0.27795	0.21589	0.023582	0.23131	0.17224	0.037705	0.058811	0.14927	0.13808	0.1703	0.18975	0.40956	0.084725	-2.0292	-2.5792	-2.9083	-2.5104	-2.6458	-2.8042	-2.5979	-2.9188	-2.7667	-2.6	-2.9479	-2.375	-2.7062	-2.8	-2.3438	-2.8417	209.470	251.696	268.622	384.155	72.190	291.385	391.416	378.362	317.499	273.239	58.230	333.167	68.093	71.156	152.396	159.175	0.00047861	0.00053219	0.00031511	847.26	5.18e-06	9.1687e-06	925.82	196.41	5.5893e-06	1.0213e-05	253.03	84.51	56.021	21.384	5.1681e-06	34.988	0.0013423	0.0016051	0.00045353	780.08	1.7187e-05	1.741e-05	850.93	182.51	1.6718e-05	1.7071e-05	238.41	78.871	52.978	20.377	1.7224e-05	32.884	288.451	81.469	174.852	67.985	367.944	159.611	68.059	73.471	104.730	194.844	72.292	78.547	79.923	83.914	242.311	81.271	-8191	255	
7613.023	1	1	0	0	0.21879	0.28142	0.087438	0.057063	0.17268	0.011452	0.26252	0.1776	0.098113	0.14733	0.092655	0.046793	0.18115	0.31373	0.18199	0.039813	-2.2375	-2.5812	-2.8771	-2.7729	-2.6208	-2.9396	-2.5833	-2.8312	-2.8	-2.4521	-3.1042	-2.6708	-2.6437	-2.8688	-2.4896	-2.9042	198.214	238.139	160.537	279.473	301.123	232.234	309.484	378.340	282.202	112.937	226.663	319.783	63.642	336.682	223.183	296.818	0.00046838	0.00077258	0.00010807	850.75	1.741e-05	4.2137e-06	926.48	196.59	7.307e-06	1.0275e-05	256.2	83.985	56.142	21.313	5.064e-06	34.68	0.0013659	0.0015855	0.00043935	782.06	1.685e-05	1.756e-05	852.43	182.57	1.6124e-05	1.7361e-05	238.76	78.25	53.089	20.261	1.6259e-05	32.607	277.837	182.571	96.395	68.140	202.445	130.173	68.083	73.617	326.493	231.518	72.529	78.735	79.563	83.974	217.916	81.474	-8191	255	
7613.120	1	1	0	0	0.19313	0.022673	0.090164	0.37733	0.046823	0.10101	0.13543	0.21465	0.13295	0.16958	0.16546	0.16987	0.12103	0.31189	0.13296	0.096619	-2.5771	-2.3583	-2.8792	-2.6667	-2.6417	-2.9792	-2.4083	-2.7792	-2.7313	-2.4146	-2.8896	-2.775	-2.6146	-2.9333	-2.4188	-2.7042	245.934	383.854	67.218	404.687	130.225	142.643	74.889	365.900	171.418	324.395	380.136	305.663	415.232	256.464	60.616	98.856	0.0005718	0.00033656	7.727e-05	843.05	6.8489e-06	1.9509e-06	918.81	194.18	1.3489e-05	3.1118e-06	255.2	83.552	55.462	21.368	3.75e-06	34.624	0.0013336	0.0015763	0.0004283	775.47	1.6213e-05	1.6947e-05	845.37	181.39	1.6086e-05	1.7215e-05	238.3	78.485	52.733	20.329	1.6536e-05	32.787	301.551	244.273	199.647	68.410	238.012	379.558	67.991	73.996	333.868	195.670	72.202	78.380	80.132	83.742	271.004	81.238	-8191	255	
7613.240	1	1	0	0	0.26455	0.069472	0.16244	0.29196	0.28681	0.2478	0.1515	0.091805	0.18453	0.075576	0.087123	0.18902	0.070486	0.031866	0.20513	0.31059	-2.2917	-2.5958	-2.7687	-2.7771	-2.4896	-2.9688	-2.5917	-2.7687	-2.95	-2.6063	-2.8708	-2.7125	-2.6188	-2.9313	-2.4083	-2.7125	413.095	158.549	361.766	327.210	345.685	149.844	353.519	304.534	312.161	280.777	332.638	314.243	303.454	76.454	255.801	338.382	0.0004651	0.00057411	0.00026191	849.63	1.2932e-05	6.9678e-06	927.26	194.39	8.18e-06	3.0572e-06	252.88	84.564	55.858	21.604	5.9637e-06	34.942	0.001294	0.001507	0.00042775	778.37	1.5999e-05	1.6861e-05	848.35	181.95	1.5747e-05	1.6914e-05	237.35	78.551	53.036	20.395	1.6089e-05	32.907	276.237	126.314	105.286	68.400	188.294	223.316	68.180	73.237	278.169	211.522	72.583	78.579	80.423	83.829	212.850	81.277	-8191	255	
7613.336	1	1	0	0	0.15425	0.19351	0.13603	0.17728	0.15839	0.15468	0.36402	0.12678	0.26405	0.26014	0.12011	0.13993	0.07852	0.0909	0.16823	0.14681	-2.5875	-2.45	-2.8708	-2.725	-2.4167	-2.8042	-2.7083	-2.7292	-2.8333	-2.5563	-2.8021	-2.6417	-2.5229	-3.025	-2.7229	-2.4562	96.279	233.125	229.651	344.445	249.967	390.692	323.019	329.712	198.514	302.663	384.709	131.112	70.673	292.618	254.792	85.122	0.00045126	0.0006088	0.00013773	838.58	2.758e-06	3.3978e-06	923.25	195.46	4.8812e-06	8.9516e-06	256.37	84.114	56.572	21.506	8.27e-06	35.018	0.0012809	0.0015023	0.00042086	770.21	1.5934e-05	1.6643e-05	844.58	180.84	1.5655e-05	1.6726e-05	237.99	78.809	53.175	20.456	1.61e-05	32.978	289.224	178.693	144.314	68.014	200.170	259.331	67.889	73.702	212.283	329.063	72.553	78.832	79.728	84.237	184.159	81.407	-8191	255	
7613.433	1	1	0	0	0.2429	0.024772	0.17343	0.16401	0.11819	0.068006	0.27258	0.26489	0.13204	0.25801	0.073419	0.29316	0.10162	0.15842	0.14612	0.20137	-2.4562	-2.3479	-2.6042	-2.8354	-2.4292	-2.7729	-2.6458	-2.5792	-3.1188	-2.4646	-2.55	-2.8375	-2.3312	-2.7521	-2.6688	-2.55	366.494	213.250	381.551	383.590	140.231	254.522	353.438	153.961	160.760	107.406	306.081	303.974	87.479	373.402	226.011	202.000	0.00064993	0.00039382	7.5716e-05	846.22	6.3429e-06	5.4464e-06	931.56	196.36	4.2729e-06	3.2668e-06	256.07	84.224	55.49	21.333	8.6747e-06	34.807	0.0012827	0.0014918	0.00041254	778.82	1.6057e-05	1.6118e-05	851.6	182.39	1.5788e-05	1.6704e-05	237.78	78.584	52.704	20.307	1.5884e-05	32.766	301.794	384.188	178.134	68.136	190.185	150.943	67.901	73.705	206.044	201.294	72.580	78.632	79.747	83.744	170.462	81.015	-8191	255	
7613.529	1	1	0	0	0.090517	0.13485	0.1067	0.27201	0.11793	0.10344	0.39526	0.04389	0.14129	0.2977	0.17962	0.23668	0.20618	0.24091	0.080651	0.022076	-2.5792	-2.6208	-2.5687	-2.8063	-2.35	-2.9521	-2.7396	-2.4833	-2.8979	-2.6188	-2.7542	-2.9917	-2.35	-2.6854	-2.8208	-2.45	233.500	193.752	144.041	76.090	400.918	332.357	385.510	347.159	179.163	256.710	406.182	164.972	319.013	73.531	316.052	98.052	0.0006349	0.00077589	0.00020606	846.11	1.4579e-05	7.689e-06	925.81	197.22	1.1977e-05	5.3268e-06	256.51	84.537	55.655	21.563	1.2042e-05	34.824	0.0012657	0.001535	0.00042298	777.87	1.5959e-05	1.6718e-05	851.82	182.66	1.599e-05	1.6394e-05	239.37	78.907	52.847	20.337	1.6302e-05	32.671	288.041	138.428	165.198	68.515	251.444	186.112	67.792	73.771	266.160	235.446	72.151	79.089	79.693	84.201	228.586	81.014	-8191	255	
7613.648	1	1	0	0	0.15384	0.20116	0.24808	0.18633	0.11122	0.18754	0.13567	0.19416	0.088789	0.065041	0.21154	0.11208	0.21501	0.17727	0.092585	0.029701	-2.6271	-2.4208	-2.6417	-2.9917	-2.4333	-2.6833	-3.0021	-2.4229	-2.9896	-2.75	-2.6146	-2.775	-2.4479	-2.7146	-2.8479	-2.4667	335.012	224.384	56.062	326.061	107.664	328.176	63.796	397.950	379.424	135.760	388.226	376.700	203.509	301.111	232.574	339.052	0.00054722	0.00045172	4.2217e-05	854.54	1.7103e-06	5.0061e-06	940.48	198.66	3.4869e-06	3.2651e-06	257.91	84.556	57	21.518	1.1413e-05	34.567	0.0012692	0.0015159	0.00043375	784.09	1.594e-05	1.6406e-05	857.25	184.07	1.5895e-05	1.671e-05	240.06	78.646	53.42	20.345	1.6402e-05	32.721	281.539	210.809	327.245	68.212	88.071	310.260	68.043	73.663	277.657	221.587	72.859	78.356	80.003	84.502	164.112	81.214	-8191	255	
7613.719	1	1	0	0	0.14432	0.07517	0.25508	0.11447	0.27711	0.33723	0.21731	0.29104	0.48347	0.21206	0.29055	0.081242	0.24702	0.37868	0.27873	0.070016	-2.275	-2.5583	-2.5917	-2.95	-2.425	-2.8354	-2.8937	-2.4938	-2.8979	-2.7396	-2.4167	-3.0458	-2.7375	-2.7062	-2.9479	-2.4208	263.427	235.365	279.626	328.600	255.505	200.978	207.364	402.341	285.661	267.748	70.548	335.829	183.583	384.547	88.827	232.125	0.00058631	0.00050501	0.00028041	851.55	6.2975e-06	7.9065e-07	932.34	199.56	1.0388e-05	8.767e-06	259.16	84.148	56.234	21.651	9.1666e-06	34.857	0.001319	0.0015223	0.00042359	785.71	1.6061e-05	1.6861e-05	858.55	184.25	1.6188e-05	1.7064e-05	240.88	78.877	53.314	20.449	1.5962e-05	32.932	283.573	119.019	408.233	68.266	255.678	394.043	68.201	73.691	380.394	237.838	72.435	79.134	79.919	84.081	272.085	81.906	-8191	255	
7613.840	1	1	0	0	0.3598	0.092143	0.11639	0.48467	0.15673	0.25991	0.10502	0.27622	0.15644	0.16688	0.22543	0.14029	0.050381	0.18698	0.30955	0.018588	-2.3729	-2.5729	-2.3458	-2.9625	-2.6896	-2.7354	-3.0417	-2.5208	-2.8854	-2.8688	-2.4229	-2.9167	-2.6917	-2.725	-3.0104	-2.5479	341.665	244.166	342.608	342.054	404.688	163.268	274.619	61.087	184.793	159.791	340.739	200.783	313.921	359.829	158.076	220.552	0.00056926	0.00066677	0.00030142	856.85	1.1175e-05	1.0627e-06	931.82	197.55	9.6861e-06	7.7842e-06	253.28	84.059	55.203	21.224	2.6914e-06	34.77	0.0012645	0.0015062	0.00042068	785.6	1.5822e-05	1.6351e-05	853.2	183.01	1.5616e-05	1.6169e-05	237.55	78.178	52.271	20.24	1.5624e-05	32.539	289.219	188.323	146.870	68.167	237.999	215.293	67.988	73.370	264.296	198.608	72.515	78.937	80.028	84.160	270.485	81.409	-8191	255	
7613.936	1	1	0	0	0.37001	0.3972	0.043671	0.098191	0.010008	0.17951	0.30438	0.13765	0.23182	0.28041	0.29685	0.15102	0.026448	0.21895	0.038035	0.18072	-2.4917	-2.7979	-2.5125	-3.0125	-2.7229	-2.6583	-3.0875	-2.5125	-2.6813	-2.925	-2.3229	-3.0292	-2.7771	-2.4562	-3.0938	-2.5958	400.635	167.251	286.414	370.601	228.721	148.607	395.490	363.617	219.912	179.465	353.163	200.457	369.376	68.914	171.679	108.048	0.00052237	0.0010631	8.8519e-05	846.7	5.124e-06	1.8027e-06	919.95	196.64	5.6663e-06	1.5176e-06	254.21	83.484	55.68	21.375	2.5567e-06	34.927	0.001255	0.0014932	0.00041294	781.3	1.5502e-05	1.6367e-05	848.21	181.85	1.5567e-05	1.5894e-05	237.22	77.939	52.557	20.239	1.6016e-05	32.67	306.295	156.545	197.008	68.144	259.255	230.598	68.133	74.097	263.926	254.536	72.322	78.699	79.537	84.575	256.842	81.015	-8191	255	
7614.032	1	1	0	0	0.031538	0.14787	0.074116	0.17246	0.1486	0.20379	0.24747	0.077937	0.22208	0.13505	0.18382	0.2209	0.088344	0.22331	0.20678	0.19326	-2.3438	-2.6937	-2.3312	-2.9292	-2.4646	-2.4771	-3.0125	-2.5521	-2.6229	-2.875	-2.5146	-2.9125	-2.7958	-2.4229	-2.7875	-2.3458	410.441	215.776	141.952	374.515	252.079	108.019	232.965	114.192	263.863	146.888	245.786	211.478	346.074	88.480	301.455	276.303	0.00052132	0.00060736	0.00032172	857.32	4.0487e-06	3.5765e-06	939.08	197.98	4.4783e-06	3.2887e-06	256.89	84.607	55.718	21.301	9.8051e-06	34.419	0.0012703	0.001488	0.00041851	786.08	1.5632e-05	1.6802e-05	858.93	183.87	1.5884e-05	1.6656e-05	240.03	78.516	53.009	20.209	1.62e-05	32.397	288.944	148.726	100.385	68.126	230.734	268.014	68.363	73.839	279.164	197.417	72.615	78.550	79.609	84.016	216.078	81.082	-8191	255	
7614.128	1	1	0	0	0.050824	0.014978	0.36799	0.3174	0.091825	0.26584	0.18497	0.10357	0.11273	0.17613	0.090755	0.028206	0.17097	0.20745	0.085685	0.40336	-2.2	-2.875	-2.3187	-2.8854	-2.7146	-2.4167	-2.9188	-2.6	-2.5396	-2.7458	-2.4042	-2.7938	-2.8438	-2.4354	-2.9313	-2.7917	344.883	109.215	376.370	73.826	357.925	379.022	328.635	329.911	383.439	357.170	369.092	189.159	375.549	296.417	282.803	384.929	0.00045909	0.00015401	0.00025027	863.54	8.1345e-07	3.3268e-06	930.92	196.34	4.142e-06	5.6563e-06	254.31	83.522	54.732	21.247	7.4231e-06	34.281	0.0013145	0.0015689	0.00041888	789.71	1.6066e-05	1.6475e-05	853.18	182.33	1.5758e-05	1.6536e-05	237.44	77.897	52.051	20.161	1.5698e-05	32.436	294.436	244.816	191.891	68.429	115.777	274.133	68.016	73.836	205.163	294.905	72.438	78.667	80.027	84.127	226.170	81.145	-8191	255	
7614.224	1	1	0	0	0.24373	0.092843	0.11759	0.159	0.25666	0.070077	0.29286	0.31369	0.029113	0.17228	0.27314	0.27166	0.15033	0.21942	0.17988	0.28922	-2.0375	-2.9938	-2.375	-2.7479	-2.8708	-2.4354	-2.95	-2.5312	-2.5333	-2.8396	-2.575	-2.6562	-2.7583	-2.4333	-2.8396	-2.5854	130.712	387.063	58.661	400.540	372.840	268.315	333.329	333.985	232.551	214.323	292.897	378.559	304.355	273.888	99.569	79.147	0.00065178	0.00047874	5.1166e-05	841.64	1.4427e-05	1.914e-06	915.99	193.68	5.0759e-06	6.3308e-06	252.33	82.709	55.539	21.281	8.992e-06	34.36	0.0012449	0.0014416	0.00041401	773.98	1.504e-05	1.6427e-05	841.87	180	1.5384e-05	1.612e-05	235.62	77.579	52.014	20.095	1.6036e-05	32.395	292.200	152.581	226.214	68.266	267.572	238.865	68.257	73.881	246.485	223.039	72.314	78.621	79.185	84.296	282.298	80.936	-8191	255	
7614.321	1	1	0	0	0.11239	0.33869	0.070634	0.26416	0.1283	0.052164	0.11045	0.13791	0.12252	0.21663	0.16411	0.1517	0.1004	0.05692	0.16584	0.17535	-2.1292	-2.7729	-2.5521	-2.7729	-2.9021	-2.3792	-2.7083	-2.5812	-2.4583	-2.9521	-2.5646	-2.6	-3.0458	-2.4333	-2.6271	-2.9917	189.627	184.269	184.090	378.447	378.693	246.284	145.315	311.794	350.788	66.337	307.146	396.273	356.086	308.181	377.045	145.827	0.00050961	0.00089982	6.029e-05	850.52	6.2719e-06	8.2054e-06	925.17	198.4	3.502e-06	4.9428e-06	254.9	82.315	54.727	21.006	3.2367e-06	34.381	0.001288	0.001498	0.00041883	784.26	1.5998e-05	1.689e-05	852.48	183.44	1.6038e-05	1.6753e-05	238.02	77.372	52.268	20.012	1.5966e-05	32.359	285.022	162.463	110.229	67.983	221.042	229.740	67.602	73.474	231.536	194.090	72.368	78.546	79.491	84.173	304.338	81.808	-8191	255	
7614.417	1	1	0	0	0.11348	0.050468	0.1497	0.15943	0.29794	0.04168	0.29052	0.24543	0.1047	0.18887	0.22183	0.25342	0.19271	0.12508	0.31806	0.32754	-2.1646	-2.8146	-2.5187	-2.6833	-2.9354	-2.3979	-2.8458	-2.75	-2.4542	-2.9021	-2.7729	-2.4104	-2.9542	-2.5271	-2.775	-2.8958	317.493	349.405	197.770	347.696	138.794	130.406	293.975	293.387	82.331	98.514	59.774	80.406	148.869	130.653	300.680	274.926	0.00051896	0.0007311	0.00010531	846	6.007e-06	6.8682e-06	923.53	193.75	1.9273e-06	4.5251e-07	251.37	82.139	54.457	21.083	6.7994e-06	34.273	0.0013111	0.0015233	0.00041411	778.09	1.5963e-05	1.6492e-05	844.33	179.44	1.5451e-05	1.6277e-05	234.42	76.874	51.496	20.076	1.5469e-05	32.308	274.337	170.006	103.288	68.306	159.210	132.525	67.939	73.498	370.464	170.781	72.181	78.244	80.132	84.044	316.465	80.811	-8191	255	
7614.513	1	1	0	0	0.090964	0.24308	0.1568	0.12653	0.087196	0.21113	0.24969	0.24426	0.34608	0.16558	0.0719	0.06267	0.031405	0.12244	0.004728	0.10522	-1.9146	-2.6917	-2.5938	-2.45	-2.8396	-2.4375	-2.7542	-2.8583	-2.4917	-2.6021	-2.6208	-2.4062	-2.8542	-2.5583	-2.7229	-2.8875	380.639	144.938	371.666	74.447	151.573	122.908	382.060	329.358	214.228	202.747	296.807	78.431	364.414	259.251	224.187	238.973	0.00041515	0.00064134	0.00023876	839.19	5.0899e-06	8.9156e-06	916.44	191.24	9.2335e-06	6.0278e-06	250.08	82.556	55.243	21.262	2.9264e-06	34.948	0.0012152	0.0014021	0.00039623	767.13	1.4951e-05	1.5796e-05	835.82	177.34	1.5116e-05	1.5612e-05	232.93	77.259	51.706	20.151	1.4972e-05	32.732	297.846	143.694	165.320	67.977	312.225	386.521	68.454	73.990	242.686	263.284	72.499	78.620	79.847	83.702	189.756	81.409	-8191	255	
7614.609	1	1	0	0	0.2488	0.091715	0.20158	0.2643	0.12967	0.23106	0.46997	0.1109	0.0050375	0.25695	0.51242	0.21193	0.25765	0.032744	0.29986	0.057041	-2.1125	-2.7104	-2.7104	-2.7188	-2.9083	-2.5354	-2.6521	-2.7438	-2.4188	-2.8042	-3.0979	-2.4313	-3.0708	-2.5917	-2.4604	-3	316.504	397.168	320.857	341.116	234.386	413.469	282.513	97.202	295.301	314.842	74.780	90.390	379.899	342.923	131.898	160.230	0.00054419	0.00042792	8.4258e-05	834.21	2.8635e-06	4.0549e-06	911.13	191.76	3.9376e-06	6.5719e-06	252.12	83.884	54.324	21.127	3.5553e-06	34.162	0.0012305	0.0014095	0.00040262	766.67	1.487e-05	1.5635e-05	837.17	178.61	1.4741e-05	1.597e-05	233.99	77.617	51.609	20.067	1.5621e-05	32.337	295.233	260.990	130.600	68.073	191.703	227.965	67.947	73.973	287.767	162.909	72.659	78.443	80.266	84.269	150.504	81.074	-8191	255	
7614.728	1	1	0	0	0.060193	0.10847	0.12879	0.31315	0.22543	0.025882	0.26026	0.19535	0.20058	0.26616	0.23495	0.26744	0.16793	0.21897	0.07691	0.084351	-2.1604	-2.7021	-2.9083	-2.3458	-2.7417	-2.6521	-2.6188	-2.875	-2.5146	-2.7229	-3.1083	-2.5375	-2.8917	-2.6458	-2.6292	-2.9021	118.896	317.579	354.054	350.023	94.332	383.288	332.075	349.313	64.296	235.132	409.158	278.695	335.285	396.111	57.003	56.296	0.00048921	0.00026873	0.00014389	848.21	7.5313e-06	2.0438e-06	919.42	192.93	8.0528e-06	4.514e-06	250.53	83.577	54.968	21.052	1.0842e-05	34.194	0.0012243	0.0014511	0.0004116	777.7	1.5557e-05	1.6213e-05	840.68	179.74	1.5791e-05	1.6456e-05	234.61	77.239	52.032	20.021	1.6049e-05	32.28	291.230	81.518	159.974	68.385	247.032	117.105	67.718	73.274	182.431	254.368	72.877	78.774	79.997	84.071	256.262	81.478	-8191	255	
7614.824	1	1	0	0	0.081067	0.095926	0.15069	0.25662	0.19441	0.20229	0.1144	0.15013	0.11579	0.072025	0.074536	0.16551	0.2035	0.11532	0.10765	0.33332	-2.1188	-2.5187	-2.9271	-2.5438	-2.9125	-2.7438	-2.6521	-2.7708	-2.6146	-2.7396	-2.9167	-2.5104	-2.6854	-2.8333	-2.5604	-2.8083	228.210	117.519	100.441	407.565	74.411	121.409	75.357	60.669	403.488	355.928	332.090	325.426	120.297	84.601	267.453	96.191	0.00058839	0.00064561	2.6389e-05	847.45	1.1825e-05	2.1237e-06	915.44	192.83	6.1744e-06	1.754e-06	251.47	83.252	54.675	21.104	3.8008e-06	34.581	0.0012814	0.0014595	0.00041326	777.99	1.5623e-05	1.616e-05	841.46	179.77	1.563e-05	1.6012e-05	234.01	77.106	51.689	20.069	1.5278e-05	32.486	288.912	97.262	210.988	67.972	200.092	170.680	68.041	73.568	126.881	387.271	72.018	78.940	80.707	84.185	130.636	81.204	-8191	255	
7614.920	1	1	0	0	0.016694	0.082263	0.10959	0.10257	0.11105	0.24653	0.19058	0.10881	0.089876	0.11275	0.19152	0.2634	0.11561	0.24627	0.08866	0.17275	-2.0312	-2.5271	-2.8625	-2.5979	-2.7354	-2.7271	-2.3125	-2.8312	-2.4292	-2.5125	-2.9542	-2.5271	-2.7	-2.7917	-2.3375	-2.8458	388.099	79.992	313.113	336.856	174.734	352.501	237.048	140.255	378.565	405.007	375.565	178.166	405.515	56.569	272.763	406.364	0.00059502	0.00017759	6.3015e-05	834.09	1.1084e-05	3.802e-06	913.33	190.07	8.8254e-06	6.942e-06	250.31	82.85	54.715	21.417	4.2606e-06	34.53	0.0012014	0.0014472	0.00039937	765.16	1.522e-05	1.5559e-05	834.15	177.44	1.4876e-05	1.5585e-05	233.34	77.082	51.664	20.128	1.5403e-05	32.447	283.864	300.786	264.216	67.809	217.778	214.908	67.978	74.069	294.350	199.953	72.403	78.757	79.684	84.004	236.400	81.016	-8191	255	
7615.016	1	1	0	0	0.14464	0.10529	0.13223	0.20641	0.17353	0.19845	0.28274	0.22487	0.069438	0.067071	0.228	0.20308	0.044388	0.14984	0.19945	0.16519	-2.2354	-2.4437	-2.7875	-2.5563	-2.6458	-2.8312	-2.4792	-2.8542	-2.7521	-2.6125	-3.0042	-2.6542	-2.5583	-2.8208	-2.375	-2.8042	212.170	377.411	348.547	387.631	83.732	64.970	404.313	350.988	148.978	355.545	341.672	165.302	248.336	295.431	71.237	320.521	0.00060178	0.00027128	8.7563e-05	831.02	4.6368e-06	2.6092e-06	899.18	190.52	5.3556e-06	4.0496e-06	248.43	82.881	55.08	21.334	4.9357e-06	34.433	0.0011709	0.0013981	0.00038971	762.39	1.4625e-05	1.4985e-05	827.06	176.34	1.4476e-05	1.4963e-05	231.33	77.284	51.626	20.177	1.4375e-05	32.588	271.387	220.545	210.843	68.215	156.920	241.882	67.862	73.425	225.873	193.299	72.612	78.801	80.741	84.499	208.180	80.962	-8191	255	
7615.113	1	1	0	0	0.25873	0.053179	0.023276	0.26423	0.068491	0.12093	0.065369	0.25404	0.21343	0.24939	0.10134	0.43781	0.0035626	0.13075	0.19837	0.28324	-2.3917	-2.4708	-2.6854	-2.6	-2.5938	-2.8104	-2.4604	-2.6271	-2.7896	-2.2708	-3.0104	-2.6937	-2.65	-2.8229	-2.375	-2.6896	350.345	112.533	387.134	395.368	362.516	288.829	206.583	115.230	398.080	365.971	275.583	369.983	329.438	68.575	360.173	370.534	0.0005565	0.00032486	0.00013393	835.23	3.4556e-06	4.1251e-06	904.04	190.88	1.1665e-05	3.5605e-06	251	83.4	55.1	21.377	1.4452e-06	34.657	0.0011565	0.0013626	0.00037817	763.01	1.4077e-05	1.4459e-05	827.99	176.23	1.4286e-05	1.4748e-05	231.55	76.785	51.495	20.089	1.4315e-05	32.479	291.727	193.839	181.858	68.166	272.846	138.692	67.895	73.618	197.064	179.018	72.894	78.762	79.494	84.051	244.746	81.209	-8191	255	
7615.209	1	1	0	0	0.1361	0.096059	0.09341	0.25172	0.11623	0.25308	0.1741	0.15829	0.20028	0.064295	0.1801	0.080411	0.15138	0.26585	0.30814	0.29712	-2.3187	-2.2979	-2.8604	-2.7042	-2.5583	-2.9542	-2.5854	-2.7104	-2.6083	-2.5187	-2.9188	-2.7396	-2.5417	-2.9	-2.3958	-2.6729	304.570	360.458	231.573	332.978	122.471	332.837	281.634	301.663	275.237	364.220	258.791	256.878	363.577	400.609	320.789	70.791	0.00055848	0.00017655	0.00015679	842.24	5.7108e-06	2.6353e-06	910.56	192.69	9.0107e-06	1.1454e-05	248.55	83.328	55.174	21.537	1.2498e-05	34.771	0.0011589	0.0013737	0.00038475	768.46	1.4958e-05	1.526e-05	835.47	178.05	1.4669e-05	1.5525e-05	232.87	77.277	51.831	20.16	1.4617e-05	32.634	290.481	326.350	189.977	68.050	251.620	126.603	68.277	73.758	254.160	161.560	72.474	78.311	79.264	84.788	257.791	81.362	-8191	255	
7615.329	1	1	0	0	0.0339	0.05382	0.25215	0.16087	0.31412	0.16197	0.036554	0.15456	0.14736	0.079476	0.13596	0.043093	0.091599	0.26836	0.072158	0.15388	-2.3958	-2.2229	-2.6479	-2.8604	-2.4125	-2.8542	-2.7792	-2.5958	-2.9021	-2.4167	-2.8063	-2.8104	-2.4271	-2.7208	-2.7042	-2.7292	141.166	360.105	90.444	79.272	130.399	412.855	224.646	339.226	260.459	314.848	404.788	130.394	284.157	238.083	210.623	343.523	0.00047047	0.00062363	0.00013368	824.56	1.0719e-05	6.4089e-06	897.45	189.61	4.9856e-06	6.2995e-06	247.66	83.924	55.302	21.423	5.0847e-06	34.938	0.0011503	0.0013144	0.00036655	757	1.3966e-05	1.4561e-05	823.81	175.56	1.4112e-05	1.4733e-05	231.58	77.917	51.87	20.302	1.4448e-05	32.895	295.521	92.892	282.639	68.231	172.229	243.274	67.812	74.252	251.305	150.467	72.585	78.589	79.554	84.151	269.171	81.019	-8191	255	
7615.426	1	1	0	0	0.15834	0.1486	0.13124	0.11601	0.35716	0.17811	0.21179	0.31134	0.2981	0.078603	0.14394	0.029691	0.25406	0.066867	0.16063	0.06196	-2.2771	-2.3937	-2.9604	-2.7062	-2.3292	-2.7917	-2.6667	-2.5812	-3.0062	-2.5604	-2.9229	-2.9375	-2.4875	-2.7604	-2.6063	-2.6396	166.116	133.779	346.887	130.027	261.887	395.282	368.609	324.250	414.646	363.703	258.856	341.351	367.931	407.131	93.513	393.864	0.0004964	0.00097451	0.000183	837.59	4.5793e-06	7.2261e-06	920.28	194.1	9.9016e-06	4.059e-06	256.22	84.115	55.718	21.207	1.0756e-05	34.946	0.0011483	0.0013572	0.00037718	767.2	1.465e-05	1.5393e-05	844.34	180.06	1.4797e-05	1.5723e-05	238.07	78.227	52.547	20.307	1.5501e-05	32.714	280.414	163.632	212.165	68.225	214.861	291.059	68.362	73.186	304.373	154.952	72.525	78.839	79.798	84.469	238.149	81.348	-8191	255	
7615.522	1	1	0	0	0.25465	0.15024	0.057148	0.046218	0.20973	0.015052	0.092397	0.26881	0.10057	0.26854	0.18378	0.07907	0.15371	0.006202	0.087807	0.088879	-2.5917	-2.5542	-2.5563	-2.9313	-2.3896	-2.9479	-2.6958	-2.4542	-2.8646	-2.6104	-2.6917	-2.6792	-2.4708	-2.7313	-2.7458	-2.6	347.534	376.447	386.873	162.032	95.816	155.059	294.616	406.945	326.489	342.807	281.868	164.584	186.974	325.939	203.943	400.994	0.00053809	0.00056689	7.7836e-05	846.4	6.7076e-06	1.8218e-06	924.44	195.71	1.4933e-06	5.8741e-06	253.21	82.488	54.952	21.089	6.7534e-06	34.573	0.0012526	0.0014974	0.00040497	780.55	1.5191e-05	1.5859e-05	845.53	180.59	1.5112e-05	1.5734e-05	234.63	77.249	51.836	20.095	1.5411e-05	32.462	286.847	144.431	346.806	68.171	387.778	366.861	68.087	73.477	254.926	299.371	72.670	78.132	79.708	84.201	311.021	81.049	-8191	255	
7615.618	1	1	0	0	0.1253	0.37061	0.16414	0.1769	0.064199	0.15812	0.33797	0.054559	0.20152	0.373	0.017689	0.076116	0.028365	0.12519	0.060066	0.22445	-2.4	-2.5771	-2.5229	-3.0187	-2.55	-2.8187	-2.9042	-2.4562	-2.6229	-2.6042	-2.6083	-2.9167	-2.4146	-2.7062	-2.6625	-2.4375	308.746	116.303	335.044	296.336	276.047	92.621	365.369	96.352	280.426	244.818	130.746	216.010	413.446	203.036	138.577	328.542	0.00053636	0.00046529	0.00025771	837.47	1.4513e-05	4.363e-06	902.85	192.25	7.1166e-06	1.3975e-05	250.89	82.663	55.383	21.424	7.0711e-06	34.68	0.0011761	0.0014091	0.00039181	766.62	1.4663e-05	1.5366e-05	831.51	177.02	1.4597e-05	1.5253e-05	233.21	77.39	51.776	20.224	1.5262e-05	32.567	296.724	107.032	160.246	68.149	249.704	116.751	67.943	74.241	247.368	218.376	72.118	78.742	80.154	84.414	221.501	81.222	-8191	255	
#DATA ENDS
