BOXY.EXE: ISS Imagent and Oximeter Data Acquisition Program Version 0.80
Ascii Record File

#ACQ INFORMATION
2  Detector Channels 
16  External MUX Channels 
1  Auxiliary Channels 
5000  Waveform (CCF) Frequency (Hz)
1  Waveforms Skipped 
30  Waveforms Averaged 
1  Cycles Averaged 
16  Acquisitions per Waveform 
10.0806  Updata Rate (Hz) 

#FILE INFORMATION
TRUE -- External MUX Channel results are PARSED.
FALSE -- AC DC and Phase are NOT grouped.
TRUE -- Companion Program Settings File CREATED.
FALSE -- AC data not excluded
FALSE -- DC data not excluded
FALSE -- Phase data not excluded
FALSE -- Auxillary Chn. data not excluded
Tab delimiters

#CALIBRATION STATE
TRUE -- Waveform Calibration Values APPLIED.


#AUX CALIBRATION VALUES
Val Type	aux-1	

Term	1.0000e+00	
Factor	0.0000e+00	


#WF CALIBRATION VALUES
A = Detector Channel
Val Type	A-AC1	A-AC2	A-AC3	A-AC4	A-AC5	A-AC6	A-AC7	A-AC8	A-AC9	A-AC10	A-AC11	A-AC12	A-AC13	A-AC14	A-AC15	A-AC16	A-DC1	A-DC2	A-DC3	A-DC4	A-DC5	A-DC6	A-DC7	A-DC8	A-DC9	A-DC10	A-DC11	A-DC12	A-DC13	A-DC14	A-DC15	A-DC16	A-Ph1	A-Ph2	A-Ph3	A-Ph4	A-Ph5	A-Ph6	A-Ph7	A-Ph8	A-Ph9	A-Ph10	A-Ph11	A-Ph12	A-Ph13	A-Ph14	A-Ph15	A-Ph16	

Term	0.00000e+00	0.00000e+00	0.00000e+00	0.00000e+00	0.00000e+00	0.00000e+00	0.00000e+00	0.00000e+00	0.00000e+00	0.00000e+00	0.00000e+00	0.00000e+00	0.00000e+00	0.00000e+00	0.00000e+00	0.00000e+00	0.00000e+00	0.00000e+00	0.00000e+00	0.00000e+00	0.00000e+00	0.00000e+00	0.00000e+00	0.00000e+00	0.00000e+00	0.00000e+00	0.00000e+00	0.00000e+00	0.00000e+00	0.00000e+00	0.00000e+00	0.00000e+00	0.00000e+00	0.00000e+00	0.00000e+00	0.00000e+00	0.00000e+00	0.00000e+00	0.00000e+00	0.00000e+00	0.00000e+00	0.00000e+00	0.00000e+00	0.00000e+00	0.00000e+00	0.00000e+00	0.00000e+00	0.00000e+00	
Factor	1.00000e+00	1.00000e+00	1.00000e+00	1.00000e+00	1.00000e+00	1.00000e+00	1.00000e+00	1.00000e+00	1.00000e+00	1.00000e+00	1.00000e+00	1.00000e+00	1.00000e+00	1.00000e+00	1.00000e+00	1.00000e+00	1.00000e+00	1.00000e+00	1.00000e+00	1.00000e+00	1.00000e+00	1.00000e+00	1.00000e+00	1.00000e+00	1.00000e+00	1.00000e+00	1.00000e+00	1.00000e+00	1.00000e+00	1.00000e+00	1.00000e+00	1.00000e+00	X	X	X	X	X	X	X	X	X	X	X	X	X	X	X	X	

B = Detector Channel
Val Type	B-AC1	B-AC2	B-AC3	B-AC4	B-AC5	B-AC6	B-AC7	B-AC8	B-AC9	B-AC10	B-AC11	B-AC12	B-AC13	B-AC14	B-AC15	B-AC16	B-DC1	B-DC2	B-DC3	B-DC4	B-DC5	B-DC6	B-DC7	B-DC8	B-DC9	B-DC10	B-DC11	B-DC12	B-DC13	B-DC14	B-DC15	B-DC16	B-Ph1	B-Ph2	B-Ph3	B-Ph4	B-Ph5	B-Ph6	B-Ph7	B-Ph8	B-Ph9	B-Ph10	B-Ph11	B-Ph12	B-Ph13	B-Ph14	B-Ph15	B-Ph16	

Term	0.00000e+00	0.00000e+00	0.00000e+00	0.00000e+00	0.00000e+00	0.00000e+00	0.00000e+00	0.00000e+00	0.00000e+00	0.00000e+00	0.00000e+00	0.00000e+00	0.00000e+00	0.00000e+00	0.00000e+00	0.00000e+00	0.00000e+00	0.00000e+00	0.00000e+00	0.00000e+00	0.00000e+00	0.00000e+00	0.00000e+00	0.00000e+00	0.00000e+00	0.00000e+00	0.00000e+00	0.00000e+00	0.00000e+00	0.00000e+00	0.00000e+00	0.00000e+00	-2.03927e+02	-1.31831e+02	-1.25538e+02	-1.83254e+02	-8.09175e+01	-7.08768e+01	-1.60701e+02	-1.62015e+02	-9.04271e+01	-7.32347e+01	-1.72480e+02	-1.72818e+02	-1.83168e+02	-1.78087e+02	-6.61985e+01	-1.50828e+02	
Factor	3.89286e-05	1.23717e-04	3.30348e-05	1.37229e-01	1.13119e-06	1.25685e-06	1.52528e-01	4.65841e-02	1.24710e-06	1.41356e-06	7.24308e-02	2.45414e-02	2.28361e-02	7.36464e-03	1.53149e-06	1.05710e-02	3.04281e-06	3.29901e-06	9.19863e-07	7.35445e-02	3.56907e-08	3.63287e-08	7.68056e-02	2.49985e-02	3.56985e-08	3.62099e-08	3.76454e-02	1.27287e-02	1.23343e-02	3.98035e-03	3.59260e-08	5.53306e-03	X	X	X	X	X	X	X	X	X	X	X	X	X	X	X	X	



#DISTANCE SETTINGS
A = Detector Channel
A-1	A-2	A-3	A-4	A-5	A-6	A-7	A-8	A-9	A-10	A-11	A-12	A-13	A-14	A-15	A-16	

2.5000e+00	3.0000e+00	2.5000e+00	3.0000e+00	2.0000e+00	3.0000e+00	1.5000e+00	3.0000e+00	3.0000e+00	3.0000e+00	3.0000e+00	3.0000e+00	3.0000e+00	3.0000e+00	1.5000e+00	3.0000e+00	

B = Detector Channel
B-1	B-2	B-3	B-4	B-5	B-6	B-7	B-8	B-9	B-10	B-11	B-12	B-13	B-14	B-15	B-16	

1.0000e+01	1.0000e+01	1.0000e+01	1.4400e+00	1.0000e+01	1.0000e+01	1.5100e+00	1.9400e+00	1.0000e+01	1.0000e+01	1.9900e+00	2.4900e+00	2.4100e+00	2.9000e+00	1.0000e+01	2.9800e+00	




#DATA BEGINS
time	group	step	mark	flag	A-AC1	A-AC2	A-AC3	A-AC4	A-AC5	A-AC6	A-AC7	A-AC8	A-AC9	A-AC10	A-AC11	A-AC12	A-AC13	A-AC14	A-AC15	A-AC16	A-DC1	A-DC2	A-DC3	A-DC4	A-DC5	A-DC6	A-DC7	A-DC8	A-DC9	A-DC10	A-DC11	A-DC12	A-DC13	A-DC14	A-DC15	A-DC16	A-Ph1	A-Ph2	A-Ph3	A-Ph4	A-Ph5	A-Ph6	A-Ph7	A-Ph8	A-Ph9	A-Ph10	A-Ph11	A-Ph12	A-Ph13	A-Ph14	A-Ph15	A-Ph16	B-AC1	B-AC2	B-AC3	B-AC4	B-AC5	B-AC6	B-AC7	B-AC8	B-AC9	B-AC10	B-AC11	B-AC12	B-AC13	B-AC14	B-AC15	B-AC16	B-DC1	B-DC2	B-DC3	B-DC4	B-DC5	B-DC6	B-DC7	B-DC8	B-DC9	B-DC10	B-DC11	B-DC12	B-DC13	B-DC14	B-DC15	B-DC16	B-Ph1	B-Ph2	B-Ph3	B-Ph4	B-Ph5	B-Ph6	B-Ph7	B-Ph8	B-Ph9	B-Ph10	B-Ph11	B-Ph12	B-Ph13	B-Ph14	B-Ph15	B-Ph16	aux-1	digaux	

14627.699	1	1	0	256	0.18409	0.29593	0.051558	0.09971	0.11371	0.14761	0.20145	0.16194	0.16141	0.073689	0.11191	0.049485	0.1186	0.10413	0.065521	0.10298	-2.0646	-2.7	-2.3479	-2.9292	-2.6958	-2.4313	-2.9917	-2.4646	-2.2604	-2.8021	-2.3396	-2.5583	-2.6479	-2.2146	-2.7729	-2.5271	225.636	133.194	165.180	116.107	80.558	289.940	280.879	243.331	100.929	227.898	57.049	232.169	64.350	298.394	96.856	349.265	0.00036215	0.0011145	0.00018614	473.31	8.8133e-06	5.3783e-06	617.08	105.56	4.4896e-06	4.8224e-06	167.26	64.58	33.779	8.9686	4.9642e-06	17.314	0.0012851	0.001343	0.00036819	490.27	1.4226e-05	1.4234e-05	628.97	112.2	1.3979e-05	1.4145e-05	176.59	67.613	37.582	10.324	1.3997e-05	19.208	66.639	180.567	246.041	55.658	91.896	204.722	55.757	61.416	157.439	216.847	60.745	67.026	66.767	71.110	232.592	70.411	-8191	255	
14627.771	1	1	0	0	0.20701	0.074915	0.26067	0.20558	0.24053	0.061962	0.29984	0.15957	0.23109	0.064095	0.26928	0.22102	0.12081	0.36322	0.18531	0.16476	-1.9688	-2.8563	-2.4542	-2.7667	-2.9021	-2.4667	-2.8729	-2.7042	-2.4354	-2.9458	-2.3833	-2.625	-2.6813	-2.3833	-2.7417	-2.5833	186.504	310.699	217.518	337.316	276.538	44.789	70.850	134.856	376.651	188.008	392.059	241.101	158.171	283.662	86.453	384.858	0.00035929	0.00033824	0.00014058	471.39	1.8755e-06	9.1321e-06	616	105.48	3.7136e-06	6.5178e-06	165.76	64.493	34.184	9.1495	8.1833e-06	17.778	0.0011877	0.001258	0.00034301	486.02	1.3185e-05	1.3096e-05	624.47	111.19	1.2867e-05	1.2914e-05	174.96	67.541	37.458	10.27	1.3123e-05	19.356	54.691	104.031	185.971	55.997	219.669	291.678	55.887	61.030	64.533	210.745	60.978	66.679	67.085	71.786	128.446	70.616	-8191	255	
14627.891	1	1	0	0	0.14585	0.13834	0.21052	0.32787	0.061791	0.13935	0.15102	0.37125	0.1168	0.0662	0.13398	0.16833	0.18086	0.12141	0.094382	0.21092	-1.9083	-2.8708	-2.2938	-2.5521	-2.7438	-2.2583	-2.95	-2.3479	-2.2646	-2.6958	-2.5646	-2.5312	-2.7979	-2.2188	-2.8125	-2.6437	137.161	210.899	380.087	392.741	217.421	320.134	277.278	54.020	198.617	201.257	85.502	328.967	67.957	375.331	383.205	402.737	0.00032844	0.0009508	4.4511e-05	473.57	1.2777e-05	2.4383e-06	615.29	105.93	2.7541e-06	3.5435e-06	166.18	64.821	34.167	9.0865	5.2557e-06	17.496	0.0011258	0.0012028	0.00033125	485.76	1.2824e-05	1.2851e-05	624.93	111.47	1.2759e-05	1.2957e-05	175.9	67.879	37.62	10.349	1.352e-05	19.321	88.935	396.168	199.560	56.123	131.302	180.400	55.907	61.463	353.112	156.798	60.923	66.578	66.748	71.246	252.596	71.139	-8191	255	
14627.987	1	1	0	0	0.094798	0.19764	0.13808	0.13753	0.14884	0.28715	0.19729	0.24637	0.18624	0.24875	0.27972	0.13762	0.06034	0.16567	0.20137	0.23532	-2.0083	-2.8271	-2.3542	-2.3396	-2.8417	-2.4042	-2.6771	-2.6042	-2.4104	-2.5854	-2.7625	-2.3104	-2.7229	-2.2667	-2.6521	-2.6271	84.388	377.769	64.974	330.579	90.608	382.991	57.931	175.234	175.183	104.328	68.794	172.830	147.231	352.595	168.199	187.843	0.00024509	0.00099232	0.00025204	471.48	9.7126e-07	4.8746e-06	613.8	105.57	6.2921e-06	8.0675e-06	168.35	65.053	33.998	8.9971	4.2332e-06	17.529	0.0011624	0.0012572	0.00034878	487.68	1.3973e-05	1.4064e-05	627.7	112.3	1.3863e-05	1.4097e-05	176.7	68.29	37.772	10.379	1.4284e-05	19.437	57.691	136.675	114.655	56.108	161.479	293.368	55.788	61.355	252.388	279.013	60.938	67.109	67.088	71.572	191.413	70.774	-8191	255	
14628.083	1	1	0	0	0.29959	0.20517	0.23773	0.18643	0.0090722	0.084093	0.031767	0.052517	0.081128	0.31848	0.22044	0.11583	0.10805	0.17561	0.28537	0.045548	-1.8042	-2.6542	-2.5917	-2.4437	-2.6542	-2.4062	-2.6437	-2.8208	-2.3417	-2.8958	-2.3583	-2.4521	-2.7333	-2.4375	-2.475	-2.8646	315.786	238.500	261.970	373.570	256.849	126.691	56.333	174.022	311.887	280.932	330.482	321.111	177.841	339.378	389.932	81.778	0.00034715	0.00057188	8.2765e-05	475	7.4041e-06	4.8757e-06	616.13	104.97	2.6668e-06	5.7828e-06	165.35	64.658	33.633	8.946	1.0144e-05	17.488	0.001221	0.0013062	0.00036534	489.35	1.4284e-05	1.4356e-05	628.43	112.38	1.4115e-05	1.4393e-05	176.25	67.785	37.59	10.346	1.4413e-05	19.322	92.682	341.781	225.917	56.023	102.930	196.327	55.553	61.126	213.734	278.979	61.132	66.622	67.049	70.790	49.120	70.594	-8191	255	
14628.204	1	1	0	0	0.1778	0.19983	0.090163	0.03251	0.12953	0.23343	0.086511	0.15415	0.25904	0.19527	0.15188	0.2504	0.062203	0.21228	0.12811	0.29451	-1.8021	-2.7521	-2.5042	-2.1229	-2.8042	-2.6208	-2.6312	-2.7354	-2.2583	-2.7854	-2.5542	-2.3875	-2.7687	-2.4708	-2.5021	-2.7375	86.689	185.184	60.799	258.018	146.478	253.342	335.649	329.667	50.200	44.662	311.435	335.892	68.834	178.009	237.179	72.638	0.00037341	0.00047935	0.00020965	473.33	4.9005e-07	5.4093e-06	615.78	106.06	1.0716e-06	5.6635e-06	165.47	64.708	33.714	9.0124	3.6263e-06	17.698	0.001207	0.0013055	0.0003625	488.42	1.3913e-05	1.3955e-05	626.7	112.49	1.3628e-05	1.3812e-05	175.76	67.664	37.605	10.325	1.3544e-05	19.342	107.120	335.054	243.176	56.151	52.762	193.296	55.716	61.552	306.093	251.072	60.726	66.860	66.934	70.905	211.401	70.730	-8191	255	
14628.300	1	1	0	0	0.087806	0.23131	0.11401	0.103	0.039789	0.26947	0.30652	0.24411	0.17192	0.15974	0.19272	0.38459	0.16876	0.20612	0.15809	0.14537	-1.8792	-2.5687	-2.5729	-2.4313	-2.7208	-2.5	-2.7271	-2.9188	-2.3354	-2.5687	-2.6854	-2.3021	-2.6875	-2.6771	-2.5979	-2.8521	395.845	374.906	114.069	314.063	300.373	334.916	50.158	132.139	388.270	328.040	81.114	354.558	277.073	169.414	222.389	366.322	0.00032025	0.00098692	0.00021653	473.24	4.408e-06	7.0732e-06	615.54	105.87	7.1573e-06	7.3952e-06	167.11	65.174	33.994	9.1529	7.4443e-06	17.811	0.0011575	0.0012321	0.00034073	487.23	1.3231e-05	1.3389e-05	627.16	112.44	1.3079e-05	1.3249e-05	176.07	67.768	37.508	10.354	1.3255e-05	19.469	110.782	134.417	270.517	55.821	214.752	238.312	55.983	61.328	97.987	187.196	60.617	66.554	67.290	71.030	64.545	71.033	-8191	255	
14628.395	1	1	0	0	0.087449	0.28636	0.25173	0.32049	0.13446	0.41263	0.089829	0.18241	0.041118	0.24881	0.21134	0.18915	0.079276	0.18375	0.2133	0.10135	-2.1	-2.5479	-2.6604	-2.2542	-2.7938	-2.6229	-2.4479	-2.7687	-2.4	-2.6667	-2.6958	-2.2771	-2.5854	-2.5938	-2.3438	-3.0104	268.458	361.784	187.577	324.682	302.770	101.267	287.915	351.075	45.353	281.171	355.996	343.932	266.008	240.592	173.921	333.609	0.00032504	0.00025264	9.7458e-05	476.2	7.9322e-06	3.5257e-06	616.34	105.45	3.9176e-06	2.8171e-06	167.72	65.204	34.025	9.2217	4.9767e-06	18.082	0.0011294	0.001217	0.00033693	488.85	1.3252e-05	1.3364e-05	629.22	112.22	1.3129e-05	1.3175e-05	177.14	68.1	37.579	10.367	1.2745e-05	19.527	74.147	73.066	263.082	55.798	203.264	323.837	55.505	61.596	169.954	53.695	60.720	67.241	67.000	71.385	281.677	70.670	-8191	255	
14628.468	1	1	0	0	0.1379	0.16265	0.15914	0.023135	0.14632	0.23367	0.19485	0.11199	0.21701	0.052232	0.18968	0.18113	0.097942	0.25039	0.043559	0.24139	-1.9062	-2.4875	-2.6688	-2.275	-2.5292	-2.6937	-2.5333	-2.6771	-2.4729	-2.7292	-2.8083	-2.3042	-2.6958	-2.5708	-2.3271	-2.7313	118.841	63.898	281.316	337.223	342.628	255.565	227.251	239.723	257.094	297.315	57.643	99.950	146.745	371.575	281.127	308.322	0.00047022	0.00042653	4.0428e-05	473.48	2.4385e-06	2.8583e-06	620.31	105.65	6.5844e-06	8.855e-06	168.38	65.073	34.469	9.1656	3.6248e-06	17.816	0.0010932	0.0011859	0.00032629	487.04	1.2929e-05	1.3073e-05	630.27	112.82	1.2818e-05	1.3182e-05	176.81	68.126	37.705	10.341	1.3041e-05	19.391	105.415	186.399	106.567	55.884	121.127	204.052	55.632	61.768	189.345	235.777	60.839	66.433	67.306	71.289	184.212	70.651	-8191	255	
14628.587	1	1	0	0	0.060099	0.11641	0.13609	0.16111	0.15268	0.060929	0.29029	0.044299	0.26939	0.16059	0.12795	0.12799	0.24187	0.31991	0.2518	0.12216	-1.8354	-2.3875	-2.6937	-2.5563	-2.8104	-2.8083	-2.3833	-2.6646	-2.6458	-2.5542	-2.9271	-2.3646	-2.7062	-2.6667	-2.4771	-2.7646	117.027	69.887	394.867	47.091	106.758	269.651	288.072	57.999	84.252	317.127	358.076	130.233	311.740	282.094	57.302	290.544	0.00027492	0.00026474	0.00019018	474.25	4.6804e-06	3.9394e-06	620.23	105.38	5.6114e-06	1.2626e-05	167.7	64.643	33.95	9.0885	5.794e-06	17.755	0.0011388	0.0012353	0.00034581	489.51	1.3369e-05	1.3472e-05	630.78	112.15	1.2947e-05	1.3187e-05	176.96	67.624	37.52	10.332	1.3191e-05	19.388	91.881	171.564	230.510	55.585	154.476	213.817	55.768	61.562	166.173	207.957	61.267	66.573	67.337	71.641	173.821	71.175	-8191	255	
14628.683	1	1	0	0	0.062889	0.1912	0.088786	0.25969	0.13584	0.18415	0.094441	0.13221	0.026641	0.29515	0.22505	0.11697	0.11371	0.21089	0.15678	0.28686	-2.1875	-2.3354	-2.7917	-2.55	-2.6396	-2.7625	-2.1937	-2.6188	-2.4958	-2.2208	-2.5896	-2.4979	-2.4583	-2.7396	-2.2	-2.7562	63.904	87.822	263.711	339.378	268.612	358.566	296.773	149.048	321.585	394.240	312.454	315.795	233.941	292.693	284.211	371.678	0.00021309	0.00046973	0.00012282	476.17	3.2427e-06	9.0549e-06	622.61	105.55	3.836e-06	2.4168e-06	168.51	64.862	33.857	9.0343	5.9597e-06	17.762	0.0011556	0.0012349	0.00034172	489.72	1.3389e-05	1.3418e-05	630.41	112.58	1.3231e-05	1.3378e-05	177.06	67.57	37.405	10.299	1.2977e-05	19.421	95.877	194.190	340.651	55.789	289.643	333.066	55.682	61.793	143.370	124.224	61.415	66.335	67.139	71.714	254.430	70.358	-8191	255	
14628.779	1	1	0	0	0.064845	0.32009	0.11681	0.24933	0.08724	0.21767	0.075455	0.23966	0.26145	0.19761	0.33714	0.31139	0.22279	0.19188	0.054623	0.13579	-2.2583	-2.4813	-2.9146	-2.6063	-2.4562	-2.9167	-2.4562	-2.6021	-2.5958	-2.2188	-2.9417	-2.5479	-2.4313	-2.7667	-2.3958	-2.6354	316.872	154.817	232.658	344.513	215.640	285.312	65.344	284.084	145.707	221.569	363.918	127.510	311.619	364.167	221.478	147.172	0.0002491	0.00042072	0.00023942	474.57	7.739e-06	5.834e-06	622.12	106.11	3.239e-06	2.4289e-06	168.4	65.145	34.052	9.1414	5.1756e-06	17.737	0.0011155	0.001193	0.00032946	488.01	1.2851e-05	1.3055e-05	632.21	112.52	1.2753e-05	1.2888e-05	177.23	67.833	37.401	10.33	1.2326e-05	19.431	106.070	288.362	89.665	55.869	240.842	126.399	55.618	61.188	305.081	80.281	60.895	66.971	67.391	71.114	131.994	70.754	-8191	255	
14628.875	1	1	0	0	0.11472	0.082761	0.12559	0.18591	0.26257	0.18182	0.074085	0.16545	0.21061	0.14283	0.2821	0.43408	0.22298	0.051684	0.13022	0.18666	-2.1896	-2.4083	-2.7812	-2.7021	-2.4917	-2.9417	-2.6542	-2.6437	-2.6708	-2.25	-2.9104	-2.5479	-2.4583	-3.0042	-2.4417	-2.6813	333.090	313.775	264.389	343.459	156.141	154.541	279.903	84.357	262.050	251.798	107.133	344.286	83.706	377.737	313.774	284.550	0.00042604	0.00026535	0.00016089	476.27	5.995e-06	6.4122e-06	620.41	105.96	2.2007e-06	3.6239e-06	167.3	64.994	34.271	9.1852	5.8161e-06	17.932	0.0010752	0.00113	0.00032012	489.42	1.2435e-05	1.2693e-05	629.18	112.19	1.2303e-05	1.249e-05	176.69	67.775	37.308	10.369	1.2301e-05	19.447	58.133	398.105	152.788	56.114	142.277	215.158	56.046	61.950	120.706	159.325	60.881	66.906	67.764	71.721	228.864	70.304	-8191	255	
14628.996	1	1	0	0	0.076249	0.16994	0.16773	0.18986	0.13636	0.18085	0.23942	0.23857	0.13414	0.2296	0.12926	0.14514	0.09444	0.24739	0.30334	0.23259	-2.4542	-2.3979	-2.7917	-2.6521	-2.5396	-2.7625	-2.5375	-2.4188	-2.8167	-2.3792	-2.7938	-2.4562	-2.3854	-2.7667	-2.5542	-2.6437	283.539	330.959	186.668	86.444	249.956	400.509	201.675	178.153	142.766	334.861	247.459	207.012	167.872	161.790	48.367	282.234	0.00017222	0.00052201	0.00011655	473.35	3.8992e-07	3.3723e-06	619.42	105.69	8.2842e-06	4.5782e-06	167.37	64.713	34.198	9.0946	6.2124e-06	17.971	0.0010721	0.0011433	0.00032385	486.04	1.2552e-05	1.2804e-05	629.03	112.48	1.2705e-05	1.2782e-05	176.85	67.615	37.54	10.327	1.2495e-05	19.522	99.207	107.688	170.336	56.189	191.664	163.797	55.842	61.304	162.401	207.717	61.061	66.497	67.073	71.134	154.531	71.069	-8191	255	
14629.068	1	1	0	0	0.08895	0.091649	0.15691	0.13258	0.13727	0.087644	0.19772	0.078237	0.058662	0.34048	0.18815	0.26189	0.25751	0.13684	0.24526	0.091942	-2.2375	-2.4146	-2.6771	-2.8396	-2.4313	-2.7771	-2.7208	-2.4958	-2.9146	-2.4229	-2.6833	-2.9167	-2.6083	-2.9562	-2.6958	-2.4604	201.333	143.836	64.770	327.308	319.594	354.058	210.481	149.950	223.097	253.344	125.831	182.341	91.148	201.447	246.208	316.658	0.00041644	7.7118e-05	0.00011951	474.61	4.0429e-06	7.5585e-06	618.36	106.89	2.8288e-06	1.0392e-06	168.99	65.337	34.402	9.1053	9.3692e-06	18.085	0.0010961	0.0011564	0.00032199	488.19	1.2522e-05	1.2731e-05	629.96	112.69	1.2587e-05	1.26e-05	177.31	67.924	37.544	10.371	1.2363e-05	19.531	76.208	65.780	394.697	56.003	85.928	381.111	55.616	61.521	175.096	279.164	60.849	66.774	67.218	71.645	264.653	71.017	-8191	255	
14629.164	1	1	0	0	0.11242	0.28715	0.16088	0.24574	0.1205	0.23189	0.15154	0.16654	0.43593	0.069543	0.13542	0.28314	0.12358	0.2124	0.086533	0.17044	-2.4125	-2.3354	-2.6167	-2.9437	-2.2562	-2.9167	-2.7896	-2.4458	-2.8458	-2.5708	-2.5729	-3.0625	-2.4021	-2.6396	-2.6271	-2.4167	208.108	332.358	328.681	350.498	150.688	284.165	104.186	45.934	172.703	250.208	253.158	323.313	326.780	377.236	172.045	76.253	0.00028848	0.00081539	0.0002029	473.22	1.9646e-06	5.6265e-06	626.02	107.43	3.8297e-06	3.7165e-06	169.03	65.682	34.292	9.3036	3.1133e-06	18.034	0.0010558	0.0011092	0.00031171	485.6	1.1959e-05	1.2208e-05	629.5	112.46	1.1971e-05	1.199e-05	177.06	68.107	37.296	10.38	1.1604e-05	19.52	71.356	114.843	218.696	55.784	303.210	251.318	55.900	61.271	148.657	182.409	60.734	66.839	67.307	70.828	93.039	70.743	-8191	255	
14629.284	1	1	0	0	0.11039	0.2521	0.084207	0.043013	0.15477	0.13692	0.26761	0.16496	0.16195	0.054485	0.1338	0.11141	0.070696	0.16209	0.19524	0.1782	-2.4625	-2.5396	-2.5354	-2.7229	-2.5354	-2.7479	-2.8146	-2.5083	-2.9313	-2.5479	-2.5563	-2.9208	-2.5187	-2.8312	-2.6958	-2.3688	168.924	109.012	261.731	207.386	245.609	82.376	356.304	365.397	313.552	184.999	106.948	314.943	152.813	147.404	178.549	105.448	0.00037796	0.00021529	0.00016649	473.65	2.6478e-06	4.0693e-06	621.59	106.28	4.0725e-06	6.236e-06	169.08	65.587	33.926	9.2954	5.9757e-06	18.112	0.0010246	0.0010824	0.00030354	486.23	1.1753e-05	1.2065e-05	630.53	112.47	1.1895e-05	1.2113e-05	176.76	67.466	37.021	10.389	1.1764e-05	19.572	69.753	216.851	361.271	56.249	302.976	136.619	56.027	61.731	165.480	193.110	60.658	66.728	67.707	71.502	276.011	70.658	-8191	255	
14629.379	1	1	0	0	0.17308	0.21477	0.23184	0.010314	0.2936	0.1487	0.24087	0.17966	0.087445	0.1666	0.14021	0.077002	0.22777	0.40193	0.02731	0.057159	-2.3292	-2.6208	-2.3396	-2.8771	-2.2958	-2.7812	-2.8104	-2.3417	-2.7417	-2.4396	-2.5375	-3.0146	-2.3333	-2.75	-2.775	-2.2875	61.127	62.991	60.849	265.534	400.019	380.954	320.097	102.254	333.900	153.113	197.246	52.215	304.076	306.045	169.010	318.606	0.00028203	0.00085133	0.00013489	474.23	2.4135e-06	6.5093e-06	619.88	107.17	3.1151e-06	4.6282e-06	170.44	65.206	33.968	9.2254	2.3958e-06	18.327	0.0010163	0.0010718	0.00029797	483.91	1.1356e-05	1.1668e-05	628.51	112.25	1.1436e-05	1.1435e-05	177.01	67.407	36.976	10.361	1.1323e-05	19.591	80.060	184.702	115.500	55.698	177.484	223.020	55.950	61.409	121.233	249.562	61.075	66.587	66.778	70.996	235.217	70.922	-8191	255	
14629.475	1	1	0	0	0.18921	0.03649	0.14543	0.08925	0.17299	0.10842	0.25223	0.1227	0.16161	0.1769	0.14086	0.26482	0.21404	0.09106	0.084536	0.14184	-2.3833	-2.5854	-2.3667	-2.9625	-2.4854	-2.5292	-2.8958	-2.4104	-2.8375	-2.7167	-2.2917	-2.9	-2.6583	-2.4354	-2.6271	-2.2917	75.870	276.967	130.255	286.466	139.434	182.347	360.144	215.279	254.936	156.394	215.338	49.084	321.717	146.108	322.471	299.963	0.00036204	0.00012577	0.00010438	474.58	4.0806e-06	2.7669e-06	622.51	106.49	3.2812e-06	7.4563e-06	168.84	65.412	34.018	9.4165	5.9499e-06	18.461	0.0009779	0.0010309	0.00028911	484.66	1.1029e-05	1.1383e-05	628	111.96	1.1235e-05	1.1381e-05	177.24	67.824	37.018	10.422	1.1268e-05	19.811	109.643	141.473	307.291	55.966	183.956	305.901	55.978	61.615	187.808	243.449	61.106	66.884	67.018	71.435	56.310	70.806	-8191	255	
14629.571	1	1	0	0	0.077082	0.10522	0.060128	0.12685	0.15344	0.21979	0.15739	0.071894	0.31097	0.22498	0.16903	0.062031	0.12546	0.026162	0.1305	0.24854	-2.3021	-2.3937	-2.2604	-2.9083	-2.5042	-2.5083	-2.9125	-2.5458	-2.5438	-2.7229	-2.2479	-2.8312	-2.7812	-2.5417	-2.7583	-2.3375	215.636	170.021	81.092	108.954	349.549	362.086	353.714	146.338	326.980	240.045	227.630	221.597	50.154	180.169	348.229	373.425	0.00056411	0.00016193	7.6832e-06	472.25	5.3552e-06	1.2962e-06	623.35	107.62	5.4439e-06	6.6197e-06	170.55	66.363	34.419	9.4268	6.8138e-06	18.764	0.00096378	0.001007	0.00027906	483.47	1.0574e-05	1.1012e-05	629.92	112.16	1.0636e-05	1.0666e-05	176.95	68.312	36.972	10.42	1.0501e-05	19.91	73.831	77.017	144.399	56.363	240.853	278.969	55.817	61.187	187.344	222.664	60.789	66.980	67.111	71.485	212.092	70.762	-8191	255	
14629.692	1	1	0	0	0.24289	0.16586	0.24203	0.30853	0.041101	0.080562	0.028049	0.17609	0.23985	0.055925	0.14691	0.21387	0.20963	0.31761	0.16071	0.33079	-2.1917	-2.6604	-2.4104	-2.9271	-2.7521	-2.4437	-2.9062	-2.375	-2.7458	-2.7167	-2.3417	-2.6063	-2.5271	-2.1833	-2.7167	-2.4021	377.377	178.025	355.461	281.967	190.066	375.131	142.444	166.802	248.956	171.616	76.536	367.155	248.029	322.609	312.551	267.362	0.00050286	0.00069664	9.3286e-05	477	3.849e-06	1.3015e-06	624.6	107.42	6.5231e-06	2.6248e-06	171.38	66.098	34.29	9.5454	4.8625e-06	18.756	0.00091605	0.0009458	0.00026056	484.47	1.011e-05	1.0189e-05	628.19	111.54	9.9559e-06	9.9781e-06	177.02	67.9	36.663	10.446	9.7508e-06	19.899	54.850	105.753	100.401	56.171	250.426	181.581	55.898	61.436	120.055	219.852	60.921	66.600	67.302	71.180	216.993	70.818	-8191	255	
14629.763	1	1	0	0	0.28082	0.079411	0.02374	0.27986	0.14773	0.24541	0.16569	0.12911	0.10792	0.067204	0.32128	0.078172	0.17577	0.26093	0.066955	0.29844	-2.275	-2.7354	-2.2646	-2.6958	-2.7188	-2.3917	-2.9583	-2.45	-2.5625	-2.875	-2.35	-2.6208	-2.5979	-2.3958	-2.9271	-2.5208	319.626	133.029	165.172	333.511	170.683	320.649	184.847	357.922	252.265	245.160	397.202	79.275	297.308	217.145	166.390	283.688	0.00045529	0.00035869	5.5579e-05	473.92	2.1163e-06	3.5564e-06	622.39	107.97	3.6534e-06	3.5287e-06	172.56	66.495	34.49	9.6404	2.8236e-06	18.916	0.00084084	0.00089054	0.00024418	480.1	9.564e-06	9.813e-06	626.39	111.7	9.4794e-06	9.5812e-06	177.67	68.232	36.846	10.471	9.3362e-06	20.023	83.313	194.642	218.211	55.967	172.814	255.646	55.821	61.847	198.392	132.359	61.215	66.839	67.157	71.872	215.497	70.511	-8191	255	
14629.884	1	1	0	0	0.27959	0.04389	0.19464	0.21003	0.090502	0.25155	0.051803	0.10524	0.23489	0.20508	0.065236	0.31363	0.082681	0.24735	0.17467	0.26498	-2.1479	-2.9042	-2.3417	-2.7146	-2.7708	-2.3438	-2.8604	-2.5354	-2.2917	-2.7146	-2.4604	-2.7583	-2.6125	-2.3042	-2.5896	-2.4958	283.143	100.858	364.414	386.686	205.142	350.555	66.063	167.477	198.803	212.969	107.933	347.703	384.876	228.984	345.648	327.169	0.00035914	0.000414	0.00022901	472.87	5.3956e-06	4.825e-07	625.44	108.7	2.5439e-06	3.2061e-06	174.08	67.228	34.842	9.7784	5.839e-06	19.307	0.00082377	0.00085336	0.00023449	477.99	9.2057e-06	9.3471e-06	628.77	112.14	9.3161e-06	9.3781e-06	179.37	69.01	37.088	10.57	9.6267e-06	20.282	78.053	125.789	129.982	55.863	153.611	148.064	55.834	61.798	231.552	258.369	60.971	66.634	67.396	71.097	197.895	70.163	-8191	255	
14629.980	1	1	0	0	0.041308	0.15038	0.17287	0.081614	0.11857	0.082701	0.11994	0.12407	0.3322	0.17287	0.15858	0.13825	0.2102	0.085928	0.10988	0.54267	-1.9354	-2.7771	-2.1375	-2.6604	-2.5771	-2.2458	-2.7625	-2.5042	-2.4958	-2.95	-2.3354	-2.5667	-2.5979	-2.3604	-2.7604	-2.5708	330.890	279.280	242.612	329.991	282.215	96.798	339.152	96.911	271.956	308.822	206.786	307.613	348.998	85.265	134.363	341.551	0.00044431	0.0001424	6.8669e-05	475.18	2.8767e-06	4.542e-06	627.58	108.7	3.0548e-06	7.4179e-07	173.09	67.531	35.28	9.719	6.2047e-06	19.113	0.00084461	0.00088942	0.00024577	481.52	9.705e-06	9.9013e-06	632.07	112.52	9.5552e-06	9.8248e-06	179.38	69.066	37.272	10.599	9.5166e-06	20.222	101.410	334.170	90.236	56.038	173.848	343.220	56.084	61.292	164.925	159.604	61.220	66.789	67.157	71.508	220.036	71.251	-8191	255	
14630.076	1	1	0	0	0.10709	0.10351	0.29982	0.2372	0.053861	0.15604	0.14968	0.26922	0.10609	0.082547	0.095953	0.20026	0.059883	0.19726	0.0454	0.13846	-1.6792	-2.7479	-2.3104	-2.5104	-2.7812	-2.3625	-2.7104	-2.7125	-2.2667	-2.6333	-2.4896	-2.4333	-2.8792	-2.3917	-2.5979	-2.7021	121.263	216.283	294.924	168.688	97.618	381.948	336.247	233.204	255.698	378.510	330.653	211.747	158.363	277.345	91.760	280.601	0.00047144	0.00048079	0.00013891	474.8	1.9893e-06	1.7183e-06	626.86	109.19	4.6659e-07	2.8674e-06	174.81	67.371	34.751	9.7944	1.6487e-06	19.139	0.00081103	0.00084971	0.00023881	481.22	9.3548e-06	9.3746e-06	629.83	113.2	9.4323e-06	9.524e-06	180.19	68.876	37.074	10.593	9.4799e-06	20.184	74.046	180.973	167.042	55.976	155.813	188.665	55.598	61.364	266.517	145.505	60.956	66.691	67.012	71.054	295.912	70.846	-8191	255	
14630.173	1	1	0	0	0.062898	0.22866	0.10377	0.17628	0.30397	0.1413	0.058772	0.33936	0.1625	0.11842	0.22454	0.41416	0.074759	0.38252	0.16131	0.13267	-1.9104	-2.7646	-2.5458	-2.4146	-2.5625	-2.3542	-2.6958	-2.5583	-2.4083	-2.75	-2.5083	-2.5021	-2.8	-2.4542	-2.7104	-2.5687	379.586	187.490	160.873	65.946	221.197	218.513	393.954	347.913	291.912	219.467	80.478	253.607	299.300	129.971	83.588	145.780	0.00037182	0.00041956	0.00013474	473.82	6.5243e-06	4.4925e-06	629.95	109.14	1.4769e-06	3.4722e-06	176.25	67.9	34.821	9.7563	3.3656e-06	19.317	0.00082016	0.00085274	0.0002354	479.96	9.1944e-06	9.2269e-06	630.38	113.09	9.085e-06	9.3081e-06	180.31	69.089	37.064	10.574	9.2522e-06	20.256	88.527	99.574	198.336	56.120	251.772	145.292	56.180	61.585	172.380	211.870	60.765	66.540	67.240	71.256	329.855	71.002	-8191	255	
14630.293	1	1	0	0	0.20677	0.15863	0.20567	0.28105	0.050185	0.16382	0.30565	0.12572	0.12182	0.27615	0.10373	0.16288	0.094872	0.19445	0.12654	0.21598	-1.8604	-2.7875	-2.4833	-2.45	-2.6042	-2.5417	-2.6646	-2.6396	-2.3125	-2.6979	-2.5375	-2.6104	-2.7292	-2.4271	-2.5375	-3.0062	352.819	344.488	306.253	397.957	304.242	124.660	349.552	302.082	109.832	259.144	276.659	347.554	243.795	374.371	205.358	181.606	0.00027912	0.00021144	7.2855e-05	474.42	1.3553e-06	5.6403e-06	631.81	109.16	2.0655e-06	6.3658e-06	176.19	67.658	35.213	9.7879	9.8478e-06	19.259	0.00077929	0.00082914	0.0002303	479.47	8.9485e-06	8.9285e-06	630.24	112.76	8.7998e-06	8.9736e-06	179.94	68.981	37.093	10.585	8.8978e-06	20.333	79.777	86.996	55.968	56.102	269.159	175.050	55.976	61.314	293.754	285.105	60.364	67.073	67.569	71.662	208.898	70.754	-8191	255	
14630.365	1	1	0	0	0.38569	0.098434	0.085869	0.26581	0.14271	0.26925	0.1999	0.29527	0.30826	0.034447	0.18738	0.38068	0.20805	0.36225	0.36958	0.35042	-1.7979	-2.6625	-2.5292	-2.3792	-2.8104	-2.4917	-2.4667	-2.7167	-2.3	-2.8167	-2.8125	-2.4146	-2.6792	-2.3896	-2.5646	-2.9167	256.979	113.440	302.452	276.958	380.896	128.137	293.331	68.025	314.309	162.747	379.381	392.639	69.622	334.399	68.639	403.422	0.00025106	0.00043825	0.00014266	473.27	3.3368e-06	2.1255e-06	628.88	110.47	3.5833e-06	8.695e-06	175.56	68.008	35.254	9.8495	4.7825e-06	19.436	0.00076217	0.00081266	0.00022483	479.51	8.7484e-06	8.6954e-06	632.01	113.07	8.4798e-06	8.6759e-06	180.35	68.978	36.965	10.59	8.7379e-06	20.294	107.820	183.264	175.708	55.899	124.688	128.851	55.931	61.792	64.844	168.890	60.959	66.799	67.381	71.697	234.201	70.741	-8191	255	
14630.459	1	1	0	0	0.08004	0.11746	0.2544	0.029304	0.038164	0.17672	0.53507	0.24521	0.21679	0.13733	0.25401	0.071694	0.27326	0.12891	0.15872	0.062042	-2.0375	-2.5604	-2.7729	-2.2354	-2.65	-2.4042	-2.5438	-2.725	-2.2917	-2.525	-2.7979	-2.4104	-2.5854	-2.7521	-2.45	-2.7125	292.921	377.008	53.498	328.277	268.271	232.014	367.797	247.687	61.627	265.428	355.842	191.507	345.027	221.133	220.412	390.698	0.00027788	0.00052281	3.8673e-05	475.58	3.9224e-06	3.8762e-06	632.07	109.93	5.8476e-06	6.5361e-06	174.67	66.544	34.759	9.6603	5.5244e-06	19.227	0.00075415	0.00080821	0.00022405	478.17	8.7423e-06	8.7739e-06	629.59	112.88	8.7212e-06	8.9208e-06	179.24	67.992	36.652	10.46	8.7262e-06	20.081	66.630	63.120	213.254	55.867	217.648	247.809	55.954	61.536	357.995	229.213	60.911	67.127	67.219	71.882	315.521	71.370	-8191	255	
14630.555	1	1	0	0	0.059252	0.080764	0.063417	0.24619	0.2224	0.031828	0.26834	0.19557	0.23594	0.18251	0.0087534	0.15178	0.075687	0.18442	0.13823	0.12022	-1.8729	-2.5625	-2.8604	-2.2458	-2.6104	-2.5229	-2.6667	-2.9813	-2.4604	-2.4583	-2.7458	-2.3146	-2.6167	-2.5312	-2.4917	-2.7979	54.786	227.074	174.289	367.841	307.308	328.840	319.683	216.893	332.639	240.421	234.914	89.266	213.724	257.433	353.376	391.755	0.00027689	0.00029396	9.8535e-06	475.76	3.6253e-06	1.734e-06	632.56	110.74	5.7178e-06	6.461e-06	175.21	67.007	34.491	9.6656	3.8465e-06	19.085	0.00074909	0.00079501	0.00022159	478.52	8.5691e-06	8.6069e-06	628.65	113.3	8.519e-06	8.8077e-06	180.05	68.083	36.717	10.49	8.9778e-06	20.145	69.321	110.237	130.480	55.953	166.759	182.142	55.636	61.468	138.180	107.585	60.746	66.837	66.892	71.993	61.448	70.999	-8191	255	
14630.676	1	1	0	0	0.31186	0.091878	0.29042	0.17591	0.24002	0.15507	0.076085	0.26538	0.27816	0.14198	0.3266	0.31075	0.17086	0.10669	0.17987	0.28873	-1.9208	-2.4604	-2.6917	-2.4604	-2.7083	-2.5375	-2.3458	-2.6708	-2.4896	-2.4542	-2.9021	-2.4604	-2.525	-2.5979	-2.2938	-2.7271	203.490	186.293	302.680	149.857	271.355	188.029	327.567	191.440	141.404	369.766	378.008	69.118	115.530	386.493	348.251	91.997	0.00041652	0.0002749	2.87e-05	471.48	5.5935e-06	6.2355e-07	628.61	110.39	5.3969e-06	4.7727e-06	175.98	66.259	34.155	9.5894	4.1912e-06	19.094	0.00078115	0.00084694	0.00023316	479.09	9.09e-06	9.2487e-06	631.07	113.12	9.1921e-06	9.3785e-06	179.73	67.739	36.3	10.392	9.2902e-06	20.134	95.476	192.576	62.394	55.944	184.171	79.400	55.984	61.456	114.944	198.022	60.957	67.152	67.572	71.147	107.357	70.718	-8191	255	
14630.772	1	1	0	0	0.29281	0.087267	0.013504	0.20319	0.039475	0.27923	0.11894	0.14397	0.072597	0.31028	0.097783	0.33517	0.12846	0.22309	0.064417	0.045147	-1.9604	-2.4521	-2.875	-2.4792	-2.6021	-2.5667	-2.2625	-2.8792	-2.6417	-2.4938	-2.9771	-2.2729	-2.4583	-2.75	-2.4	-2.7875	119.044	190.398	352.613	378.701	287.901	102.809	182.807	293.956	388.036	305.489	351.249	244.380	298.097	253.574	143.054	293.529	0.00021998	0.00057634	0.00013572	477.27	2.985e-06	2.6368e-06	629.03	109.26	1.1969e-06	1.1576e-06	176.8	66.464	34.216	9.5575	4.664e-06	19.153	0.00080365	0.00085624	0.00023926	480.63	9.3741e-06	9.3266e-06	629.66	112.63	9.0591e-06	9.1579e-06	180.27	67.599	36.309	10.41	9.0087e-06	20.081	76.129	121.583	241.715	56.216	214.119	70.558	55.531	61.269	232.358	215.115	60.656	66.636	67.079	71.459	144.774	70.912	-8191	255	
14630.868	1	1	0	0	0.18078	0.14406	0.12042	0.14611	0.21011	0.24949	0.35993	0.23023	0.10379	0.16566	0.039358	0.086579	0.23884	0.14366	0.47012	0.10547	-2.1813	-2.3	-2.675	-2.6021	-2.5083	-2.8417	-2.5542	-2.5896	-2.6792	-2.5417	-3.075	-2.4792	-2.6167	-2.8542	-2.2438	-2.8312	270.467	91.661	279.071	164.477	268.659	377.274	48.217	319.129	97.030	359.987	223.006	316.839	153.046	315.049	331.331	95.135	0.00025563	0.00019513	8.0151e-05	471.96	7.3125e-06	1.8138e-06	628.37	109.85	4.8453e-06	6.7282e-06	174.21	66.092	33.813	9.5724	4.7637e-06	19.02	0.00080798	0.00085895	0.0002363	478.63	9.4542e-06	9.374e-06	630.6	112.88	9.4817e-06	9.476e-06	179.37	67.468	36.38	10.414	9.5931e-06	20.031	103.613	350.206	109.179	55.972	241.366	203.219	55.922	61.546	249.905	203.887	60.913	66.590	67.412	71.129	245.052	71.029	-8191	255	
14630.964	1	1	0	0	0.059428	0.1624	0.24759	0.15887	0.14026	0.17688	0.24913	0.070856	0.10517	0.087083	0.12304	0.2542	0.17515	0.25786	0.04053	0.12453	-2.2375	-2.2896	-2.6	-2.5792	-2.4771	-2.8333	-2.4958	-2.6688	-2.6354	-2.5229	-2.8542	-2.7396	-2.4313	-2.9062	-2.4396	-2.7146	342.883	324.220	94.460	117.769	251.387	121.550	368.638	66.551	391.764	103.762	337.765	104.365	86.845	371.902	173.952	281.747	0.00032566	0.00048296	0.0001666	477.35	1.58e-06	3.4485e-06	629.75	108.81	4.2953e-06	4.379e-06	174.59	66.156	34.227	9.7061	2.2514e-06	19.089	0.00083336	0.00088438	0.00025475	481.03	9.8938e-06	1.0079e-05	631.15	113.08	9.7557e-06	9.9753e-06	180.49	68.086	36.626	10.607	1.0008e-05	20.285	103.247	192.826	286.099	56.105	155.708	123.995	55.828	61.499	105.802	99.405	60.888	67.024	66.964	71.521	54.908	70.482	-8191	255	
14631.061	1	1	0	0	0.094788	0.080288	0.050517	0.21563	0.27574	0.086052	0.26087	0.04227	0.33438	0.3017	0.22428	0.16469	0.054431	0.14176	0.14613	0.080523	-2.2854	-2.2188	-2.7271	-2.6833	-2.5708	-2.95	-2.6083	-2.775	-2.7833	-2.2708	-2.7771	-2.7083	-2.4646	-2.7896	-2.4417	-2.5479	153.885	125.911	318.609	397.779	328.047	66.197	393.608	389.858	196.997	177.061	330.776	352.302	224.016	134.934	137.930	391.438	0.00030337	0.00033438	0.0001994	475.71	1.8011e-06	7.5967e-06	628.18	110.68	3.9341e-06	4.0047e-06	175.94	66.769	34.795	9.7462	4.5449e-06	19.479	0.00087622	0.00091462	0.00025693	480.41	1.0148e-05	1.0328e-05	631.44	114.86	1.0286e-05	1.032e-05	182.96	68.949	37.361	10.747	1.0686e-05	20.659	93.599	146.106	309.030	55.909	159.513	152.435	55.985	61.135	177.368	184.431	61.178	66.456	67.576	71.113	303.710	70.525	-8191	255	
14631.157	1	1	0	0	0.20947	0.16102	0.22251	0.2763	0.17051	0.3058	0.045196	0.15545	0.29632	0.28578	0.21265	0.039153	0.052991	0.058235	0.1999	0.16735	-2.325	-2.2562	-2.6604	-2.4229	-2.1125	-2.7542	-2.6063	-2.3667	-2.8333	-2.3208	-2.9604	-2.5792	-2.3125	-2.6562	-2.4292	-2.5125	345.816	310.808	295.158	315.870	238.583	287.559	335.239	74.161	347.082	128.566	358.700	215.588	204.982	282.468	143.071	376.083	0.00029133	0.00014997	9.1021e-05	475.43	2.4614e-06	7.162e-06	630.01	110.92	4.669e-07	6.2523e-06	179.2	67.073	34.864	9.8828	6.1908e-06	19.355	0.0009335	0.00097219	0.00027603	483.04	1.0994e-05	1.102e-05	635.09	115.7	1.0874e-05	1.0759e-05	185.44	69.166	37.33	10.841	1.0786e-05	20.591	75.750	401.975	112.150	56.185	61.712	244.343	55.900	61.567	127.128	357.472	61.159	66.671	67.443	71.452	222.566	71.036	-8191	255	
14631.253	1	1	0	0	0.14771	0.2438	0.25635	0.06242	0.099355	0.2577	0.20216	0.17979	0.10204	0.3236	0.083403	0.21925	0.039448	0.27621	0.15386	0.17153	-2.3958	-2.3854	-2.6354	-2.8042	-2.3271	-2.8521	-2.6375	-2.4146	-2.5896	-2.4083	-2.5083	-2.8563	-2.1167	-2.7	-2.5875	-2.2479	365.165	166.343	294.715	87.013	168.295	257.674	70.963	307.373	151.987	394.368	152.888	50.016	53.695	368.944	390.487	332.860	0.00045208	0.00017719	0.00015879	475.48	1.1969e-06	5.0999e-06	630.21	111.36	5.7506e-06	6.9563e-06	179.32	67.015	34.693	9.7426	3.0836e-06	19.421	0.00092998	0.00097745	0.00027569	483.21	1.0329e-05	1.0702e-05	633.79	115.7	1.0292e-05	1.0314e-05	185.78	68.949	37.107	10.75	1.0069e-05	20.6	88.338	178.151	98.756	55.808	354.769	267.041	55.787	61.677	146.277	163.229	61.321	67.331	67.460	71.671	329.617	70.874	-8191	255	
14631.374	1	1	0	0	0.28666	0.14107	0.11791	0.17654	0.09953	0.16785	0.37551	0.21693	0.077945	0.075965	0.25391	0.08905	0.18082	0.13613	0.087286	0.12061	-2.275	-2.2604	-2.4854	-2.8646	-2.3125	-2.8458	-2.5833	-2.4188	-2.825	-2.2833	-2.4146	-2.7104	-2.5	-2.6813	-2.6104	-2.4021	330.980	187.179	369.503	72.242	171.614	81.337	352.255	379.620	363.134	299.183	402.400	331.574	391.389	266.098	368.321	188.580	0.00050201	0.00056899	0.00020192	474.98	5.1946e-06	2.0245e-06	630.48	112.15	3.5955e-06	2.2047e-06	182.55	67.444	34.884	9.829	6.4252e-06	19.541	0.00087569	0.00091078	0.000255	481.73	9.9142e-06	1.0081e-05	635.34	115.78	1.0031e-05	1.0233e-05	187.38	69.344	37.257	10.793	1.0051e-05	20.75	96.984	130.648	156.857	55.779	147.751	298.204	55.916	61.506	150.348	123.906	60.894	66.625	67.634	71.128	219.789	71.620	-8191	255	
14631.468	1	1	0	0	0.16354	0.17873	0.059314	0.27642	0.2046	0.18705	0.063322	0.23165	0.1124	0.20846	0.17986	0.13308	0.23564	0.090845	0.083699	0.19225	-2.3125	-2.2771	-2.4562	-2.9167	-2.2438	-2.7667	-2.7125	-2.2	-2.6854	-2.4104	-2.425	-2.6312	-2.2354	-2.7167	-2.75	-2.3271	307.387	69.389	229.325	394.823	97.192	188.964	357.473	75.278	116.689	324.224	103.075	55.564	398.217	270.577	320.264	286.710	0.00043818	0.00075918	0.00018156	475.24	5.4098e-06	6.2052e-06	637.25	111.71	4.1391e-06	4.0114e-06	182.6	67.529	34.413	9.8512	1.2135e-05	19.485	0.00089554	0.00095338	0.00026394	482.49	1.0394e-05	1.0714e-05	637.64	115.96	1.0385e-05	1.0518e-05	187.93	69.505	37.206	10.872	1.086e-05	20.786	117.462	123.498	184.343	55.965	147.475	363.085	55.874	61.749	198.395	190.256	61.343	66.718	67.146	71.223	216.304	71.254	-8191	255	
14631.564	1	1	0	0	0.061654	0.030483	0.028685	0.21474	0.15465	0.30079	0.20019	0.05906	0.17183	0.12173	0.054648	0.15182	0.31966	0.092126	0.37012	0.29548	-2.3292	-2.5	-2.4979	-2.9333	-2.4208	-2.5229	-2.5479	-2.2354	-2.6875	-2.4854	-2.3146	-2.8104	-2.3896	-2.4813	-2.65	-2.4104	308.644	174.195	322.097	134.532	148.387	348.867	332.701	167.212	272.219	70.958	360.376	146.087	291.563	48.815	281.711	298.947	0.00039232	0.00039827	0.00017875	475.69	4.6214e-06	9.9226e-06	637.45	111.1	3.9502e-06	2.1448e-06	183.94	67.519	34.57	9.7229	5.2625e-06	19.556	0.00095227	0.0010018	0.00028007	484.22	1.0925e-05	1.1164e-05	641.39	116.27	1.1066e-05	1.1055e-05	189.77	69.49	37.237	10.79	1.1021e-05	20.738	67.223	107.208	305.532	55.972	228.553	206.119	55.843	61.545	167.860	336.804	61.475	67.036	67.529	71.694	157.523	71.096	-8191	255	
14631.660	1	1	0	0	0.12618	0.1878	0.2018	0.18746	0.15278	0.088376	0.14009	0.12922	0.11795	0.12791	0.16258	0.14524	0.11411	0.23796	0.10607	0.44957	-2.2875	-2.525	-2.4208	-2.8708	-2.2771	-2.6083	-2.7979	-2.1562	-2.4854	-2.5604	-2.5208	-2.9104	-2.5479	-2.4188	-2.7271	-2.3417	137.678	227.403	99.905	299.219	327.145	361.948	339.105	278.752	179.873	181.027	308.858	295.838	311.464	219.871	88.212	285.927	0.0004091	0.00055932	0.00016495	473.3	5.2162e-06	3.881e-06	634.41	112.1	3.7432e-06	1.6989e-06	183.13	66.648	34.682	9.7869	5.7676e-06	19.449	0.00096124	0.0010136	0.00028273	484.74	1.1062e-05	1.1426e-05	638.98	116.6	1.0964e-05	1.0973e-05	189.06	68.972	37.112	10.842	1.0674e-05	20.688	67.666	234.662	227.235	55.763	127.194	242.076	56.080	61.527	102.997	94.796	60.968	67.313	67.047	72.381	104.469	71.505	-8191	255	
14631.756	1	1	0	0	0.1897	0.196	0.20517	0.29143	0.19636	0.16357	0.088144	0.15612	0.14504	0.22477	0.11824	0.14255	0.057913	0.15986	0.078169	0.24301	-2.1875	-2.4	-2.3771	-2.7229	-2.4437	-2.5042	-2.8271	-2.3271	-2.5542	-2.5104	-2.3542	-2.7292	-2.5667	-2.5896	-2.7979	-2.4708	130.713	345.708	157.344	372.696	247.246	59.810	194.159	258.054	328.479	97.871	259.287	161.752	347.098	60.131	182.434	370.158	0.00052776	0.00059719	6.8239e-05	478.12	8.1698e-06	6.5651e-06	630.28	111.5	6.2662e-06	5.1158e-06	182.42	67.541	34.814	9.7835	1.1998e-06	19.661	0.00092246	0.00096755	0.00026724	484.09	1.0494e-05	1.0563e-05	635.26	116.1	1.0478e-05	1.0341e-05	188.25	69.544	37.064	10.767	1.0125e-05	20.793	74.157	143.509	65.395	55.919	79.889	221.646	55.975	61.691	228.950	181.149	61.320	67.131	67.741	72.169	199.145	71.135	-8191	255	
14631.853	1	1	0	0	0.16772	0.12572	0.13047	0.20986	0.068295	0.047134	0.2182	0.12456	0.14067	0.24069	0.10576	0.19237	0.0097931	0.16543	0.3474	0.16204	-2.0479	-2.6667	-2.4062	-2.7458	-2.5146	-2.4062	-2.7938	-2.3271	-2.3458	-2.8	-2.3063	-2.6479	-2.6375	-2.4896	-2.9188	-2.4104	200.119	359.130	219.687	92.162	295.457	376.252	378.309	224.681	251.411	169.950	226.350	301.982	335.173	287.265	282.570	92.446	0.0002916	0.00018275	0.00010072	475.57	2.0745e-06	5.644e-06	634.99	112.15	2.0854e-06	2.1526e-06	183.41	67.873	34.839	9.8379	5.7762e-06	19.706	0.0008962	0.00093768	0.00025646	481.05	1.0149e-05	1.0329e-05	637.45	116.46	1.0309e-05	1.0383e-05	189.18	69.834	37.322	10.789	1.0233e-05	20.901	87.481	102.128	291.186	56.114	347.987	161.240	55.956	61.506	215.511	279.654	61.556	66.977	67.421	71.502	147.946	71.941	-8191	255	
14631.973	1	1	0	0	0.17106	0.17257	0.18899	0.22865	0.16178	0.17437	0.061134	0.17273	0.11956	0.11584	0.17507	0.12616	0.16112	0.27636	0.14242	0.17475	-2.1021	-2.7625	-2.2313	-2.5521	-2.5938	-2.2854	-2.8458	-2.5146	-2.5917	-2.85	-2.5687	-2.7562	-2.7917	-2.3937	-2.7708	-2.75	138.592	242.133	340.129	299.408	233.935	212.383	393.839	69.382	64.355	123.231	361.975	337.986	320.178	60.132	219.119	333.965	0.0004378	0.00069094	4.1003e-05	475.76	6.2668e-06	1.8385e-06	634.12	112.97	4.2116e-06	2.9136e-06	184.35	67.296	34.352	9.9355	4.9972e-06	19.654	0.00090151	0.00095153	0.00026411	482.21	1.0165e-05	1.0312e-05	638.44	117.01	1.0403e-05	1.041e-05	189.81	69.345	37.072	10.839	1.0492e-05	20.805	68.667	158.981	248.555	55.873	193.998	171.372	55.617	61.614	294.548	125.198	61.148	67.195	67.123	71.816	205.661	70.842	-8191	255	
14632.069	1	1	0	0	0.078994	0.18502	0.18801	0.069539	0.12759	0.44204	0.21217	0.13742	0.24639	0.074203	0.15595	0.16391	0.11706	0.039511	0.11336	0.30201	-2.1271	-2.7708	-2.1875	-2.7062	-2.7458	-2.35	-2.7229	-2.5771	-2.5187	-2.7542	-2.4083	-2.8396	-2.6937	-2.0354	-2.7354	-2.6104	82.187	186.247	198.460	128.340	332.704	364.009	276.940	381.619	189.692	239.992	49.377	65.673	144.797	199.591	354.048	248.266	0.00023624	0.00023588	9.883e-05	475.27	4.2469e-06	2.947e-06	632.5	111.12	2.2461e-06	4.1839e-06	183.13	66.867	34.103	9.8167	4.3848e-06	19.493	0.00091446	0.00096845	0.00026505	481.43	1.0366e-05	1.0357e-05	636.29	116.3	1.0466e-05	1.0396e-05	188.88	69.082	36.882	10.749	1.067e-05	20.673	54.089	112.569	278.744	55.845	205.211	167.960	55.754	61.602	307.489	44.720	61.212	67.247	67.581	71.826	251.104	70.719	-8191	255	
14632.165	1	1	0	0	0.27591	0.25699	0.20076	0.34851	0.14745	0.14038	0.1175	0.47556	0.16273	0.23009	0.27982	0.13025	0.17354	0.13202	0.052186	0.16124	-1.9021	-2.6854	-2.5	-2.6312	-2.6063	-2.3375	-2.7458	-2.6	-2.4938	-2.9104	-2.5417	-2.6917	-2.7792	-2.2229	-2.7229	-2.8021	369.475	341.197	325.315	262.311	179.994	266.676	345.461	393.803	329.581	360.318	379.401	331.784	45.699	168.412	168.288	342.566	0.0003711	0.00085504	0.0001212	473.37	1.2564e-06	1.2209e-06	632.23	111.93	3.2403e-06	4.9658e-06	183	67.384	34.022	9.8722	4.1237e-06	19.548	0.00092925	0.00098134	0.00027014	482.2	1.0649e-05	1.071e-05	637.84	116.44	1.0615e-05	1.068e-05	189.31	69.21	36.869	10.812	1.0921e-05	20.785	70.215	79.769	157.223	55.578	285.201	76.325	56.028	61.595	386.811	221.947	60.993	67.108	67.325	72.213	106.907	70.934	-8191	255	
14632.237	1	1	0	0	0.070844	0.077618	0.038341	0.15923	0.25202	0.02976	0.24303	0.11177	0.089002	0.11125	0.23986	0.16476	0.15807	0.126	0.10518	0.17106	-1.9771	-2.8063	-2.325	-2.7812	-2.9208	-2.2729	-2.6833	-2.5	-2.3146	-2.8312	-2.5104	-2.4583	-2.7292	-2.4854	-2.5938	-2.6437	379.892	210.390	81.043	50.257	164.980	132.853	373.922	318.993	251.233	189.159	317.727	269.410	74.792	349.336	325.398	160.578	0.00016044	0.00047922	0.00012884	476.96	2.082e-06	4.9741e-06	628.76	111.86	2.7863e-06	5.5536e-06	181.81	66.859	34.27	9.6541	1.07e-05	19.625	0.00093933	0.0010223	0.00028631	484.79	1.125e-05	1.1324e-05	637.66	116.94	1.1337e-05	1.1499e-05	189.96	69.482	37.208	10.787	1.1491e-05	20.851	60.592	160.278	235.622	55.800	162.468	195.211	55.860	61.833	272.408	187.033	61.125	67.360	67.477	71.314	173.734	71.488	-8191	255	
14632.356	1	1	0	0	0.15347	0.13779	0.18373	0.10247	0.088776	0.11331	0.22767	0.26106	0.26982	0.13018	0.070455	0.12605	0.033171	0.14738	0.079806	0.075786	-1.9062	-2.7271	-2.5167	-2.4396	-2.8	-2.2604	-2.7229	-2.8292	-2.4437	-2.6729	-2.6813	-2.4771	-2.8042	-2.3271	-2.6813	-2.9188	48.042	50.932	183.444	242.584	60.919	347.530	366.251	338.477	237.743	298.460	389.363	158.018	400.801	100.157	333.074	337.570	0.00035885	0.00014444	0.00013476	475.75	3.1523e-06	3.8589e-06	633.71	111.89	9.2757e-06	1.6158e-06	183.01	67.241	34.475	9.798	5.3271e-07	19.363	0.0010022	0.0010668	0.00029544	485.5	1.1339e-05	1.1518e-05	641	117.33	1.1336e-05	1.1359e-05	189.88	69.198	36.978	10.783	1.1189e-05	20.723	97.748	204.233	130.118	56.102	74.867	350.140	56.086	61.604	223.263	252.012	61.195	67.347	67.401	72.079	87.207	71.055	-8191	255	
14632.452	1	1	0	0	0.076204	0.086522	0.05897	0.13639	0.19405	0.084986	0.076506	0.23171	0.074774	0.17549	0.419	0.2149	0.19728	0.10658	0.2278	0.053099	-1.7375	-2.7167	-2.3396	-2.3187	-2.6896	-2.3937	-2.6729	-3.0083	-2.3438	-2.6896	-2.8104	-2.4875	-2.7562	-2.4104	-2.4729	-2.4958	277.047	333.798	237.383	395.026	294.356	220.314	161.653	374.689	157.984	45.192	47.079	362.177	110.680	108.923	147.450	203.749	0.00035625	0.00013892	7.9052e-05	472	4.4544e-06	9.4601e-06	629.52	112.21	6.0438e-06	4.8216e-06	182.96	66.39	34.044	9.7191	3.9981e-06	19.508	0.0009389	0.00099985	0.00027871	481.62	1.0681e-05	1.0911e-05	636.17	116.14	1.0717e-05	1.0958e-05	188.75	68.697	36.744	10.751	1.0807e-05	20.798	86.060	278.916	192.926	55.612	310.317	225.552	55.794	61.787	168.283	352.445	61.194	67.472	67.168	72.206	213.967	71.280	-8191	255	
14632.548	1	1	0	0	0.13303	0.11566	0.085288	0.24794	0.097098	0.059877	0.054964	0.069288	0.32386	0.2098	0.33812	0.12262	0.11245	0.20908	0.053911	0.051179	-1.95	-2.4521	-2.6833	-2.4167	-2.8896	-2.6417	-2.4625	-2.8167	-2.2313	-2.6229	-2.7396	-2.3854	-2.8812	-2.4375	-2.5271	-2.9208	147.936	202.212	80.872	50.299	234.121	81.379	331.830	265.603	168.268	175.214	316.038	309.907	61.689	365.517	91.045	74.946	0.00039432	0.00018119	0.00017079	473.18	1.9986e-06	4.1375e-06	631.25	111.37	3.8169e-06	2.7752e-06	182.35	66.95	33.859	9.7697	3.273e-06	19.521	0.00093072	0.0010102	0.00028155	481.96	1.0817e-05	1.1107e-05	636.73	115.94	1.0834e-05	1.092e-05	188.35	68.817	36.773	10.774	1.0745e-05	20.779	85.550	188.123	131.086	55.705	186.110	257.931	55.963	61.762	188.427	249.717	61.437	66.696	67.934	72.061	120.717	71.145	-8191	255	
14632.644	1	1	0	0	0.11789	0.062502	0.077598	0.21062	0.095154	0.273	0.2889	0.13658	0.13203	0.1642	0.30386	0.105	0.10547	0.081219	0.23311	0.13662	-1.9833	-2.5333	-2.6146	-2.3792	-2.4625	-2.6708	-2.4458	-2.8604	-2.4292	-2.6042	-2.7521	-2.3854	-2.6625	-2.5125	-2.5042	-2.8833	135.518	307.466	397.045	129.009	199.837	306.503	336.603	196.609	243.565	325.907	54.306	390.531	145.643	92.198	298.523	380.722	0.00059659	0.00022526	6.1596e-05	471.23	4.7574e-06	4.1089e-06	635	111.65	2.6193e-06	3.178e-06	182.78	67.02	34.304	9.8491	7.9847e-06	19.542	0.00093725	0.0010013	0.00027674	480.92	1.085e-05	1.0829e-05	636.45	116.12	1.0651e-05	1.1123e-05	189.49	69.1	36.888	10.829	1.0717e-05	20.796	83.123	93.464	298.225	55.524	230.299	107.847	56.159	61.529	211.615	166.642	61.063	67.485	67.556	71.968	151.106	71.039	-8191	255	
14632.765	1	1	0	0	0.19443	0.21917	0.11194	0.33872	0.22197	0.16031	0.37007	0.18871	0.38265	0.133	0.16597	0.073749	0.13027	0.32396	0.15329	0.10973	-2.1437	-2.5229	-2.7771	-2.3688	-2.6479	-2.7333	-2.5333	-2.7646	-2.4729	-2.6167	-2.9	-2.3979	-2.7042	-2.6688	-2.35	-2.9062	121.382	123.997	283.567	275.886	305.903	206.266	358.005	386.984	366.205	194.303	96.053	124.272	63.394	302.555	292.201	363.245	0.0004671	0.00062084	9.4008e-05	475.05	7.4656e-06	6.4643e-06	630.44	112.02	1.9231e-06	1.5717e-06	182.95	66.396	34.403	9.7792	7.5024e-06	19.285	0.00093985	0.00099518	0.00027479	480.67	1.0761e-05	1.0891e-05	637.2	116.22	1.0753e-05	1.0992e-05	188.94	69.02	36.957	10.786	1.0974e-05	20.74	77.779	150.096	99.448	55.884	258.179	252.159	56.187	61.253	134.314	123.975	60.929	67.178	67.941	71.655	221.053	71.934	-8191	255	
14632.861	1	1	0	0	0.41212	0.31936	0.33252	0.34398	0.17709	0.19446	0.32969	0.11894	0.039254	0.07076	0.14475	0.13294	0.065934	0.21865	0.12703	0.064792	-1.9146	-2.525	-2.7417	-2.3937	-2.6229	-2.5917	-2.3542	-2.7875	-2.4625	-2.4271	-2.8563	-2.3042	-2.6167	-2.8125	-2.4375	-2.8083	80.484	337.322	119.720	353.629	399.976	113.506	284.972	259.551	115.764	152.110	304.211	164.077	151.732	341.120	49.883	168.099	0.00040898	0.0002616	2.2982e-06	470.47	5.4597e-06	8.7107e-06	627.17	110.89	3.2153e-06	6.3957e-06	180.71	66.225	34.062	9.6399	4.3966e-06	19.299	0.00096273	0.0010135	0.0002847	480.45	1.1125e-05	1.1214e-05	633.9	115.99	1.0968e-05	1.1115e-05	187.59	68.708	36.771	10.738	1.096e-05	20.688	76.254	130.317	290.096	55.666	307.714	95.965	55.707	62.078	279.661	159.341	60.754	66.994	67.174	71.711	272.001	71.468	-8191	255	
14632.933	1	1	0	0	0.02734	0.027716	0.21636	0.19535	0.06731	0.22885	0.14083	0.1191	0.31343	0.35618	0.23798	0.23425	0.041611	0.096149	0.19499	0.21665	-2.2271	-2.5271	-2.7458	-2.4437	-2.6021	-2.7021	-2.5125	-2.6625	-2.7062	-2.7125	-2.7271	-2.3438	-2.5854	-2.6	-2.4583	-2.7479	309.732	251.681	401.103	394.683	359.288	385.550	348.511	243.590	174.110	76.680	83.184	91.606	209.131	351.167	392.000	122.067	0.0004298	0.00023467	0.0001142	472.08	4.6898e-06	6.7973e-06	628.18	110.6	3.6206e-06	3.2333e-06	180.41	66.425	34.028	9.7136	8.6095e-06	19.124	0.00096307	0.0010104	0.00028373	479.92	1.0979e-05	1.1058e-05	633.62	115.76	1.0885e-05	1.121e-05	187.95	68.926	36.951	10.784	1.1578e-05	20.699	90.080	165.578	90.537	56.138	381.479	144.344	55.550	61.144	181.866	203.826	60.995	67.351	67.024	72.635	186.665	71.603	-8191	255	
14633.054	1	1	0	0	0.15809	0.33367	0.13418	0.32943	0.06274	0.052499	0.033219	0.16564	0.21327	0.074691	0.14868	0.13275	0.31412	0.16172	0.43201	0.20232	-2.3083	-2.2542	-2.7479	-2.4479	-2.4917	-2.7646	-2.4667	-2.8208	-2.7833	-2.4229	-2.7062	-2.5208	-2.5625	-2.7875	-2.3479	-2.7083	288.633	262.117	170.136	385.436	395.666	356.448	312.887	299.911	291.372	316.091	346.576	271.740	316.138	386.036	232.720	342.912	0.000403	0.00047935	0.00019964	469.88	8.7127e-06	5.3871e-06	627.74	111.45	8.0634e-06	6.6572e-06	180.92	66.575	33.752	9.6729	6.7742e-06	19.392	0.0010263	0.0010911	0.00030734	482.56	1.197e-05	1.2021e-05	635.92	116.73	1.1637e-05	1.1872e-05	188.26	68.851	36.957	10.761	1.1835e-05	20.827	104.682	172.067	189.886	55.720	263.169	140.241	56.009	61.694	247.994	255.079	61.169	67.384	67.441	71.557	111.444	71.361	-8191	255	
14633.150	1	1	0	0	0.19495	0.10183	0.14545	0.23633	0.15232	0.036553	0.023186	0.24923	0.051663	0.19527	0.051459	0.31312	0.11742	0.15391	0.26727	0.29984	-2.1854	-2.4021	-2.8729	-2.4396	-2.3104	-2.9729	-2.4104	-2.6458	-2.7854	-2.5146	-2.8646	-2.7917	-2.4938	-2.9062	-2.4938	-2.7812	358.122	367.322	236.863	68.202	318.291	69.845	85.781	104.441	122.756	278.816	314.312	133.328	230.978	89.144	373.509	391.475	0.00034242	0.00056572	0.00012754	471.57	9.8945e-06	4.054e-06	629.46	110.76	5.0967e-06	4.858e-06	179.99	65.561	33.85	9.6563	2.197e-06	19.388	0.0010392	0.0010833	0.00030432	482.7	1.1685e-05	1.1976e-05	635.2	116.17	1.1627e-05	1.1663e-05	187.44	68.374	36.801	10.736	1.1454e-05	20.565	87.142	120.761	218.022	56.021	174.091	210.062	55.489	61.409	326.605	269.679	61.320	67.107	67.559	71.897	100.918	71.102	-8191	255	
14633.244	1	1	0	0	0.041609	0.19958	0.12766	0.22539	0.098382	0.41885	0.18301	0.08442	0.12887	0.20605	0.19815	0.093761	0.21586	0.20096	0.24292	0.27232	-2.2271	-2.35	-2.7562	-2.5208	-2.3187	-2.8417	-2.5375	-2.5062	-2.85	-2.3271	-2.7562	-2.8729	-2.5167	-2.8208	-2.4583	-2.5667	367.179	143.956	112.422	93.189	168.826	69.796	380.016	335.194	112.559	70.157	400.808	394.234	216.966	372.877	133.041	382.167	0.00028397	0.00026845	9.842e-05	473.83	2.3562e-06	3.6864e-06	622.99	111.59	3.8305e-06	3.9482e-06	179.19	65.735	33.527	9.5998	7.09e-06	19.123	0.0010046	0.0010468	0.00029249	482.21	1.1336e-05	1.1809e-05	631.65	115.8	1.1313e-05	1.1422e-05	186.46	67.968	36.486	10.653	1.1105e-05	20.458	60.639	384.377	199.741	55.937	314.838	220.739	55.777	61.248	198.021	198.540	61.128	67.025	67.859	71.904	178.999	71.146	-8191	255	
14633.365	1	1	0	0	0.18768	0.0094665	0.38514	0.11179	0.071844	0.12377	0.11054	0.20959	0.15742	0.15519	0.17199	0.10645	0.070264	0.29724	0.18721	0.08817	-2.3917	-2.2062	-2.7375	-2.8125	-2.2771	-2.9333	-2.6271	-2.3854	-2.7792	-2.325	-2.8063	-2.7292	-2.3896	-2.5812	-2.5854	-2.45	335.648	335.960	245.135	385.323	340.581	144.102	88.405	90.923	74.501	107.639	353.440	254.687	191.683	43.660	196.562	394.114	0.00029734	0.00071704	0.00018541	470.72	9.713e-07	3.7253e-06	627.54	109.76	3.6407e-06	6.2424e-06	179.57	65.517	33.979	9.5789	4.5958e-06	18.972	0.0009534	0.0010292	0.00028863	480.05	1.1071e-05	1.1221e-05	631.99	115.11	1.1059e-05	1.1123e-05	186.54	67.756	36.587	10.659	1.1449e-05	20.41	83.807	174.664	166.828	55.788	43.957	84.552	56.036	61.587	233.016	158.336	61.048	67.184	67.781	71.681	226.270	71.230	-8191	255	
14633.461	1	1	0	0	0.16067	0.18195	0.16135	0.24103	0.22588	0.092057	0.28213	0.1673	0.12429	0.17246	0.23605	0.1868	0.067267	0.068978	0.1413	0.19544	-2.2583	-2.3167	-2.6917	-2.7375	-2.325	-2.8771	-2.7292	-2.4062	-2.9167	-2.4979	-2.6979	-2.8417	-2.3521	-2.8063	-2.6958	-2.45	202.221	255.765	271.018	366.532	311.595	263.760	396.750	264.146	78.764	315.638	392.779	128.537	50.053	116.248	151.317	193.066	0.00027973	0.00021865	0.00014039	472.7	2.5281e-06	5.443e-06	631.46	111.18	2.7416e-06	4.6064e-06	182.39	65.638	33.448	9.4483	1.0102e-05	18.967	0.0010088	0.0010555	0.00029907	482.1	1.1692e-05	1.1848e-05	634.33	115.91	1.1574e-05	1.18e-05	187.96	67.888	36.577	10.592	1.144e-05	20.386	92.711	144.579	276.187	55.674	330.588	44.996	55.476	61.556	114.748	134.998	61.073	67.233	67.702	72.339	185.546	71.155	-8191	255	
14633.533	1	1	0	0	0.24754	0.17649	0.18688	0.10423	0.134	0.081461	0.21683	0.12703	0.0032025	0.13066	0.2981	0.14453	0.1543	0.26229	0.17935	0.17334	-2.3167	-2.5458	-2.5125	-2.6792	-2.4125	-2.7625	-2.5604	-2.325	-2.8	-2.5896	-2.4979	-2.85	-2.3063	-2.7375	-2.6312	-2.4542	225.583	392.123	357.525	362.270	118.374	390.822	103.594	332.583	105.720	134.414	356.004	398.471	280.860	43.883	312.505	234.644	0.00029316	0.0008816	1.6258e-05	472.32	3.9475e-06	4.4017e-06	621.17	110.62	4.2478e-06	5.7459e-06	180.38	65.013	33.308	9.5071	8.165e-06	18.854	0.00099488	0.0010449	0.00029217	483	1.1384e-05	1.1371e-05	632.87	115.8	1.1125e-05	1.1286e-05	186.48	67.451	36.156	10.534	1.1052e-05	20.19	94.925	217.340	211.905	56.084	182.479	203.796	55.603	61.117	77.908	168.827	61.308	67.149	66.785	71.539	214.869	71.514	-8191	255	
14633.629	1	1	0	0	0.20945	0.20213	0.084638	0.10803	0.033284	0.13287	0.23265	0.1187	0.19931	0.23438	0.063011	0.081716	0.29304	0.22388	0.15069	0.24041	-2.3312	-2.4875	-2.5229	-3.0021	-2.5979	-2.7833	-2.7146	-2.3083	-2.8833	-2.5083	-2.7021	-2.9771	-2.4104	-2.6417	-2.7896	-2.4396	389.682	361.897	116.063	304.954	326.119	179.709	372.244	214.440	64.469	203.008	340.192	107.223	397.464	73.537	220.707	298.246	0.00058988	0.00094327	0.00016585	471.3	2.0893e-06	4.9981e-06	622.62	109.41	4.9701e-06	3.5528e-06	177.54	65.177	32.869	9.4196	3.9428e-06	18.929	0.00094206	0.00098859	0.00027838	479.66	1.0815e-05	1.1048e-05	628.48	114.32	1.0756e-05	1.0846e-05	184.89	67.134	35.82	10.456	1.0924e-05	20.13	80.857	129.617	200.967	55.840	278.869	189.654	55.572	61.217	230.514	259.804	61.111	67.189	67.909	71.416	224.978	71.132	-8191	255	
14633.748	1	1	0	0	0.26472	0.2692	0.22836	0.15941	0.21088	0.1665	0.15881	0.19733	0.13022	0.093449	0.12887	0.34505	0.16567	0.32819	0.1701	0.12606	-2.25	-2.6083	-2.4813	-3.1667	-2.4	-2.7	-2.8958	-2.3292	-2.7833	-2.8021	-2.3438	-3.0146	-2.55	-2.6604	-2.8458	-2.5146	166.668	392.172	242.375	288.696	392.809	112.603	328.597	195.299	295.695	82.312	163.021	389.903	309.043	324.752	269.902	221.617	0.00043447	0.00047756	8.2155e-05	469.64	5.4495e-06	8.2437e-06	618.56	110.02	2.0978e-06	6.6178e-06	178.98	64.619	33.545	9.459	3.3435e-06	18.922	0.00095369	0.001024	0.00028044	479.58	1.0837e-05	1.1227e-05	628.7	114.75	1.1224e-05	1.1141e-05	185.42	66.943	36.204	10.545	1.1149e-05	20.176	107.782	95.696	223.963	55.783	204.336	108.488	55.868	61.389	393.145	205.606	61.049	66.903	67.688	71.616	286.504	70.856	-8191	255	
14633.844	1	1	0	0	0.085397	0.11458	0.25887	0.21102	0.046992	0.11762	0.42084	0.2366	0.28939	0.23015	0.22957	0.2125	0.093746	0.16799	0.10892	0.16074	-2.275	-2.5312	-2.5208	-2.8333	-2.5458	-2.7875	-2.7792	-2.3521	-2.7188	-2.7625	-2.4417	-2.7667	-2.5187	-2.4792	-2.725	-2.5271	233.903	115.241	43.859	285.932	57.874	133.168	55.401	355.197	44.359	395.907	377.386	78.931	287.210	186.042	182.545	354.130	0.00039126	0.00025625	6.3233e-06	468.34	2.7615e-06	4.0031e-06	622.64	109.2	9.6197e-06	7.6168e-07	178.47	64.933	33.611	9.4261	9.0753e-06	18.837	0.00097963	0.00102	0.00028884	478.14	1.109e-05	1.1299e-05	629	114.46	1.0995e-05	1.1059e-05	184.82	67.073	36.116	10.461	1.1118e-05	20.172	75.622	300.424	324.141	55.868	245.441	129.000	55.998	61.537	146.022	375.615	60.846	67.322	67.527	71.575	159.344	71.197	-8191	255	
14633.940	1	1	0	0	0.072284	0.17711	0.18949	0.26033	0.22663	0.072849	0.22932	0.21559	0.13251	0.19781	0.18993	0.14129	0.097	0.24587	0.28502	0.39516	-1.9937	-2.725	-2.3479	-2.8438	-2.6375	-2.4437	-2.7354	-2.5917	-2.7146	-2.6167	-2.4729	-2.875	-2.4042	-2.5333	-2.8521	-2.475	288.998	330.905	383.626	373.235	191.503	247.690	286.350	49.719	172.455	223.598	369.540	164.410	224.432	367.660	228.597	325.939	0.00046795	0.00011951	0.00010238	468.74	2.0922e-06	6.0859e-06	622.98	109.52	7.7261e-06	2.4917e-06	177.11	64.752	33.234	9.4125	8.8077e-06	18.531	0.00096451	0.0010276	0.00028556	479.69	1.1042e-05	1.1228e-05	629.08	114.6	1.113e-05	1.1369e-05	183.77	67.141	35.967	10.461	1.146e-05	20.029	84.036	149.601	155.407	56.227	91.498	234.342	55.578	61.781	207.349	118.427	60.803	67.443	67.268	71.711	248.146	70.798	-8191	255	
14634.036	1	1	0	0	0.061175	0.094637	0.1515	0.11236	0.072742	0.032651	0.13887	0.093282	0.056037	0.31421	0.08269	0.19224	0.038213	0.15293	0.21323	0.1549	-2.2771	-2.9104	-2.2875	-2.7354	-2.5729	-2.5	-2.9333	-2.325	-2.4729	-2.8375	-2.4271	-2.7854	-2.7313	-2.3979	-2.9417	-2.5229	143.807	401.922	176.738	334.687	320.246	86.876	322.691	261.527	393.042	123.624	239.617	75.730	87.721	311.621	237.477	53.984	0.00050351	0.00040423	6.7595e-05	468.54	4.7144e-06	8.0123e-06	620.18	108.76	5.4065e-06	6.128e-06	177.31	64.539	33.245	9.4014	2.9667e-06	18.858	0.001002	0.0010411	0.0002911	478.38	1.1266e-05	1.154e-05	626.18	114.06	1.1472e-05	1.1332e-05	184.18	66.872	36.066	10.464	1.1517e-05	20.197	77.814	50.790	176.206	56.113	170.095	340.345	55.619	61.592	365.195	122.450	61.497	67.104	67.285	71.737	46.623	71.166	-8191	255	
14634.132	1	1	0	0	0.11193	0.036086	0.29302	0.27233	0.09659	0.066282	0.096882	0.15976	0.079577	0.093989	0.025177	0.096353	0.44984	0.17103	0.023345	0.044068	-2.1063	-2.5958	-2.2667	-2.7229	-2.4396	-2.3083	-2.7729	-2.7	-2.5167	-2.7521	-2.5271	-2.725	-2.6771	-2.35	-2.9	-2.4833	289.270	74.267	256.899	168.354	322.479	222.559	275.811	355.338	305.109	266.045	347.045	82.328	382.424	335.740	172.972	295.218	0.00048498	0.00046722	0.00010363	466.12	1.8545e-06	5.1197e-06	619.6	109.85	7.2885e-06	6.7195e-07	177.6	64.934	33.102	9.3809	1.0787e-05	18.846	0.0010031	0.0010649	0.00029538	477.56	1.1672e-05	1.1687e-05	626.23	114.62	1.1625e-05	1.1706e-05	184.71	67.229	36.124	10.53	1.1618e-05	20.233	99.844	132.145	110.174	55.833	176.521	195.478	55.468	61.164	272.391	210.683	60.757	67.263	68.075	72.007	180.731	71.301	-8191	255	
14634.228	1	1	0	0	0.062262	0.11869	0.09862	0.12924	0.36394	0.26079	0.27034	0.31592	0.12009	0.23508	0.25899	0.21932	0.16609	0.10122	0.091218	0.077954	-2.1479	-2.7021	-2.3271	-2.7062	-2.5667	-2.2687	-2.9333	-2.7125	-2.5125	-2.9083	-2.4062	-2.5042	-2.6146	-2.2354	-2.8	-2.4625	258.340	202.239	253.931	67.269	170.991	366.969	287.417	379.164	377.792	282.146	84.150	45.069	158.521	354.041	175.843	53.572	0.00029172	0.0004413	0.00016367	465.53	2.2497e-06	6.1168e-06	622.43	109.04	3.4574e-06	6.9401e-06	178.32	65.018	33.073	9.6173	3.8568e-06	18.84	0.0010097	0.0010569	0.00029271	476.82	1.1567e-05	1.1465e-05	626.86	114.39	1.1462e-05	1.1386e-05	184.79	67.446	36.115	10.555	1.1381e-05	20.308	47.680	327.559	93.453	56.089	59.231	151.237	56.220	61.484	89.150	250.454	61.334	66.808	67.105	71.821	263.134	71.091	-8191	255	
14634.324	1	1	0	0	0.042727	0.032961	0.18308	0.38875	0.13032	0.36647	0.15697	0.023945	0.023487	0.16372	0.31424	0.10332	0.25474	0.13878	0.057323	0.21243	-1.95	-2.9042	-2.2646	-2.7708	-2.8438	-2.2625	-2.9583	-2.7	-2.4646	-2.8833	-2.5687	-2.6979	-2.7354	-2.2521	-2.5292	-2.7542	118.171	119.000	374.441	378.183	89.535	148.543	238.686	146.549	76.499	323.584	243.178	258.446	369.836	200.715	305.127	110.715	0.00062995	0.00057589	0.00027078	466.63	6.2326e-06	4.0928e-06	619.86	109.37	2.9847e-06	6.3955e-06	176.45	64.772	33.469	9.4158	3.6125e-06	18.744	0.00097552	0.0010563	0.00028686	476.92	1.1342e-05	1.1505e-05	627.9	114.42	1.1331e-05	1.1419e-05	184.25	67.301	36.203	10.513	1.1598e-05	20.181	104.387	387.333	140.496	55.770	175.011	69.026	55.652	61.637	122.678	279.030	61.104	67.408	67.451	71.989	79.279	71.298	-8191	255	
14634.445	1	1	0	0	0.35894	0.043221	0.24544	0.32885	0.061438	0.20506	0.22715	0.078699	0.040874	0.11764	0.025786	0.15687	0.24397	0.070386	0.19849	0.24823	-1.7271	-2.8438	-2.3104	-2.6875	-2.8187	-2.3167	-2.6688	-2.6312	-2.4146	-2.7979	-2.5542	-2.5042	-2.9062	-2.5312	-2.6312	-2.7687	308.873	141.470	166.751	47.670	46.512	342.819	337.699	365.748	104.828	294.374	309.233	275.798	253.032	347.478	310.581	354.154	0.00034565	0.00041742	7.2509e-05	468.84	6.6909e-06	1.5166e-06	615.14	108.99	4.1061e-06	7.9271e-06	177.24	64.762	32.958	9.3795	4.823e-06	18.664	0.0009932	0.0010706	0.00029569	477.76	1.1698e-05	1.1718e-05	623.93	114.39	1.1911e-05	1.2009e-05	184.35	67.197	36.062	10.511	1.1953e-05	20.235	72.105	96.284	119.370	56.122	117.477	257.501	55.824	61.519	208.328	231.335	61.257	67.242	67.276	71.160	266.893	71.553	-8191	255	
14634.541	1	1	0	0	0.19599	0.089689	0.23024	0.1296	0.19106	0.1509	0.22877	0.13501	0.17832	0.18391	0.22707	0.20857	0.33259	0.18903	0.17104	0.055886	-1.85	-2.7708	-2.5792	-2.4667	-2.8104	-2.4833	-2.6229	-2.6542	-2.35	-2.6833	-2.6229	-2.5563	-2.8667	-2.4	-2.6875	-2.8229	352.844	274.299	135.156	338.415	180.028	257.896	335.228	50.327	99.850	308.603	399.797	228.599	293.023	214.596	386.106	290.341	0.00030722	0.00078824	9.0816e-05	467.01	8.7966e-06	6.3935e-06	620.15	108.44	3.806e-06	6.2426e-06	176.75	64.266	33.594	9.4647	8.6753e-06	18.726	0.0010226	0.0010932	0.00030275	478.41	1.1878e-05	1.2101e-05	627.27	114.2	1.1936e-05	1.2088e-05	184.26	67.147	36.239	10.548	1.2151e-05	20.213	89.286	128.801	399.574	56.148	221.110	229.036	55.694	61.756	357.117	162.211	61.018	67.006	67.661	72.182	145.919	70.834	-8191	255	
14634.637	1	1	0	0	0.066761	0.12389	0.16821	0.14711	0.17642	0.086363	0.17794	0.21576	0.097529	0.14852	0.1428	0.19915	0.15838	0.23	0.14838	0.26993	-1.6521	-2.6667	-2.4813	-2.5729	-2.8042	-2.3854	-2.6521	-2.7458	-2.4188	-2.6604	-2.6937	-2.4604	-2.9167	-2.6333	-2.5687	-2.8792	49.259	222.107	263.799	164.358	119.033	198.098	365.783	206.724	199.358	56.958	321.534	101.870	235.597	384.071	322.513	303.337	0.000634	0.00020541	8.0551e-05	467.57	1.4795e-06	2.3045e-06	616.78	108.06	3.4448e-06	7.5513e-06	176.02	64.77	33.432	9.4361	6.3795e-06	18.676	0.0010488	0.0011105	0.00031	478.79	1.2117e-05	1.2317e-05	626.21	114.44	1.2142e-05	1.2387e-05	184.45	67.25	36.45	10.573	1.2497e-05	20.239	69.520	208.453	89.328	55.619	45.663	102.827	55.674	61.653	210.870	223.256	60.748	67.071	67.802	71.940	246.928	71.030	-8191	255	
14634.734	1	1	0	0	0.16883	0.1955	0.17224	0.10235	0.24971	0.085792	0.097278	0.23454	0.25373	0.34847	0.077545	0.037267	0.045018	0.087332	0.092719	0.055513	-2.0896	-2.7333	-2.6604	-2.3354	-2.8354	-2.5125	-2.6417	-2.8417	-2.4146	-2.6312	-2.7438	-2.1979	-2.8937	-2.6625	-2.6729	-2.8563	339.663	319.867	201.928	221.999	70.391	366.183	186.563	70.785	131.330	173.710	309.700	341.388	66.391	262.605	182.424	277.690	0.00040393	0.00045897	7.7412e-05	468.04	2.3956e-06	7.4308e-06	620.25	108.45	4.9333e-06	8.7519e-06	176.62	64.373	32.605	9.3517	8.4096e-06	18.572	0.0010646	0.0011377	0.00031493	479.97	1.2331e-05	1.2478e-05	626.48	114.25	1.2005e-05	1.2268e-05	183.84	67.051	35.979	10.486	1.1592e-05	20.085	86.670	349.427	197.412	55.570	57.996	249.879	55.863	61.218	179.585	120.630	61.000	67.318	67.391	71.980	239.822	71.154	-8191	255	
14634.830	1	1	0	0	0.15831	0.15813	0.21366	0.20915	0.097923	0.11427	0.10627	0.26892	0.022741	0.03436	0.14689	0.11051	0.24163	0.15816	0.18024	0.1232	-1.9292	-2.6792	-2.5563	-2.3458	-2.7333	-2.5229	-2.5062	-2.7979	-2.3583	-2.4771	-2.8583	-2.2646	-2.5042	-2.5104	-2.4271	-2.9167	115.566	401.457	193.987	386.535	394.212	142.863	201.315	385.821	149.113	356.338	95.491	117.944	59.903	399.831	155.048	172.087	3.8106e-05	0.00051947	0.00014603	461.49	2.9375e-06	3.248e-06	616.8	108.54	5.2437e-06	3.9929e-06	175.15	64.963	33.231	9.5072	9.637e-07	18.688	0.00098847	0.0010492	0.00028659	473.59	1.1015e-05	1.1067e-05	623.33	113.56	1.0925e-05	1.1151e-05	182.73	67.25	36.251	10.506	1.1297e-05	20.154	54.490	117.864	223.901	55.788	396.290	134.429	55.547	61.479	264.112	230.792	61.442	66.737	67.883	71.689	364.010	71.196	-8191	255	
14634.924	1	1	0	0	0.15881	0.15091	0.038361	0.23083	0.20009	0.24558	0.34158	0.25391	0.11775	0.24747	0.28976	0.16917	0.18768	0.21023	0.27961	0.17555	-1.7979	-2.3771	-2.5375	-2.4146	-2.6833	-2.8417	-2.2521	-2.75	-2.2292	-2.3563	-2.7062	-2.3104	-2.7146	-2.7354	-2.5458	-2.7729	78.519	358.997	290.823	322.378	278.998	373.930	335.017	325.636	270.731	167.001	387.101	277.030	346.575	244.464	89.659	393.619	0.00042735	0.00035326	0.0001473	464.76	2.4415e-06	2.6645e-06	612.69	108.22	2.3066e-06	7.0715e-06	175.95	65.016	33.193	9.5544	1.0789e-05	18.752	0.00097272	0.0010417	0.00029049	474.2	1.1299e-05	1.1417e-05	622.5	113.72	1.139e-05	1.1599e-05	184.12	67.415	36.273	10.62	1.1735e-05	20.243	59.334	207.329	301.630	55.825	264.393	220.596	55.926	61.407	340.006	80.346	60.915	67.026	68.115	71.582	156.935	70.676	-8191	255	
14635.045	1	1	0	0	0.17589	0.16744	0.16591	0.29063	0.073472	0.23156	0.028361	0.12101	0.29576	0.22241	0.11166	0.16718	0.085184	0.16494	0.20507	0.079433	-1.9312	-2.475	-2.6854	-2.3396	-2.8271	-2.7229	-2.3	-2.7375	-2.4562	-2.4646	-2.9062	-2.4458	-2.6688	-2.7104	-2.3646	-2.9021	66.477	215.029	293.535	400.165	342.120	311.413	74.019	324.749	217.953	111.711	76.374	83.064	45.249	274.579	165.016	334.436	0.00030972	0.00019284	0.00011408	464.75	5.5415e-06	1.8918e-06	621.69	108.12	6.0988e-06	3.3371e-06	176.76	64.668	33.224	9.4731	2.7435e-06	18.881	0.0010183	0.0010758	0.00029874	474.89	1.1744e-05	1.1843e-05	626.44	114	1.1623e-05	1.1937e-05	184.19	67.35	36.401	10.558	1.2118e-05	20.341	67.068	243.275	183.850	55.904	272.631	203.465	55.955	61.565	173.687	317.221	61.180	66.771	67.531	71.997	131.566	71.820	-8191	255	
14635.141	1	1	0	0	0.13483	0.14931	0.39724	0.080493	0.078758	0.17794	0.2248	0.076139	0.082709	0.30091	0.041821	0.22417	0.071152	0.14641	0.16096	0.19263	-2.1771	-2.3396	-2.8354	-2.6771	-2.6375	-2.6125	-2.5146	-2.7958	-2.7083	-2.3583	-2.7104	-2.4375	-2.4771	-2.9146	-2.3458	-2.7354	162.018	371.390	69.493	363.468	259.972	187.700	249.243	67.495	349.145	192.606	193.602	68.165	202.052	45.068	82.909	199.305	0.00035995	0.00056044	6.4778e-05	467.22	5.839e-06	7.3294e-06	613.92	108.61	3.1933e-06	4.7251e-06	175.56	63.75	32.914	9.413	5.858e-06	18.485	0.001067	0.0011357	0.00031495	477.24	1.2265e-05	1.2409e-05	623.05	114.47	1.2185e-05	1.2391e-05	183.17	66.694	36.165	10.565	1.2374e-05	20.114	74.802	177.526	296.678	55.795	351.989	137.855	55.708	61.871	57.282	207.798	60.927	66.909	67.276	71.691	109.614	70.674	-8191	255	
14635.237	1	1	0	0	0.25354	0.097485	0.29066	0.16119	0.26612	0.12999	0.072338	0.064383	0.1264	0.05317	0.19513	0.18072	0.14224	0.15378	0.064823	0.21431	-2.1896	-2.2687	-2.6354	-2.4938	-2.4167	-2.8104	-2.4646	-2.5708	-2.7229	-2.2854	-2.8833	-2.7313	-2.3646	-2.8271	-2.3812	-2.5438	366.115	287.872	112.032	217.700	320.357	156.145	60.305	306.791	121.976	177.542	347.652	210.273	308.580	119.677	298.900	53.579	0.00039924	0.00053491	0.00012349	463.18	7.263e-06	4.5012e-06	613.29	108.93	8.5461e-06	1.8046e-06	174.89	64.292	32.737	9.2335	6.6408e-06	18.668	0.0010664	0.0011204	0.00031731	475.26	1.2378e-05	1.2472e-05	622.85	114.01	1.2266e-05	1.2432e-05	183.03	67.017	36.132	10.509	1.2445e-05	20.184	66.683	67.551	150.676	55.917	344.798	172.819	55.990	61.496	178.508	166.050	61.011	66.684	67.638	71.888	363.456	71.479	-8191	255	
14635.333	1	1	0	0	0.22286	0.028287	0.037174	0.18832	0.13165	0.15613	0.15013	0.12361	0.22539	0.14622	0.061842	0.23869	0.13956	0.20641	0.2918	0.15887	-2.225	-2.4333	-2.8042	-2.4271	-2.2812	-3.0333	-2.4792	-2.3396	-2.6917	-2.2188	-2.7896	-2.6396	-2.4208	-2.9479	-2.4625	-2.7313	138.497	208.434	148.347	323.174	284.621	118.999	326.705	348.527	284.622	387.721	131.072	104.563	334.583	305.390	61.003	338.004	4.9375e-05	0.00060156	0.00011226	464.91	5.7761e-06	2.664e-06	613.44	108.47	2.9188e-06	8.3664e-06	174.5	63.814	32.931	9.3441	7.1643e-06	18.638	0.0010879	0.0011469	0.00032405	476.97	1.2454e-05	1.2796e-05	622.48	114	1.2522e-05	1.2767e-05	183.35	66.899	36.401	10.571	1.2687e-05	20.166	126.715	71.824	153.002	55.914	185.875	80.859	56.001	61.772	178.888	184.210	61.024	67.053	67.264	71.963	206.679	71.378	-8191	255	
14635.429	1	1	0	0	0.39901	0.14983	0.13659	0.060736	0.10321	0.18554	0.16914	0.051631	0.064065	0.20481	0.14075	0.27175	0.41228	0.11637	0.24388	0.30739	-2.3229	-2.2687	-2.6	-2.7396	-2.3646	-2.8688	-2.7271	-2.6417	-2.8708	-2.4354	-2.8729	-2.6833	-2.2917	-2.7042	-2.4292	-2.5354	388.213	256.786	330.492	226.697	211.682	363.624	374.000	390.020	278.964	206.063	272.997	256.919	383.163	172.703	141.618	177.700	0.00042391	0.00035122	0.00015746	463.51	5.0538e-06	2.2117e-06	613.43	108.25	4.9594e-06	5.8514e-06	174.69	64.138	32.872	9.4126	6.184e-06	18.585	0.0010833	0.0011413	0.00032129	476.61	1.2496e-05	1.2558e-05	624.39	114.04	1.2426e-05	1.2418e-05	183.2	66.996	36.167	10.548	1.2515e-05	20.16	58.843	171.947	162.941	55.820	123.053	210.173	55.795	62.112	45.347	157.319	61.056	67.268	67.467	71.526	213.861	70.421	-8191	255	
14635.525	1	1	0	0	0.13044	0.14964	0.16401	0.14153	0.019634	0.15727	0.12032	0.21612	0.12887	0.010835	0.15068	0.18338	0.1312	0.074853	0.12083	0.28574	-2.4042	-2.4417	-2.6188	-2.9062	-2.3396	-2.7313	-2.5667	-2.4062	-2.9708	-2.5979	-2.7146	-2.6646	-2.2583	-2.6396	-2.3708	-2.3625	85.151	351.478	385.728	349.230	395.684	115.366	306.681	307.289	110.035	46.299	377.685	60.145	273.186	358.128	96.470	394.870	0.00040185	0.00053521	3.7782e-05	465.12	3.7516e-06	8.919e-06	614.03	108.33	8.1177e-07	3.7062e-06	173.45	63.968	33.041	9.2612	4.0641e-06	18.653	0.0010873	0.0011407	0.00031992	477.42	1.2208e-05	1.2496e-05	623.07	114.13	1.2469e-05	1.2383e-05	182.55	66.677	36.227	10.462	1.2396e-05	20.102	89.864	156.640	386.263	55.939	186.251	165.455	55.718	62.046	237.117	243.477	60.811	67.077	67.257	71.951	136.807	71.197	-8191	255	
14635.622	1	1	0	0	0.17675	0.065594	0.016746	0.26568	0.14381	0.094773	0.025808	0.12972	0.083786	0.26528	0.17694	0.35167	0.18394	0.076173	0.3853	0.12745	-2.4646	-2.5312	-2.8271	-2.5896	-2.425	-2.7271	-2.7521	-2.3021	-2.8583	-2.5104	-2.6229	-2.7583	-2.2188	-2.7083	-2.5417	-2.2833	307.140	261.491	154.302	379.218	385.602	307.666	129.293	366.638	127.824	166.789	333.181	67.241	308.436	137.992	148.071	266.294	0.00042866	0.00051296	5.8855e-05	464.36	2.7208e-06	5.4926e-06	608.93	107.38	2.7144e-06	1.0572e-05	174.03	63.735	32.679	9.3324	8.5885e-07	18.44	0.0010722	0.001128	0.00031388	475.06	1.1971e-05	1.2247e-05	619.93	113.61	1.222e-05	1.2178e-05	182.56	66.718	36.006	10.502	1.2181e-05	20.032	93.740	140.698	125.794	55.857	245.554	160.142	55.881	61.795	64.497	189.481	61.472	67.067	67.785	72.156	308.591	71.084	-8191	255	
14635.740	1	1	0	0	0.048909	0.19114	0.12297	0.19197	0.20483	0.21931	0.14861	0.071986	0.15294	0.16113	0.1508	0.38917	0.053203	0.18527	0.10407	0.20125	-2.5604	-2.4271	-2.5854	-2.8604	-2.3125	-2.7708	-2.7354	-2.3167	-2.8146	-2.4625	-2.4646	-2.8521	-2.3042	-2.7854	-2.7271	-2.4417	85.989	401.604	201.392	304.228	69.863	393.026	399.865	389.723	176.955	130.758	372.387	286.816	349.814	44.272	73.318	112.740	0.00044937	0.00056303	0.00022693	462.6	1.6636e-06	4.8382e-06	611.87	108.88	6.6645e-06	1.1242e-05	173.93	64.12	33.038	9.4301	3.9494e-06	18.581	0.0010412	0.0010993	0.00031067	474.03	1.1932e-05	1.2306e-05	621.19	113.75	1.2116e-05	1.2261e-05	182.07	66.701	36.179	10.533	1.2396e-05	20.029	68.492	140.119	142.114	55.556	147.342	216.685	55.505	61.571	114.662	159.606	61.317	67.255	67.182	72.072	54.006	71.007	-8191	255	
14635.837	1	1	0	0	0.030993	0.13259	0.11368	0.097131	0.063075	0.1395	0.07449	0.060577	0.15572	0.10875	0.13971	0.30183	0.16857	0.092561	0.070825	0.22776	-2.3812	-2.3542	-2.4354	-2.9271	-2.3021	-2.525	-2.9667	-2.1688	-2.6875	-2.5646	-2.4583	-2.9125	-2.4708	-2.5792	-2.7354	-2.3583	343.911	387.559	188.113	84.581	303.985	160.293	193.892	68.450	306.412	128.265	310.415	333.794	245.683	110.406	144.498	317.396	0.0005231	0.0003714	0.00017162	465.87	3.2232e-06	4.8839e-06	611.35	108.21	3.2116e-06	4.0207e-06	174.22	64.098	33.015	9.3656	3.6503e-06	18.441	0.0010718	0.0011286	0.00032252	476.66	1.2265e-05	1.2535e-05	622.45	113.63	1.2207e-05	1.236e-05	182.89	66.987	36.199	10.56	1.2689e-05	20.094	75.400	186.043	348.843	55.878	225.115	259.481	55.939	62.169	132.449	244.873	60.872	67.796	67.432	71.294	128.719	71.582	-8191	255	
14635.933	1	1	0	0	0.20341	0.25021	0.18637	0.20115	0.30775	0.11003	0.29329	0.052945	0.05747	0.18529	0.15141	0.10757	0.11359	0.24683	0.21451	0.044946	-2.3833	-2.5146	-2.3688	-2.9208	-2.5042	-2.575	-2.8604	-2.2896	-2.7438	-2.5667	-2.3104	-2.9979	-2.4062	-2.4396	-2.475	-2.2042	284.696	127.543	361.092	44.509	297.614	141.907	341.722	124.826	348.498	315.182	81.816	143.543	402.580	103.978	375.705	212.803	0.00035525	0.00065314	0.00021439	466.5	7.1772e-06	7.7641e-06	614.35	108.59	1.3762e-05	2.4564e-06	173.16	63.273	32.848	9.1913	6.2149e-06	18.497	0.0011043	0.0011893	0.00032301	479.28	1.2443e-05	1.3061e-05	622.71	113.82	1.2528e-05	1.2649e-05	181.87	66.248	36.065	10.499	1.2854e-05	19.994	102.994	200.666	158.429	55.828	166.602	208.286	55.749	61.872	166.766	127.253	61.241	67.337	67.580	71.824	232.306	71.046	-8191	255	
14636.029	1	1	0	0	0.083917	0.29105	0.29003	0.22781	0.048856	0.15279	0.0833	0.20596	0.29489	0.12196	0.19169	0.070513	0.14702	0.17002	0.055731	0.051058	-2.0563	-2.6042	-2.2625	-2.8146	-2.4	-2.5938	-2.8458	-2.4396	-2.5521	-2.6542	-2.1875	-2.8042	-2.3812	-2.3583	-2.8458	-2.3292	332.024	94.587	185.744	376.214	328.615	365.794	337.052	360.073	195.862	267.316	280.235	307.524	345.618	369.991	126.947	234.206	0.0002953	0.00075238	0.00016216	463.1	5.0908e-06	3.0517e-06	609.91	107.81	3.2254e-06	9.4023e-06	174.98	63.593	32.931	9.2939	5.0142e-06	18.478	0.0011141	0.0011763	0.00032408	476.7	1.2533e-05	1.2833e-05	620.25	113.97	1.265e-05	1.2849e-05	182.87	66.585	36.303	10.564	1.3087e-05	20.036	87.166	136.526	401.753	55.767	179.515	116.620	55.883	61.814	142.785	160.397	60.800	67.115	67.634	72.060	269.351	71.006	-8191	255	
14636.125	1	1	0	0	0.13751	0.025798	0.20666	0.26398	0.040943	0.080627	0.24403	0.023965	0.29211	0.20339	0.052059	0.28159	0.14773	0.15409	0.30196	0.16799	-2.2062	-2.4729	-2.3458	-2.6708	-2.6125	-2.4625	-2.8021	-2.275	-2.3667	-2.7708	-2.45	-2.8125	-2.625	-2.4062	-2.8229	-2.5479	359.732	138.640	352.444	386.651	292.572	374.599	379.501	375.768	146.548	288.907	55.096	334.288	377.104	76.922	160.981	293.043	0.0002846	0.00076018	0.00021093	464.63	5.263e-06	3.4773e-06	608.54	106.51	1.7867e-06	3.0776e-06	173.9	64.209	32.726	9.2496	7.4238e-06	18.252	0.001154	0.0011983	0.00033607	477.93	1.316e-05	1.3329e-05	621.43	113.83	1.332e-05	1.3588e-05	183.03	66.86	36.318	10.581	1.3526e-05	20.06	55.445	144.181	117.656	55.908	245.564	289.708	55.912	61.286	230.752	394.097	60.704	67.363	67.097	72.154	352.365	71.254	-8191	255	
14636.221	1	1	0	0	0.15357	0.059354	0.10622	0.098604	0.30743	0.19758	0.073887	0.1074	0.16219	0.017538	0.23724	0.20585	0.17144	0.35332	0.097058	0.14467	-2.0167	-2.7271	-2.2458	-2.7729	-2.6083	-2.3312	-2.7792	-2.5271	-2.7354	-2.8979	-2.3146	-2.6917	-2.5146	-2.3812	-2.6688	-2.4437	231.400	121.847	92.859	133.512	346.641	355.433	295.751	397.718	89.017	372.158	315.102	62.209	385.164	49.946	62.973	399.033	0.00048333	0.00032543	9.5457e-05	464.95	2.6703e-06	6.7944e-06	614.59	107.52	2.1974e-06	1.118e-05	172.37	63.661	32.638	9.1058	1.3628e-06	18.313	0.0011719	0.0012431	0.00034604	479.28	1.3396e-05	1.3636e-05	625.61	114.35	1.3587e-05	1.3782e-05	182.85	66.748	36.494	10.522	1.384e-05	20.096	60.222	262.678	225.941	55.310	250.934	86.076	55.781	61.819	107.505	183.857	60.918	66.745	67.413	72.007	263.001	71.111	-8191	255	
14636.317	1	1	0	0	0.076708	0.046116	0.15679	0.21772	0.29646	0.1256	0.15848	0.17149	0.22861	0.023424	0.18403	0.042902	0.36321	0.099646	0.3256	0.041594	-2.0854	-2.6896	-2.3875	-2.6312	-2.7062	-2.2229	-2.9417	-2.6021	-2.425	-2.6708	-2.3583	-2.6125	-2.6583	-2.4333	-2.7667	-2.5146	231.335	89.709	225.894	173.190	323.343	369.858	100.450	134.330	204.596	247.730	110.856	158.488	100.489	196.441	164.322	289.847	0.00036192	0.00042871	0.00011446	464.94	7.2342e-06	3.689e-06	614.12	107.88	2.3864e-06	4.1667e-06	172.58	63.21	32.448	9.1826	9.5888e-06	18.292	0.0011999	0.0012814	0.00035387	480.68	1.3721e-05	1.3854e-05	624.75	114.12	1.3257e-05	1.3295e-05	181.74	66.162	36.098	10.439	1.292e-05	19.783	81.311	331.861	139.726	55.835	190.240	126.369	55.777	61.210	246.156	146.615	60.679	66.548	67.643	71.633	180.118	70.819	-8191	255	
14636.414	1	1	0	0	0.11429	0.10097	0.057323	0.21387	0.32493	0.19282	0.24337	0.16187	0.029263	0.071659	0.27256	0.25308	0.16768	0.33751	0.16796	0.027862	-1.8292	-2.6771	-2.3625	-2.4875	-2.5792	-2.1688	-2.6188	-2.5417	-2.2375	-2.8167	-2.4417	-2.6437	-2.5187	-1.9937	-2.7062	-2.5917	165.766	46.405	301.171	309.751	110.172	171.759	230.345	61.201	234.833	266.881	374.200	135.179	306.108	90.707	99.885	200.956	0.00035184	0.00034077	3.5961e-05	466.1	7.0896e-06	6.557e-06	606.74	107.4	4.3892e-06	1.0446e-06	172.34	62.996	32.571	9.2175	8.071e-06	18.088	0.0011276	0.0011954	0.00033373	478.59	1.312e-05	1.3283e-05	619.84	113.85	1.3407e-05	1.3384e-05	181.86	66.202	36.312	10.458	1.3645e-05	19.823	57.365	230.370	331.433	55.761	335.063	189.643	55.835	61.786	174.789	288.076	61.116	66.947	67.426	71.510	298.744	71.165	-8191	255	
14636.534	1	1	0	0	0.14802	0.14658	0.081486	0.34469	0.20278	0.06334	0.2925	0.15156	0.079931	0.17795	0.090586	0.16906	0.022125	0.15178	0.14263	0.17145	-1.9062	-2.6562	-2.2687	-2.5292	-2.8271	-2.3771	-2.9354	-2.5	-2.3958	-2.7313	-2.5396	-2.3625	-2.7521	-2.3167	-2.7729	-2.5792	163.678	328.786	390.395	78.272	315.997	373.235	352.822	232.548	172.081	167.160	79.889	327.146	327.392	133.587	361.597	355.368	0.0004194	0.00032195	0.00014958	461.53	9.0535e-06	2.9805e-08	610.46	106.68	5.1669e-06	3.9034e-06	169.93	63.353	32.513	9.0563	1.3799e-05	18.077	0.0011698	0.0012389	0.00034491	477.98	1.3574e-05	1.3811e-05	622.2	113.77	1.3728e-05	1.3776e-05	181.14	66.188	36.14	10.4	1.3558e-05	19.713	99.879	225.639	346.196	55.826	98.712	212.560	56.018	62.108	156.033	317.345	60.896	66.849	67.717	71.726	95.635	71.906	-8191	255	
14636.630	1	1	0	0	0.14826	0.28032	0.18878	0.22329	0.20793	0.39067	0.23951	0.016189	0.026267	0.15828	0.32674	0.13687	0.13919	0.0059261	0.017553	0.13046	-1.7854	-2.6667	-2.3667	-2.2833	-2.7125	-2.175	-2.8937	-2.6854	-2.4042	-2.7146	-2.5479	-2.3354	-2.8375	-2.4542	-2.7687	-2.7729	375.780	49.597	390.721	365.145	354.820	137.317	350.294	341.522	99.737	206.538	85.103	365.569	233.643	278.134	334.851	275.731	0.00041419	9.3694e-05	0.00010095	464.28	2.5946e-06	4.373e-06	609.76	107.15	1.0179e-05	7.4586e-06	172.19	62.888	32.361	9.0356	5.2781e-06	17.833	0.0011489	0.0011949	0.000337	477.87	1.3187e-05	1.322e-05	621.65	114.03	1.328e-05	1.3353e-05	181.2	65.949	35.994	10.348	1.3219e-05	19.589	96.305	143.232	312.588	55.864	222.015	298.999	55.821	61.493	220.241	187.306	60.905	66.922	66.996	71.314	181.501	71.410	-8191	255	
14636.726	1	1	0	0	0.051344	0.1537	0.094214	0.046629	0.062808	0.17274	0.17843	0.025416	0.102	0.069707	0.18807	0.13991	0.042858	0.12601	0.074762	0.13288	-1.8708	-2.6604	-2.4938	-2.3604	-2.8875	-2.4188	-2.7562	-2.7687	-2.3312	-2.6125	-2.6958	-2.2229	-2.6375	-2.4042	-2.4479	-2.7792	203.362	199.243	273.996	186.170	85.532	72.578	66.709	253.585	159.322	95.381	321.223	345.144	371.924	262.395	101.954	128.565	0.00039647	0.00094445	0.00010652	464.41	4.7846e-06	7.2686e-06	608.6	107.66	6.1115e-06	4.7643e-06	170.96	62.459	32.077	9.0241	7.933e-07	17.923	0.0011146	0.0011988	0.00033684	477.4	1.2883e-05	1.2759e-05	619.65	113.53	1.2618e-05	1.2732e-05	180.31	65.216	35.609	10.284	1.3039e-05	19.5	77.027	157.891	359.585	56.097	114.972	167.042	56.030	61.923	244.618	57.755	61.289	66.884	67.705	71.317	191.827	71.244	-8191	255	
14636.823	1	1	0	0	0.1348	0.14422	0.19991	0.12966	0.17364	0.10177	0.13708	0.11903	0.095835	0.044226	0.11091	0.29545	0.17447	0.17244	0.20674	0.10853	-1.8396	-2.8771	-2.55	-2.4604	-2.8208	-2.4542	-2.7125	-2.9146	-2.4083	-2.7417	-2.8104	-2.2729	-2.7042	-2.5167	-2.4688	-2.7104	120.939	172.621	48.287	341.354	149.428	359.901	380.257	361.199	64.345	135.459	144.457	101.016	84.154	336.687	380.259	120.148	0.00025104	0.00085509	4.8816e-05	461.35	4.2713e-06	7.5068e-06	606.1	107.02	2.5051e-06	2.7596e-06	170.49	62.714	32.271	8.9232	8.5135e-06	17.86	0.0011199	0.0011992	0.00033612	475.98	1.3102e-05	1.3244e-05	617.83	112.89	1.2857e-05	1.3342e-05	179.38	65.334	35.638	10.255	1.2865e-05	19.489	92.388	154.656	231.486	55.959	238.856	206.260	55.881	61.500	358.933	197.799	61.004	66.927	67.951	72.155	188.960	71.626	-8191	255	
14636.917	1	1	0	0	0.18657	0.17738	0.13223	0.13363	0.18559	0.13117	0.10143	0.25737	0.27006	0.24214	0.17392	0.082106	0.2499	0.14819	0.15338	0.19794	-2.0396	-2.5312	-2.6125	-2.3292	-2.7021	-2.5438	-2.5542	-2.8458	-2.4417	-2.6458	-2.825	-2.2208	-2.6896	-2.4229	-2.4958	-2.775	377.212	168.221	313.718	76.932	215.091	403.721	169.741	228.816	99.698	90.778	388.348	198.106	387.657	197.336	290.040	336.989	0.00038185	0.0007382	6.7426e-05	463.28	5.4916e-07	4.7201e-06	607.37	106.91	4.6983e-06	6.0787e-06	170.45	62.555	32.574	9.0147	1.4075e-06	18.009	0.0011108	0.0012102	0.00033132	475.72	1.3197e-05	1.3155e-05	617.89	113.02	1.2925e-05	1.3173e-05	179.32	65.41	35.763	10.29	1.292e-05	19.592	96.614	99.462	54.283	55.927	282.925	307.764	55.705	61.778	148.235	187.137	60.833	67.049	67.215	72.184	380.938	71.006	-8191	255	
14637.013	1	1	0	0	0.24523	0.039876	0.16591	0.095093	0.24212	0.21329	0.30869	0.079694	0.10342	0.076858	0.35593	0.13764	0.29813	0.18964	0.24016	0.33096	-1.8833	-2.5938	-2.6771	-2.3604	-2.6479	-2.45	-2.4021	-2.8875	-2.4375	-2.5771	-2.7604	-2.4437	-2.7479	-2.6646	-2.3375	-2.8333	402.586	94.973	324.759	269.624	251.652	280.820	400.548	347.299	81.716	219.683	293.857	105.462	103.247	403.420	351.265	383.385	0.00038455	0.00039021	0.00022161	463.03	6.0227e-06	6.0571e-06	605.62	106.69	1.8048e-06	4.5663e-06	171.49	62.752	32.463	9.0674	2.1903e-06	18.094	0.0010954	0.0011898	0.0003335	476.64	1.3076e-05	1.3243e-05	618.2	113.15	1.3195e-05	1.3481e-05	180.49	65.727	36.028	10.348	1.3287e-05	19.684	77.820	52.393	206.244	56.156	279.051	170.205	56.013	61.745	182.198	320.713	60.973	67.152	67.511	71.180	279.388	70.864	-8191	255	
14637.134	1	1	0	0	0.40231	0.20725	0.045609	0.21909	0.17817	0.16942	0.26467	0.17205	0.29675	0.12992	0.12611	0.18027	0.24099	0.29653	0.092534	0.12953	-1.7854	-2.2542	-2.925	-2.3812	-2.7438	-2.5833	-2.5542	-2.7729	-2.3917	-2.3771	-3.025	-2.3083	-2.6958	-2.5542	-2.1604	-2.9688	265.706	165.884	106.057	67.033	147.278	307.741	402.378	288.481	288.361	131.056	290.513	331.881	313.283	99.126	153.981	231.100	0.00037293	0.00070285	0.00012946	462.37	5.9591e-06	5.7345e-06	603.44	107.06	3.2936e-06	8.1367e-06	170.6	62.33	32.695	9.019	9.3744e-06	17.876	0.0011558	0.0012542	0.0003459	476.03	1.3374e-05	1.3424e-05	617	113.3	1.3105e-05	1.3326e-05	179.19	65.461	36.035	10.359	1.3017e-05	19.576	60.903	85.541	119.892	55.979	288.700	288.331	55.841	61.512	169.495	350.568	60.634	67.382	67.506	71.555	81.286	71.540	-8191	255	
14637.230	1	1	0	0	0.087667	0.18911	0.22439	0.16253	0.14824	0.076306	0.23348	0.17336	0.22756	0.29358	0.093172	0.21828	0.045761	0.085742	0.054964	0.090766	-2.1958	-2.5667	-2.9875	-2.675	-2.6583	-2.8229	-2.3604	-2.6792	-2.5333	-2.4833	-2.9708	-2.3771	-2.4708	-2.6396	-2.1958	-2.8063	80.531	329.800	79.866	265.822	295.823	88.109	328.442	91.652	289.076	387.427	141.937	315.325	136.238	348.683	62.845	43.617	0.0003491	0.00051329	0.00013934	464.22	5.4098e-06	6.9249e-06	603.61	106.34	2.2166e-06	2.2176e-06	169.93	62.616	32.382	9.1025	3.9787e-06	18.005	0.0011171	0.0012102	0.00033037	476.09	1.2964e-05	1.313e-05	616.63	112.98	1.2897e-05	1.3063e-05	180.08	65.669	35.971	10.402	1.2898e-05	19.782	94.299	144.757	204.945	55.753	178.912	111.935	55.876	61.271	268.724	66.625	60.876	67.313	67.193	71.771	58.104	71.503	-8191	255	
14637.302	1	1	0	0	0.050425	0.24783	0.24268	0.1235	0.22828	0.043098	0.21507	0.14813	0.10075	0.13637	0.034467	0.30623	0.23634	0.28883	0.35789	0.23615	-2.1729	-2.3312	-2.6958	-2.4188	-2.4167	-2.8312	-2.2479	-2.7667	-2.6188	-2.3958	-2.9188	-2.5729	-2.3917	-2.7979	-2.4292	-2.5271	215.366	398.785	136.234	81.374	269.070	307.091	239.007	321.478	370.774	360.081	60.991	318.100	349.824	345.317	148.367	327.819	0.00047936	0.00089205	0.00010285	459.46	2.4375e-06	3.3598e-07	610.15	107.68	4.8963e-06	3.9266e-06	171.65	63.076	32.412	9.1958	6.3707e-06	18.144	0.0011236	0.0012033	0.00034191	475.63	1.3377e-05	1.3613e-05	618.57	113.88	1.3432e-05	1.3349e-05	180.75	65.971	36.066	10.417	1.3285e-05	19.825	76.005	110.793	261.260	55.934	159.208	354.248	55.447	61.604	132.562	155.055	60.988	66.928	67.972	71.790	237.512	71.038	-8191	255	
14637.398	1	1	0	0	0.13592	0.24321	0.19413	0.29633	0.064746	0.26629	0.23258	0.31435	0.098645	0.19574	0.2368	0.2192	0.15331	0.10645	0.058093	0.23156	-2.0354	-2.2042	-2.8979	-2.5979	-2.4146	-2.8167	-2.4313	-2.5396	-2.8042	-2.4458	-2.7812	-2.5292	-2.1875	-2.7167	-2.225	-2.4083	399.404	142.168	395.085	394.637	86.826	325.413	352.152	332.574	61.372	367.231	318.731	353.231	292.460	330.661	271.750	256.871	0.00038555	0.00011846	0.00013633	462.1	8.2076e-06	7.1757e-06	608.87	107.05	4.2894e-06	4.5753e-06	170.89	62.639	32.431	9.2348	1.0065e-05	17.81	0.0011599	0.001236	0.00034859	477.77	1.3475e-05	1.3717e-05	619.78	114.25	1.3483e-05	1.3695e-05	181.22	66.052	36.159	10.482	1.3724e-05	19.808	84.082	328.145	153.735	55.998	260.525	56.015	55.998	61.650	287.282	395.241	61.160	67.490	67.421	71.156	244.425	71.313	-8191	255	
14637.518	1	1	0	0	0.31263	0.2449	0.34048	0.18955	0.21878	0.11708	0.041886	0.089204	0.1838	0.27221	0.2264	0.40108	0.20566	0.11422	0.078936	0.242	-1.9896	-2.1792	-2.6229	-2.5792	-2.3896	-2.7625	-2.4688	-2.5625	-2.7375	-2.2833	-2.7146	-2.5854	-2.4146	-2.6542	-2.4354	-2.5542	60.192	354.573	297.575	314.041	402.065	144.746	140.519	99.611	170.174	235.933	367.274	373.642	298.728	185.667	292.881	221.068	0.0005278	0.00061075	0.00018373	462.27	9.9972e-07	7.5743e-06	602.2	107.12	5.6635e-06	9.5022e-06	170.81	62.333	32.231	9.114	4.1591e-06	17.917	0.0011771	0.0012541	0.00034958	477.71	1.3523e-05	1.3768e-05	617.3	113.8	1.3762e-05	1.3799e-05	181.13	65.784	36.172	10.476	1.4037e-05	19.843	97.804	103.971	206.336	55.693	367.981	193.698	55.571	61.048	144.727	314.101	61.176	66.864	67.790	71.485	155.534	71.193	-8191	255	
#DATA ENDS
