BOXY.EXE: ISS Imagent and Oximeter Data Acquisition Program Version 0.80
Ascii Record File

#ACQ INFORMATION
2  Detector Channels 
16  External MUX Channels 
1  Auxiliary Channels 
5000  Waveform (CCF) Frequency (Hz)
1  Waveforms Skipped 
30  Waveforms Averaged 
1  Cycles Averaged 
16  Acquisitions per Waveform 
10.0806  Updata Rate (Hz) 

#FILE INFORMATION
TRUE -- External MUX Channel results are PARSED.
FALSE -- AC DC and Phase are NOT grouped.
TRUE -- Companion Program Settings File CREATED.
FALSE -- AC data not excluded
FALSE -- DC data not excluded
FALSE -- Phase data not excluded
FALSE -- Auxillary Chn. data not excluded
Tab delimiters

#CALIBRATION STATE
TRUE -- Waveform Calibration Values APPLIED.


#AUX CALIBRATION VALUES
Val Type	aux-1	

Term	1.0000e+00	
Factor	0.0000e+00	


#WF CALIBRATION VALUES
A = Detector Channel
Val Type	A-AC1	A-AC2	A-AC3	A-AC4	A-AC5	A-AC6	A-AC7	A-AC8	A-AC9	A-AC10	A-AC11	A-AC12	A-AC13	A-AC14	A-AC15	A-AC16	A-DC1	A-DC2	A-DC3	A-DC4	A-DC5	A-DC6	A-DC7	A-DC8	A-DC9	A-DC10	A-DC11	A-DC12	A-DC13	A-DC14	A-DC15	A-DC16	A-Ph1	A-Ph2	A-Ph3	A-Ph4	A-Ph5	A-Ph6	A-Ph7	A-Ph8	A-Ph9	A-Ph10	A-Ph11	A-Ph12	A-Ph13	A-Ph14	A-Ph15	A-Ph16	

Term	0.00000e+00	0.00000e+00	0.00000e+00	0.00000e+00	0.00000e+00	0.00000e+00	0.00000e+00	0.00000e+00	0.00000e+00	0.00000e+00	0.00000e+00	0.00000e+00	0.00000e+00	0.00000e+00	0.00000e+00	0.00000e+00	0.00000e+00	0.00000e+00	0.00000e+00	0.00000e+00	0.00000e+00	0.00000e+00	0.00000e+00	0.00000e+00	0.00000e+00	0.00000e+00	0.00000e+00	0.00000e+00	0.00000e+00	0.00000e+00	0.00000e+00	0.00000e+00	0.00000e+00	0.00000e+00	0.00000e+00	0.00000e+00	0.00000e+00	0.00000e+00	0.00000e+00	0.00000e+00	0.00000e+00	0.00000e+00	0.00000e+00	0.00000e+00	0.00000e+00	0.00000e+00	0.00000e+00	0.00000e+00	
Factor	1.00000e+00	1.00000e+00	1.00000e+00	1.00000e+00	1.00000e+00	1.00000e+00	1.00000e+00	1.00000e+00	1.00000e+00	1.00000e+00	1.00000e+00	1.00000e+00	1.00000e+00	1.00000e+00	1.00000e+00	1.00000e+00	1.00000e+00	1.00000e+00	1.00000e+00	1.00000e+00	1.00000e+00	1.00000e+00	1.00000e+00	1.00000e+00	1.00000e+00	1.00000e+00	1.00000e+00	1.00000e+00	1.00000e+00	1.00000e+00	1.00000e+00	1.00000e+00	X	X	X	X	X	X	X	X	X	X	X	X	X	X	X	X	

B = Detector Channel
Val Type	B-AC1	B-AC2	B-AC3	B-AC4	B-AC5	B-AC6	B-AC7	B-AC8	B-AC9	B-AC10	B-AC11	B-AC12	B-AC13	B-AC14	B-AC15	B-AC16	B-DC1	B-DC2	B-DC3	B-DC4	B-DC5	B-DC6	B-DC7	B-DC8	B-DC9	B-DC10	B-DC11	B-DC12	B-DC13	B-DC14	B-DC15	B-DC16	B-Ph1	B-Ph2	B-Ph3	B-Ph4	B-Ph5	B-Ph6	B-Ph7	B-Ph8	B-Ph9	B-Ph10	B-Ph11	B-Ph12	B-Ph13	B-Ph14	B-Ph15	B-Ph16	

Term	0.00000e+00	0.00000e+00	0.00000e+00	0.00000e+00	0.00000e+00	0.00000e+00	0.00000e+00	0.00000e+00	0.00000e+00	0.00000e+00	0.00000e+00	0.00000e+00	0.00000e+00	0.00000e+00	0.00000e+00	0.00000e+00	0.00000e+00	0.00000e+00	0.00000e+00	0.00000e+00	0.00000e+00	0.00000e+00	0.00000e+00	0.00000e+00	0.00000e+00	0.00000e+00	0.00000e+00	0.00000e+00	0.00000e+00	0.00000e+00	0.00000e+00	0.00000e+00	1.18084e+01	-1.38873e+02	-1.24998e+02	-1.83146e+02	-7.27340e+01	-6.37033e+01	-1.60638e+02	-1.62015e+02	-3.12208e+01	-6.27560e+01	-1.72582e+02	-1.72483e+02	-1.83079e+02	-1.78092e+02	-9.56933e+01	-1.50919e+02	
Factor	4.44032e-05	1.51227e-04	4.59897e-05	1.52212e-01	1.40126e-06	1.22182e-06	1.72356e-01	5.67285e-02	1.37058e-06	1.58077e-06	8.83220e-02	2.95593e-02	2.80079e-02	9.00119e-03	1.53101e-06	1.30876e-02	1.36817e-06	1.41543e-06	3.92752e-07	7.76740e-02	1.54102e-08	1.54915e-08	8.23777e-02	2.87967e-02	1.53811e-08	1.54814e-08	4.31705e-02	1.44196e-02	1.41529e-02	4.56543e-03	1.54541e-08	6.40635e-03	X	X	X	X	X	X	X	X	X	X	X	X	X	X	X	X	



#DISTANCE SETTINGS
A = Detector Channel
A-1	A-2	A-3	A-4	A-5	A-6	A-7	A-8	A-9	A-10	A-11	A-12	A-13	A-14	A-15	A-16	

2.5000e+00	3.0000e+00	2.5000e+00	3.0000e+00	2.0000e+00	3.0000e+00	1.5000e+00	3.0000e+00	3.0000e+00	3.0000e+00	3.0000e+00	3.0000e+00	3.0000e+00	3.0000e+00	1.5000e+00	3.0000e+00	

B = Detector Channel
B-1	B-2	B-3	B-4	B-5	B-6	B-7	B-8	B-9	B-10	B-11	B-12	B-13	B-14	B-15	B-16	

1.0000e+01	1.0000e+01	1.0000e+01	1.4400e+00	1.0000e+01	1.0000e+01	1.5100e+00	1.9400e+00	1.0000e+01	1.0000e+01	1.9900e+00	2.4900e+00	2.4100e+00	2.9000e+00	1.0000e+01	2.9800e+00	




#DATA BEGINS
time	group	step	mark	flag	A-AC1	A-AC2	A-AC3	A-AC4	A-AC5	A-AC6	A-AC7	A-AC8	A-AC9	A-AC10	A-AC11	A-AC12	A-AC13	A-AC14	A-AC15	A-AC16	A-DC1	A-DC2	A-DC3	A-DC4	A-DC5	A-DC6	A-DC7	A-DC8	A-DC9	A-DC10	A-DC11	A-DC12	A-DC13	A-DC14	A-DC15	A-DC16	A-Ph1	A-Ph2	A-Ph3	A-Ph4	A-Ph5	A-Ph6	A-Ph7	A-Ph8	A-Ph9	A-Ph10	A-Ph11	A-Ph12	A-Ph13	A-Ph14	A-Ph15	A-Ph16	B-AC1	B-AC2	B-AC3	B-AC4	B-AC5	B-AC6	B-AC7	B-AC8	B-AC9	B-AC10	B-AC11	B-AC12	B-AC13	B-AC14	B-AC15	B-AC16	B-DC1	B-DC2	B-DC3	B-DC4	B-DC5	B-DC6	B-DC7	B-DC8	B-DC9	B-DC10	B-DC11	B-DC12	B-DC13	B-DC14	B-DC15	B-DC16	B-Ph1	B-Ph2	B-Ph3	B-Ph4	B-Ph5	B-Ph6	B-Ph7	B-Ph8	B-Ph9	B-Ph10	B-Ph11	B-Ph12	B-Ph13	B-Ph14	B-Ph15	B-Ph16	aux-1	digaux	

20853.691	1	1	0	768	0.22836	0.10231	0.13482	0.40377	0.066014	0.074718	0.054488	0.21022	0.075952	0.14443	0.33008	0.20815	0.10097	0.30728	0.10779	0.15832	-2.525	-2.7313	-2.6042	-3.1813	-2.5375	-2.8271	-3.1125	-2.4771	-2.9562	-2.7667	-2.6167	-3.0312	-2.7583	-2.75	-2.725	-2.5479	368.834	95.244	362.628	417.654	89.804	380.643	395.873	324.950	384.795	280.619	380.027	78.103	339.966	334.879	141.275	311.497	0.0011865	0.00069671	0.00035548	1375.8	7.2593e-06	4.047e-06	1379	372.66	3.1701e-06	1.2036e-05	421.82	142.07	123.81	42.132	1.0127e-05	51.978	0.00062238	0.00062585	0.0001729	1405.6	6.8128e-06	6.864e-06	1406.4	381.88	6.8617e-06	6.9598e-06	434.79	145.94	127.18	43.852	6.977e-06	54.134	310.580	139.100	199.858	87.267	253.101	245.763	87.238	92.095	326.611	212.502	91.336	95.943	96.590	100.738	214.098	99.805	-8191	255	
20853.787	1	1	0	0	0.35751	0.062571	0.26056	0.20944	0.39292	0.13877	0.28078	0.14225	0.18589	0.22525	0.19568	0.23138	0.15023	0.19377	0.12188	0.13796	-2.3083	-2.575	-2.5187	-2.9938	-2.4417	-2.5958	-2.9104	-2.6333	-2.9021	-2.8583	-2.6813	-2.95	-2.725	-2.7479	-2.9042	-2.55	106.665	339.209	260.207	407.707	117.976	125.325	81.172	423.747	387.954	79.612	331.277	77.154	423.959	154.381	213.862	358.352	0.0012069	0.00060905	7.23e-05	1372.8	3.2835e-06	4.327e-06	1376.2	373.05	7.6338e-06	1.0405e-05	422.94	142.39	124.41	42.46	4.2196e-06	52.291	0.00063994	0.00063997	0.00017828	1408.4	7.0242e-06	7.0364e-06	1408	382.68	6.9585e-06	6.9699e-06	435.81	146.37	127.63	43.992	6.9149e-06	54.343	307.795	109.291	104.686	87.159	226.161	249.423	87.197	91.933	260.179	250.080	91.242	96.083	96.542	100.903	291.053	99.919	-8191	255	
20853.885	1	1	0	0	0.12609	0.27751	0.05632	0.2132	0.07491	0.27517	0.31407	0.16333	0.019693	0.035604	0.23998	0.13382	0.20753	0.20735	0.057246	0.20563	-2.1063	-2.5	-2.3042	-2.9208	-2.7042	-2.4271	-3.0333	-2.5062	-2.6542	-2.7354	-2.5167	-2.8417	-2.7438	-2.6396	-2.9542	-2.7188	408.130	384.403	200.115	364.767	376.316	351.768	399.657	183.329	180.912	225.038	348.903	174.537	104.490	423.155	111.022	368.158	0.0010907	0.00038187	0.00027305	1381	9.2849e-06	7.7365e-06	1383.1	371.66	4.0456e-06	5.7873e-06	423.63	142.84	124.07	42.349	6.7809e-06	51.981	0.00063682	0.00062815	0.00017299	1410.1	6.6957e-06	6.7299e-06	1409.6	381.49	6.5151e-06	6.4938e-06	434.42	145.82	126.87	43.778	6.4479e-06	54.014	315.251	98.484	163.753	87.319	235.621	235.407	86.913	91.928	313.186	310.852	91.176	96.274	96.594	100.777	249.625	99.863	-8191	255	
20853.980	1	1	0	0	0.16157	0.15173	0.14137	0.35873	0.065131	0.17283	0.36668	0.15049	0.13143	0.09304	0.097396	0.052326	0.14373	0.27685	0.1843	0.020271	-2.1937	-2.8771	-2.3646	-2.8333	-2.7146	-2.4396	-3.0646	-2.6937	-2.6063	-2.7687	-2.4125	-2.8375	-2.6229	-2.55	-2.7146	-2.6146	195.582	299.708	418.080	383.682	330.998	202.407	381.828	377.461	378.929	349.737	169.650	320.678	355.809	392.456	313.228	108.468	0.0011022	0.00073043	0.00025675	1380	4.1584e-06	8.5737e-06	1383.7	371.93	2.3761e-06	3.1936e-06	424.5	141.71	124	42.287	1.1985e-05	52.353	0.00059881	0.00058307	0.00016148	1408.1	6.3736e-06	6.3209e-06	1406.5	380.33	6.2201e-06	6.1758e-06	433.33	145.18	126.74	43.623	6.0361e-06	53.883	314.552	204.823	167.782	87.261	233.775	201.944	87.177	91.979	251.666	333.485	91.053	96.038	96.550	100.916	201.867	99.808	-8191	255	
20854.074	1	1	0	0	0.16827	0.19412	0.067741	0.28004	0.28826	0.38282	0.38898	0.14009	0.25654	0.12057	0.24699	0.022001	0.13184	0.092577	0.24253	0.10381	-2.1562	-2.6354	-2.3104	-2.9625	-2.4729	-2.5771	-2.8292	-2.7271	-2.5625	-2.7208	-2.6083	-2.7583	-2.7333	-2.5021	-2.7583	-2.6583	222.740	182.058	406.231	383.630	237.799	272.667	385.036	356.059	243.163	339.964	377.807	291.649	400.932	129.160	219.066	423.737	0.0012291	0.00091735	0.0001339	1376.3	4.5881e-06	4.1988e-06	1383.1	372.8	7.845e-06	8.9922e-06	419.87	142.68	123.86	42.234	5.5542e-06	52.175	0.00056108	0.00055293	0.0001513	1405.8	6.0528e-06	6.0097e-06	1404.8	380.3	5.994e-06	6.0182e-06	431.76	145.33	126.5	43.647	6.0222e-06	53.859	306.760	165.629	212.928	87.224	149.969	232.487	86.980	91.892	293.637	221.248	91.354	95.853	96.618	100.842	176.803	99.836	-8191	255	
20854.174	1	1	0	0	0.33718	0.14508	0.22935	0.30091	0.10093	0.27547	0.12384	0.25901	0.26463	0.093802	0.2513	0.39967	0.11933	0.33193	0.28392	0.33805	-1.9438	-2.7938	-2.4854	-2.9417	-2.6333	-2.4646	-2.8833	-2.6292	-2.6792	-2.725	-2.5396	-2.6562	-2.9583	-2.3396	-2.7917	-2.5479	304.697	227.275	388.915	372.522	146.774	322.025	131.623	74.129	253.426	300.142	304.134	350.827	403.099	400.272	174.532	110.354	0.0010235	0.00054239	0.00022301	1376.2	7.569e-06	2.3e-06	1387.3	372.35	8.4137e-06	4.8642e-06	423.39	142.22	124.02	42.237	1.3029e-05	52.401	0.00056675	0.00055558	0.00015477	1407.2	6.091e-06	6.1473e-06	1404.9	380.71	6.1351e-06	6.1539e-06	433.32	145.6	126.78	43.768	6.2731e-06	54.07	312.610	133.975	216.119	87.229	208.537	342.887	87.146	92.015	251.615	178.469	91.279	96.197	96.680	100.658	215.989	99.803	-8191	255	
20854.293	1	1	0	0	0.12204	0.22321	0.10599	0.25502	0.19847	0.20111	0.29213	0.16881	0.036562	0.32004	0.23766	0.17952	0.053658	0.25795	0.1377	0.076824	-1.9104	-2.8917	-2.1833	-2.8333	-2.7083	-2.375	-2.9042	-2.7833	-2.5563	-2.8542	-2.6521	-2.7396	-2.7979	-2.3896	-2.7125	-2.7208	428.143	372.221	290.649	395.222	427.985	219.065	330.623	105.937	213.397	386.189	332.520	78.896	396.368	74.589	354.378	402.765	0.0010351	0.00060556	9.2294e-05	1381.4	8.5522e-07	4.664e-06	1384.1	371.36	6.2271e-06	8.2165e-06	424.38	143.01	123.85	42.379	1.377e-05	52.425	0.00058117	0.00057651	0.00016056	1407.3	6.2979e-06	6.2873e-06	1406.9	380.41	6.2546e-06	6.2145e-06	433.7	145.95	126.84	43.736	6.2239e-06	54.028	308.658	108.494	193.201	87.297	189.022	289.287	87.018	92.031	215.020	254.723	91.407	96.115	96.695	100.793	188.431	99.860	-8191	255	
20854.389	1	1	0	0	0.032146	0.25296	0.23435	0.27925	0.16335	0.08844	0.27475	0.14805	0.21535	0.19728	0.16293	0.26921	0.15268	0.38161	0.23251	0.17281	-1.9729	-2.8271	-2.5062	-2.8604	-2.8521	-2.4771	-2.9396	-3.0708	-2.4417	-2.8542	-2.5542	-2.5208	-2.9313	-2.5271	-2.6271	-2.9375	81.226	285.953	421.057	393.174	430.825	207.553	382.008	346.600	151.573	391.884	370.190	382.911	391.926	413.588	332.257	423.248	0.0011269	0.00019567	0.00012596	1377.3	3.63e-06	3.141e-06	1387.4	372.77	6.7508e-06	7.9864e-06	423.52	142.82	123.98	42.396	1.0207e-05	52.123	0.00057451	0.00056257	0.00015719	1408.5	6.1161e-06	6.0707e-06	1409.7	380.87	6.0885e-06	6.0967e-06	433.38	145.83	126.52	43.771	6.1249e-06	54.062	309.220	198.917	92.053	87.301	253.819	134.112	87.026	91.888	308.110	239.778	91.325	96.120	96.569	101.039	229.211	99.705	-8191	255	
20854.484	1	1	0	0	0.28663	0.021924	0.28102	0.12434	0.16777	0.158	0.23878	0.20163	0.05174	0.14671	0.16163	0.078869	0.23721	0.077324	0.077469	0.44202	-1.8833	-2.7625	-2.7167	-2.7375	-2.9229	-2.4938	-2.7917	-2.9521	-2.2667	-2.7687	-2.8438	-2.3646	-2.7021	-2.5312	-2.5187	-2.8667	316.952	121.614	400.446	144.638	329.457	274.108	363.747	369.893	122.029	250.299	214.198	323.653	345.731	412.401	367.685	379.443	0.0010922	0.00068859	6.4529e-05	1379.6	8.8646e-06	2.8459e-06	1382.5	372.92	9.7469e-06	2.8942e-06	423.55	142.75	124.44	42.524	4.9484e-06	52.107	0.00056442	0.00055675	0.0001549	1409.3	6.1095e-06	6.1012e-06	1408.5	380.92	6.0542e-06	6.0417e-06	433.04	145.68	126.76	43.744	6.1009e-06	54.055	304.963	190.008	196.655	87.294	217.129	171.686	86.983	92.000	246.874	258.133	91.434	95.831	96.630	100.868	247.986	99.995	-8191	255	
20854.580	1	1	0	0	0.092917	0.17274	0.23027	0.045963	0.19409	0.086056	0.040971	0.14296	0.097415	0.13453	0.35615	0.17012	0.21319	0.1823	0.11735	0.23252	-1.8479	-2.75	-2.6	-2.5833	-2.8583	-2.5708	-2.7229	-2.8583	-2.4479	-2.6583	-2.8375	-2.3229	-2.9437	-2.6562	-2.4813	-2.8792	430.338	105.271	382.693	263.299	201.694	157.636	391.123	413.135	237.285	268.898	362.042	377.735	285.055	397.980	154.034	427.750	0.0011767	0.0008568	0.00027796	1382.9	7.9708e-06	5.3991e-06	1388.2	372.53	4.0511e-06	7.3443e-06	422.19	144	124.19	42.255	2.7879e-06	52.471	0.00056523	0.00056114	0.00015638	1411.5	6.1619e-06	6.1507e-06	1413.5	381.03	6.0588e-06	6.0658e-06	433.54	146.29	127.11	43.754	6.0921e-06	53.968	306.447	153.189	143.346	87.156	229.168	260.121	87.163	92.275	261.950	220.556	91.209	95.832	96.723	100.868	115.643	99.737	-8191	255	
20854.676	1	1	0	0	0.17033	0.090416	0.28524	0.33301	0.1074	0.15474	0.10905	0.25945	0.12666	0.098464	0.043633	0.29299	0.28004	0.10795	0.10384	0.12926	-1.9104	-2.4813	-2.65	-2.6479	-2.9062	-2.6625	-2.9437	-2.8021	-2.5187	-2.7458	-2.9208	-2.5375	-2.8146	-2.6667	-2.4479	-3.0333	143.128	394.761	94.641	405.398	271.816	433.684	319.236	320.327	288.784	272.699	138.771	407.641	400.640	171.806	323.860	92.210	0.0012102	0.00048427	0.0002555	1382.2	1.0286e-06	3.2602e-06	1385.2	372.46	7.455e-06	6.6167e-06	423.21	142.59	124.9	42.313	8.2474e-06	52.129	0.00056295	0.00055914	0.00015445	1409.6	6.0791e-06	6.099e-06	1409.1	380.38	5.9969e-06	6.0444e-06	433.11	145.58	127.07	43.68	6.1247e-06	53.955	308.512	100.708	171.892	87.313	205.260	231.205	86.948	91.971	242.743	221.358	91.062	96.107	96.683	100.960	208.117	99.686	-8191	255	
20854.773	1	1	0	0	0.13378	0.17211	0.24813	0.34208	0.068977	0.28575	0.23528	0.26389	0.10006	0.20081	0.25352	0.10844	0.22806	0.39035	0.092535	0.066611	-2.0187	-2.6229	-2.7104	-2.5042	-2.8271	-2.8125	-2.6375	-3.0187	-2.5521	-2.575	-3.0271	-2.525	-2.8708	-2.7625	-2.6562	-3.1396	394.850	394.137	111.378	428.832	287.908	168.978	335.380	354.681	99.446	140.051	317.868	352.415	321.693	400.032	350.850	246.870	0.0011947	0.00046694	0.00028685	1376.6	6.4888e-06	1.4979e-06	1384.2	372.19	3.3585e-06	1.3309e-06	423.48	143.11	123.89	42.223	8.4958e-06	52.217	0.00055988	0.00055623	0.00015319	1407.6	6.0681e-06	6.0944e-06	1406.5	380.17	5.9902e-06	6.0879e-06	433.13	145.78	126.56	43.693	6.0696e-06	54.002	305.806	159.994	170.632	87.198	179.321	259.310	86.977	91.789	291.114	209.199	91.263	96.118	96.522	100.784	232.764	99.793	-8191	255	
20854.893	1	1	0	0	0.28241	0.22526	0.21486	0.34711	0.23307	0.12578	0.10565	0.13467	0.10288	0.12324	0.1459	0.18737	0.25086	0.068065	0.24403	0.24708	-1.9583	-2.4729	-2.8979	-2.6104	-2.8625	-3.0167	-2.7521	-3.1083	-2.6125	-2.5062	-3.0062	-2.6583	-2.6708	-2.7854	-2.3625	-3.0583	246.214	377.008	153.250	338.919	311.265	131.467	236.928	414.165	240.735	350.283	375.611	334.338	334.551	136.783	106.106	394.257	0.0012395	0.00076303	0.00023248	1382.8	4.1529e-06	5.2858e-06	1380.9	371.98	1.1796e-05	5.5151e-06	423.38	142.87	124.3	42.31	8.0603e-06	52.245	0.00056021	0.00055714	0.00015311	1409	6.048e-06	6.011e-06	1406	379.88	5.9762e-06	6.0419e-06	432.26	145.62	126.88	43.648	5.9904e-06	53.951	317.187	183.499	171.780	87.363	185.997	233.058	87.125	91.949	278.361	158.398	91.525	96.161	96.383	100.714	213.564	99.979	-8191	255	
20854.988	1	1	0	0	0.29088	0.026233	0.18105	0.33493	0.20138	0.22507	0.2013	0.28604	0.17744	0.28427	0.060998	0.20285	0.41695	0.23315	0.12116	0.29708	-1.9583	-2.4208	-2.7208	-2.5479	-2.5354	-2.6708	-2.625	-3.0167	-2.6208	-2.4771	-2.9792	-2.6833	-2.7562	-2.7958	-2.45	-2.9833	321.556	378.080	433.471	421.632	397.332	406.126	346.698	355.224	247.921	236.333	246.263	395.075	400.142	429.832	116.726	332.830	0.00097128	0.0003908	0.00017183	1376.9	5.6823e-06	4.705e-06	1383.2	372.15	4.1888e-06	8.0217e-06	422.97	142.64	124.3	42.554	7.9888e-06	52.254	0.00055609	0.00055405	0.00015212	1408	6.0691e-06	6.0604e-06	1406	379.98	6.0739e-06	6.0472e-06	432.56	145.59	126.72	43.712	6.0798e-06	53.995	306.403	211.703	146.040	87.339	228.875	285.692	87.076	91.797	392.652	219.968	91.166	96.028	96.544	100.790	202.567	100.173	-8191	255	
20855.084	1	1	0	0	0.29827	0.34416	0.10591	0.16708	0.049773	0.18916	0.20008	0.10142	0.063781	0.21767	0.052454	0.19152	0.32256	0.34456	0.055851	0.18905	-2.2792	-2.2521	-2.9313	-2.5104	-2.5563	-2.7687	-2.6083	-2.9354	-2.5979	-2.3625	-2.9167	-2.6083	-2.6167	-2.9375	-2.3688	-2.8167	220.672	333.952	134.214	395.817	142.017	142.687	370.521	382.707	180.229	334.515	224.150	118.426	361.242	428.784	118.276	329.914	0.0011439	0.00021795	0.00013813	1383	5.0122e-06	3.1102e-06	1385.7	372.56	5.6904e-06	8.2959e-06	422.33	142.24	124.78	42.285	2.7659e-06	52.33	0.0005619	0.00056319	0.00015569	1411	6.1793e-06	6.1528e-06	1407.6	380.67	6.0842e-06	6.1087e-06	433.19	145.43	127.09	43.639	6.1033e-06	53.938	316.670	352.370	156.182	87.348	276.930	314.094	87.105	91.873	311.416	231.287	91.283	95.970	96.249	100.983	228.301	100.024	-8191	255	
20855.180	1	1	0	0	0.14336	0.30083	0.11181	0.18505	0.246	0.025453	0.11938	0.26136	0.068362	0.065162	0.06956	0.059625	0.15528	0.12844	0.14686	0.23402	-2.2167	-2.3042	-2.9625	-2.6146	-2.6375	-2.9542	-2.6771	-2.8854	-2.8729	-2.4292	-2.6646	-2.6958	-2.5542	-3.0833	-2.4146	-2.7542	347.824	309.988	251.271	113.610	345.932	329.662	333.728	367.134	331.314	421.314	388.590	164.712	133.815	391.556	365.757	307.893	0.00098528	0.00093159	0.00013922	1375.5	1.1352e-05	3.2642e-06	1386.3	372.32	5.2908e-06	4.9729e-06	424.54	142.37	124.05	42.025	5.458e-06	52.041	0.00057029	0.00056507	0.00015554	1407.4	6.1484e-06	6.1534e-06	1406	380.41	6.131e-06	6.1406e-06	432.51	145.56	126.61	43.541	6.0385e-06	53.775	308.490	133.028	121.220	87.060	223.646	251.362	87.088	91.918	255.866	317.327	91.030	96.048	96.546	100.758	222.938	99.811	-8191	255	
20855.254	1	1	0	0	0.11286	0.064441	0.15003	0.31519	0.096951	0.16616	0.14279	0.12584	0.33894	0.03311	0.26546	0.17193	0.18595	0.1482	0.094656	0.24671	-2.3042	-2.4417	-2.7438	-2.8667	-2.5604	-2.8646	-2.5375	-2.9021	-2.7958	-2.2458	-2.7771	-2.6354	-2.4958	-2.9604	-2.5833	-2.7542	117.256	404.344	153.593	383.954	358.972	307.918	247.418	380.321	139.979	241.521	421.518	386.255	386.503	389.706	294.913	112.682	0.0010272	0.00052612	0.00015476	1370.8	4.512e-06	5.7271e-06	1379.7	371.98	1.2151e-06	3.0658e-06	422.39	141.75	123.54	42.096	5.9182e-06	52.157	0.00055715	0.00055459	0.00015413	1404	6.0735e-06	6.0567e-06	1403.4	379.65	6.1218e-06	6.1361e-06	432.37	145.33	126.66	43.611	6.295e-06	53.905	315.346	84.595	181.073	87.270	252.474	135.933	86.985	92.089	229.513	214.342	91.379	95.792	96.628	100.909	317.718	99.812	-8191	255	
20855.371	1	1	0	0	0.12019	0.10668	0.044519	0.28205	0.083787	0.11769	0.17936	0.13727	0.087744	0.088368	0.16904	0.060862	0.26992	0.008512	0.12839	0.34968	-2.2646	-2.4146	-2.5792	-2.9458	-2.4938	-2.6896	-2.6688	-2.7354	-2.5979	-2.3063	-2.7354	-2.5542	-2.3542	-3.1063	-2.3958	-2.6396	367.963	147.384	411.330	353.772	245.799	217.464	359.146	368.513	384.143	407.555	420.765	229.825	267.595	348.129	187.171	405.763	0.0012183	0.00016072	0.00026351	1378.2	3.0187e-06	4.1334e-06	1382	371.31	5.2679e-06	5.8488e-06	421.93	141.93	123.68	42.173	8.3812e-06	52.159	0.00058584	0.00058157	0.0001642	1408.2	6.4573e-06	6.3834e-06	1407.3	380.85	6.5293e-06	6.537e-06	434	145.52	126.91	43.664	6.557e-06	53.968	310.085	257.110	146.979	87.364	238.183	174.636	87.163	92.008	267.460	196.595	91.417	96.068	96.453	100.864	190.164	99.971	-8191	255	
20855.469	1	1	0	0	0.18032	0.084762	0.097925	0.30397	0.12385	0.098121	0.21304	0.37043	0.31176	0.17661	0.15055	0.26952	0.38809	0.022781	0.21913	0.084099	-2.3458	-2.45	-2.6604	-2.7896	-2.5083	-2.7667	-2.7979	-2.5604	-2.9354	-2.4646	-2.7104	-2.8667	-2.4583	-2.6562	-2.6979	-2.4167	377.918	249.558	321.760	372.931	162.930	343.739	365.810	354.589	150.700	295.177	252.096	382.199	407.599	188.211	401.225	373.453	0.0011981	0.0010615	0.00034821	1374.3	2.5179e-06	5.3172e-06	1383.6	371.7	1.0501e-05	8.0984e-07	422.64	141.43	124.02	41.994	7.686e-06	51.949	0.00059907	0.00060114	0.00016609	1409.1	6.5532e-06	6.5454e-06	1408.4	380.61	6.4999e-06	6.4831e-06	433.47	145.26	126.8	43.589	6.4849e-06	53.886	311.246	141.895	159.557	87.261	234.124	198.579	87.100	92.084	287.242	337.221	91.273	96.173	96.617	100.564	199.647	99.801	-8191	255	
20855.564	1	1	0	0	0.18014	0.41458	0.13726	0.16881	0.12856	0.077063	0.37892	0.2201	0.12072	0.044032	0.16287	0.23718	0.35185	0.11218	0.085845	0.14142	-2.55	-2.3479	-2.6625	-2.9604	-2.1854	-2.5833	-2.8312	-2.5167	-2.6771	-2.5	-2.6188	-2.8875	-2.475	-2.8042	-2.6979	-2.5417	148.525	235.513	304.290	370.059	205.956	148.493	427.035	346.290	301.530	389.775	393.000	431.316	410.426	413.394	102.497	74.688	0.0012125	0.00044929	7.0173e-05	1376	8.7846e-06	6.4458e-06	1380.1	371.19	1.0564e-05	6.6167e-06	421.45	142.16	123.94	42.14	6.8522e-06	52.011	0.00059423	0.00059377	0.00016662	1409.7	6.4846e-06	6.4609e-06	1407.9	380.81	6.4024e-06	6.4136e-06	432.97	145.68	126.82	43.646	6.4426e-06	53.935	301.538	226.188	113.615	87.173	211.808	273.935	87.046	92.016	326.696	299.168	91.298	95.962	96.583	100.393	376.428	99.893	-8191	255	
20855.660	1	1	0	0	0.095306	0.25857	0.11478	0.20915	0.17285	0.083618	0.14909	0.029228	0.012137	0.1657	0.022815	0.20771	0.16948	0.14378	0.1201	0.23688	-2.4042	-2.4667	-2.4417	-3.1354	-2.3	-2.7833	-2.7458	-2.5167	-2.7979	-2.6792	-2.6958	-2.9562	-2.4896	-2.8646	-2.8438	-2.6833	93.185	422.405	345.185	419.659	294.516	191.114	408.751	335.074	284.411	91.173	94.185	358.113	345.455	276.241	204.438	283.042	0.0011123	0.00079149	0.0001337	1382.4	7.6793e-06	3.3351e-06	1383.5	371.83	3.1555e-06	1.3281e-06	423.72	142.26	124.05	42.334	7.0774e-06	52.118	0.00059226	0.00058846	0.00016338	1411.7	6.4208e-06	6.3908e-06	1409.1	380.76	6.4082e-06	6.4449e-06	434	145.7	126.75	43.682	6.4873e-06	53.98	306.322	134.092	113.809	87.078	197.043	228.770	87.069	92.165	233.131	226.510	91.283	96.092	96.671	100.914	210.173	99.982	-8191	255	
20855.781	1	1	0	0	0.31955	0.031704	0.12997	0.18247	0.16224	0.099274	0.15011	0.14073	0.062691	0.22721	0.16822	0.25167	0.31739	0.34438	0.074588	0.22131	-2.5729	-2.5667	-2.6167	-3.1312	-2.35	-2.7938	-2.9521	-2.525	-2.9042	-2.8292	-2.5312	-3.1167	-2.4562	-2.7438	-2.9437	-2.5021	273.425	321.060	374.821	89.815	370.571	152.851	427.411	374.718	299.032	304.909	76.711	78.208	361.740	419.209	281.389	397.591	0.0011663	0.0002804	0.00026737	1377.4	3.2412e-06	7.2661e-06	1389.1	372.45	5.6453e-06	7.8884e-06	423.43	142.36	124.21	42.19	8.2545e-06	52.053	0.00060372	0.00059836	0.00016555	1411.3	6.4741e-06	6.5233e-06	1412.2	380.69	6.5015e-06	6.5112e-06	433.47	145.74	126.91	43.635	6.4682e-06	53.925	302.397	310.695	231.726	87.268	254.039	226.303	87.103	91.999	337.246	182.824	91.463	96.085	96.574	100.914	220.264	99.784	-8191	255	
20855.854	1	1	0	0	0.19795	0.25178	0.3157	0.17518	0.3153	0.24039	0.16361	0.34755	0.25604	0.058906	0.10997	0.5235	0.075161	0.26121	0.060163	0.27247	-2.1667	-2.5646	-2.4313	-3.05	-2.4188	-2.5771	-3.0479	-2.4958	-2.7687	-2.5563	-2.4729	-2.9542	-2.55	-2.6271	-2.7438	-2.4667	235.431	184.666	203.432	416.987	170.351	156.028	406.992	388.827	76.345	210.415	378.294	379.670	363.382	365.344	185.753	426.782	0.0011348	0.00065678	4.9143e-05	1378.3	5.8858e-06	5.3011e-06	1384.5	372	9.4489e-06	7.8283e-06	421.88	142.05	123.79	42.018	4.7604e-06	52.167	0.00060391	0.00059132	0.00016424	1409.7	6.498e-06	6.4674e-06	1408.6	380.69	6.4094e-06	6.4614e-06	433.14	145.37	126.69	43.598	6.3699e-06	53.94	311.708	185.107	340.785	87.287	166.873	288.728	86.787	92.170	276.150	240.302	91.154	95.996	96.776	100.608	246.523	99.942	-8191	255	
20855.975	1	1	0	0	0.16344	0.084825	0.27835	0.33518	0.073452	0.19163	0.25957	0.096339	0.3518	0.084081	0.23564	0.12705	0.061341	0.23776	0.18596	0.02801	-2.325	-2.6937	-2.2438	-3.0125	-2.4875	-2.6146	-3.2042	-2.4333	-2.5854	-2.7854	-2.325	-2.9896	-2.7583	-2.5604	-2.9021	-2.5479	270.986	342.947	246.039	395.223	366.959	166.074	363.632	315.824	241.663	367.139	312.320	429.497	117.133	420.537	116.393	142.117	0.0011635	0.00056876	0.00040767	1376.6	6.3561e-06	5.1307e-06	1385.9	371	5.0278e-06	6.6013e-06	423.58	142.51	124.09	42.215	4.7387e-06	52.138	0.00059009	0.00057969	0.00016263	1410.2	6.364e-06	6.3638e-06	1407.2	380.2	6.3655e-06	6.3887e-06	433.3	145.65	126.91	43.595	6.345e-06	53.945	309.448	144.888	158.540	87.306	183.514	366.922	87.022	92.041	312.074	311.770	91.110	96.073	96.626	100.741	253.339	99.782	-8191	255	
20856.068	1	1	0	0	0.060183	0.11669	0.21356	0.40023	0.19299	0.023188	0.33187	0.22514	0.23202	0.071774	0.13134	0.096458	0.12661	0.24575	0.1208	0.019335	-2.2417	-2.8563	-2.2125	-3.0292	-2.6875	-2.5354	-3.1167	-2.7125	-2.5646	-2.9021	-2.5042	-3.0312	-2.7583	-2.3958	-2.775	-2.5375	258.837	310.301	112.784	359.680	416.520	75.381	319.838	86.603	248.583	132.660	103.540	116.947	426.671	356.192	314.076	415.118	0.001132	0.00058362	0.0003455	1382.3	9.0901e-06	6.2073e-06	1387.1	370.73	3.368e-06	1.025e-05	421.05	141.79	123.86	41.972	5.2582e-06	52.058	0.00058361	0.00058045	0.00016013	1410.8	6.2602e-06	6.2815e-06	1408.3	380	6.2919e-06	6.242e-06	432.26	145.16	126.54	43.515	6.1951e-06	53.796	306.096	432.252	191.960	87.274	228.313	282.104	87.227	92.109	159.683	238.760	91.105	96.014	96.720	101.033	245.649	99.916	-8191	255	
20856.164	1	1	0	0	0.20794	0.1628	0.13835	0.42774	0.26555	0.24154	0.30776	0.31248	0.083885	0.19662	0.18226	0.13094	0.16501	0.17644	0.22554	0.2801	-2.1792	-2.9542	-2.3937	-2.975	-2.8771	-2.4	-3.0333	-2.6562	-2.6479	-2.9104	-2.4083	-2.8187	-3.0583	-2.4854	-2.8583	-2.6083	373.709	319.226	133.729	86.949	138.406	426.356	365.761	361.544	230.207	166.740	409.765	322.592	116.925	210.170	236.869	334.888	0.0011466	0.00088055	0.0001946	1379	5.1162e-06	4.8901e-06	1382.6	370.24	8.365e-06	6.8892e-06	422.81	142.1	123.33	42.086	3.0594e-06	52.104	0.00058091	0.00057444	0.00015787	1408.5	6.276e-06	6.3003e-06	1406.1	379.65	6.2557e-06	6.2899e-06	432.16	145.49	126.42	43.525	6.265e-06	53.806	311.991	160.021	208.276	87.213	196.152	239.483	87.122	91.915	250.937	161.891	91.535	96.127	96.648	100.862	238.483	99.984	-8191	255	
20856.262	1	1	0	0	0.13708	0.08308	0.13315	0.41919	0.17864	0.067483	0.34514	0.1636	0.052274	0.19948	0.097839	0.31813	0.21289	0.14916	0.090873	0.17126	-2.0146	-2.8812	-2.3583	-2.7854	-2.7146	-2.3021	-3.0396	-2.6	-2.3354	-3.0396	-2.5479	-2.6875	-2.9208	-2.4833	-2.7792	-2.6521	366.143	254.236	282.786	353.755	150.133	316.993	344.638	302.535	379.705	344.486	162.148	423.895	423.294	162.892	293.401	319.979	0.001243	0.00030821	0.00021554	1381	1.1281e-05	2.5806e-06	1381.6	371.93	6.0662e-06	6.0601e-06	422.52	142.03	123.32	42.305	7.0655e-06	52.225	0.00058331	0.00056906	0.00015669	1407.3	6.2687e-06	6.1997e-06	1405.8	380.34	6.2503e-06	6.233e-06	432.79	145.5	126.28	43.569	6.3159e-06	53.907	303.432	150.372	170.666	87.406	244.738	179.600	87.225	92.059	264.154	233.312	91.046	96.231	96.544	100.656	116.588	99.800	-8191	255	
20856.381	1	1	0	0	0.19129	0.27966	0.090147	0.10457	0.065292	0.24662	0.15941	0.060269	0.18954	0.081176	0.14362	0.13761	0.1742	0.082423	0.25924	0.041041	-2.1479	-2.9292	-2.6688	-2.8979	-2.6833	-2.5333	-3.075	-2.6937	-2.4854	-2.75	-2.775	-2.7271	-3.0375	-2.5333	-2.775	-2.7667	280.389	388.096	177.095	427.074	128.062	333.474	353.512	95.425	428.848	126.676	79.094	418.680	370.034	97.851	376.247	362.669	0.0010828	5.8916e-05	0.00014245	1376.8	4.4417e-06	4.4114e-06	1385.1	371.26	1.1907e-05	3.9055e-06	422.29	141.89	123.77	42.023	1.0417e-05	52.173	0.00058383	0.00057456	0.00015953	1407.2	6.2553e-06	6.2776e-06	1405.9	380.21	6.2188e-06	6.2003e-06	432.96	145.42	126.48	43.543	6.2817e-06	53.83	304.945	361.828	167.900	87.257	212.187	227.091	87.024	91.807	265.703	229.340	91.242	96.311	96.448	100.941	177.043	99.781	-8191	255	
20856.477	1	1	0	0	0.11917	0.14706	0.32044	0.19875	0.22339	0.054719	0.23233	0.22574	0.1384	0.077804	0.15149	0.40913	0.24992	0.15987	0.13236	0.17955	-1.9354	-2.9125	-2.5792	-2.8417	-2.8875	-2.3896	-2.8271	-2.7729	-2.3771	-2.8521	-2.6167	-2.5917	-2.9021	-2.4	-2.7583	-2.9125	103.691	132.557	121.003	389.040	381.359	418.968	394.318	403.285	337.616	84.450	75.159	343.931	361.381	382.325	201.238	395.465	0.0012325	0.00019144	0.00014848	1381.3	7.1448e-06	8.6134e-06	1379.4	371.16	5.8475e-06	1.8123e-06	422.26	142.74	124.35	42.032	8.012e-06	52.002	0.00057935	0.00057084	0.00015848	1409.9	6.2059e-06	6.2249e-06	1406.4	379.4	6.1561e-06	6.1878e-06	431.68	145.49	126.54	43.461	6.2164e-06	53.818	315.507	110.260	182.294	87.165	217.937	225.189	87.119	92.123	268.179	410.826	91.263	96.106	96.333	100.896	186.730	99.731	-8191	255	
20856.572	1	1	0	0	0.18246	0.089694	0.11061	0.29349	0.14908	0.12417	0.50648	0.20451	0.096724	0.18212	0.19987	0.2798	0.33695	0.33528	0.1675	0.14548	-2.0854	-2.7333	-2.5271	-2.75	-3.0417	-2.3833	-2.9292	-3.1083	-2.2458	-2.7625	-2.9146	-2.5687	-2.9479	-2.5875	-2.7375	-2.9938	388.266	91.231	88.910	399.541	199.688	319.935	380.967	79.172	189.755	317.413	414.017	360.947	320.912	404.539	137.516	344.457	0.0012042	0.00065545	0.00011093	1380.4	6.3309e-06	7.3529e-06	1381.8	370.84	7.9255e-06	1.4392e-06	421.44	141.86	123.9	41.983	1.017e-05	51.884	0.00056949	0.00056539	0.00015681	1408.1	6.2012e-06	6.1414e-06	1406.7	379.53	6.1139e-06	6.1366e-06	431.58	145.28	126.45	43.486	6.1764e-06	53.763	303.509	140.569	119.947	87.307	247.592	240.103	86.925	91.817	220.811	207.279	91.306	96.082	96.563	100.619	183.148	99.875	-8191	255	
20856.670	1	1	0	0	0.18961	0.1536	0.18783	0.21617	0.27558	0.12241	0.31506	0.17909	0.048755	0.038027	0.024654	0.19658	0.3205	0.13358	0.067816	0.11737	-1.9562	-2.7146	-2.6813	-2.5604	-2.8229	-2.3958	-2.8167	-3.0958	-2.4458	-2.9667	-2.7792	-2.6979	-2.8896	-2.7188	-2.6646	-2.9396	427.270	304.373	336.453	395.840	135.710	206.649	376.754	386.902	74.817	282.994	380.764	146.101	79.910	353.087	345.845	255.546	0.00093787	0.00067083	7.8836e-05	1379.3	1.1932e-05	4.1732e-06	1384.3	373.09	2.2874e-06	2.6977e-06	422.28	141.53	123.73	42.229	7.5559e-06	51.823	0.0005665	0.0005605	0.00015667	1407.6	6.0601e-06	6.0837e-06	1406.8	380.09	6.1257e-06	6.1191e-06	432.62	145.12	126.44	43.536	6.16e-06	53.676	308.726	137.987	253.685	87.132	227.231	154.742	87.031	91.750	325.153	300.560	91.355	96.168	96.527	101.006	211.213	99.896	-8191	255	
20856.766	1	1	0	0	0.033843	0.062786	0.174	0.046479	0.10017	0.06279	0.40748	0.27055	0.25013	0.33504	0.32616	0.23675	0.11522	0.045082	0.25015	0.24354	-1.9229	-2.7188	-2.675	-2.5479	-2.9479	-2.6333	-2.6937	-2.9188	-2.5104	-2.7708	-2.7771	-2.5292	-2.8563	-2.8063	-2.4146	-3.0271	170.205	111.027	150.704	401.848	154.333	135.009	355.167	344.889	122.430	158.896	400.801	414.892	410.009	137.056	310.449	317.922	0.0012331	0.00065688	0.00012749	1379.6	1.1311e-05	3.7431e-06	1385.7	370.32	3.2603e-06	7.8717e-06	421.82	142.57	123.54	42.162	9.5644e-06	51.83	0.00056457	0.00056599	0.00015615	1407.4	6.1006e-06	6.1251e-06	1405.8	379.12	6.0352e-06	6.115e-06	431.55	145.37	126.37	43.524	6.1037e-06	53.662	310.477	194.077	152.354	87.217	213.186	241.808	86.927	92.014	288.194	192.347	91.270	96.187	96.554	100.663	196.999	99.548	-8191	255	
20856.861	1	1	0	0	0.13114	0.2747	0.16193	0.34508	0.28003	0.12765	0.33073	0.31155	0.011915	0.30233	0.32255	0.2294	0.1646	0.13785	0.06839	0.18074	-1.9438	-2.6437	-2.7854	-2.7062	-2.7583	-2.8333	-2.6479	-3.0875	-2.3042	-2.7333	-3.0021	-2.4521	-2.7521	-2.6375	-2.4437	-3.1521	271.596	286.292	241.455	363.027	79.759	84.836	390.923	338.790	266.870	430.559	375.415	139.986	366.304	399.367	80.912	380.279	0.0010002	0.00037517	0.00012905	1381.2	6.2462e-06	9.4208e-06	1384.4	371.84	6.4166e-06	2.8085e-06	419.73	141.8	123.7	42.134	5.4878e-06	52.002	0.0005622	0.00056135	0.00015408	1406.1	6.0561e-06	6.0807e-06	1405.2	379.73	6.0364e-06	6.1068e-06	431.18	145.12	126.28	43.477	6.1575e-06	53.68	312.099	183.251	170.070	87.295	231.165	226.702	87.135	91.884	286.123	207.984	91.068	96.125	96.370	100.941	200.497	99.885	-8191	255	
20856.957	1	1	0	0	0.30494	0.17476	0.14403	0.2566	0.075861	0.18134	0.15585	0.41492	0.064423	0.21103	0.014585	0.036264	0.20545	0.22784	0.1128	0.11237	-2.1875	-2.5146	-2.8875	-2.6146	-2.7125	-2.8438	-2.5417	-2.8979	-2.5375	-2.6583	-2.9583	-2.4771	-2.8729	-2.8792	-2.425	-3.15	191.246	152.163	316.703	409.699	250.049	170.466	338.258	408.269	357.832	299.460	160.015	138.304	397.850	113.583	162.027	163.442	0.0011182	0.00082387	0.00024548	1380	3.4961e-06	4.7729e-06	1383.6	371.04	7.5995e-06	1.0255e-05	420.14	141.95	123.5	42.128	8.6745e-07	52.002	0.00056325	0.00056004	0.00015554	1407.2	6.0756e-06	6.1246e-06	1406.8	379.11	6.1282e-06	6.1284e-06	431.42	145.03	126.33	43.448	6.0552e-06	53.722	303.691	130.746	130.230	87.225	206.376	234.887	87.173	91.955	237.682	278.034	90.957	96.355	96.516	101.042	270.969	100.025	-8191	255	
20857.076	1	1	0	0	0.10574	0.13181	0.18127	0.25266	0.42534	0.27287	0.11947	0.14868	0.16869	0.14347	0.19657	0.33387	0.16299	0.20723	0.15248	0.074312	-2.0271	-2.4625	-2.9062	-2.5021	-2.6479	-2.6937	-2.5187	-2.8875	-2.6604	-2.3875	-2.95	-2.5062	-2.7833	-2.8854	-2.4437	-2.9271	153.950	347.136	108.036	381.625	418.642	306.479	377.295	81.805	260.863	83.133	385.818	387.485	226.786	412.795	361.130	424.358	0.001123	0.00037491	0.00030944	1377.2	6.179e-06	3.1857e-06	1379.5	371.23	3.3925e-06	1.9693e-06	422.01	142.36	123.85	41.989	8.9143e-06	52.325	0.00056268	0.00055297	0.00015438	1406.1	6.0522e-06	6.024e-06	1403.7	379.4	6.0661e-06	6.0799e-06	432.05	145.26	126.44	43.489	6.0704e-06	53.782	311.937	111.412	205.477	87.062	232.122	206.681	87.097	91.980	271.303	266.736	91.169	96.232	96.731	100.796	198.592	99.791	-8191	255	
20857.150	1	1	0	0	0.17995	0.19079	0.13771	0.39195	0.08143	0.22097	0.21317	0.010779	0.059613	0.19617	0.28212	0.3025	0.21337	0.21591	0.11621	0.13247	-2.1604	-2.2938	-2.8187	-2.7354	-2.6125	-2.8979	-2.5521	-2.9292	-2.6375	-2.4958	-3.0521	-2.675	-2.6771	-2.9708	-2.5042	-2.7229	349.442	233.062	357.725	377.782	148.393	256.614	409.226	431.935	222.295	390.872	381.735	104.837	410.953	361.223	409.493	182.521	0.0010829	0.00081362	0.00021042	1378.3	4.903e-06	6.5646e-06	1380.2	370.78	4.932e-06	5.4772e-06	420.7	141.51	123.82	41.992	7.5257e-06	52.127	0.00056187	0.0005605	0.00015563	1404.8	6.1461e-06	6.0846e-06	1406.5	379.62	6.0955e-06	6.1298e-06	431.79	145.07	126.43	43.462	6.1331e-06	53.721	300.317	180.249	145.197	87.190	220.206	236.336	87.094	92.115	254.679	283.507	91.056	96.152	96.528	100.914	244.701	99.859	-8191	255	
20857.244	1	1	0	0	0.20095	0.34137	0.28963	0.29888	0.13728	0.25862	0.16344	0.17614	0.30125	0.15538	0.16957	0.21918	0.23027	0.20848	0.26395	0.087773	-2.0875	-2.35	-2.8812	-2.7771	-2.6896	-2.8479	-2.4625	-2.725	-2.8396	-2.3375	-2.8375	-2.6937	-2.7812	-3.0333	-2.5458	-2.8958	361.821	398.395	323.197	413.946	213.268	210.205	369.280	300.437	137.225	291.495	209.175	404.391	409.674	429.791	159.152	118.955	0.0011329	0.00075108	0.00021061	1380.2	4.812e-06	5.57e-06	1382.5	370.94	3.5909e-06	4.1455e-06	422.01	141.92	123.52	42.177	8.3927e-06	52.133	0.00057235	0.00056062	0.00015537	1407.2	6.1959e-06	6.125e-06	1406.6	379.15	6.1976e-06	6.1506e-06	432.1	145.33	126.42	43.489	6.1952e-06	53.777	311.479	167.391	163.628	87.370	226.019	202.391	87.124	92.070	258.945	187.993	91.425	96.136	96.590	100.810	226.853	99.660	-8191	255	
20857.342	1	1	0	0	0.11122	0.11897	0.32639	0.40016	0.071232	0.15447	0.19222	0.35685	0.22372	0.11284	0.38397	0.10416	0.31273	0.20195	0.16976	0.11715	-2.3354	-2.4	-2.8187	-2.8292	-2.6375	-2.7667	-2.375	-2.4646	-2.9229	-2.3146	-2.9542	-2.6688	-2.5375	-2.9604	-2.4521	-2.7188	225.010	133.685	313.452	428.289	97.800	212.806	339.082	324.891	147.067	419.096	75.796	74.497	422.960	85.577	414.809	311.624	0.0011453	0.00033556	0.00017659	1377.8	9.1229e-06	6.4111e-06	1383.1	372.66	8.1491e-06	9.4904e-06	420.09	142.12	123.5	42.121	7.332e-06	51.854	0.00057279	0.0005674	0.0001568	1407.3	6.219e-06	6.1902e-06	1405.4	379.66	6.1146e-06	6.1477e-06	431.64	145.06	126.48	43.553	6.1746e-06	53.744	311.410	246.909	158.374	87.233	207.362	180.604	87.072	91.953	307.001	202.070	91.360	96.146	96.691	100.760	218.540	99.779	-8191	255	
20857.461	1	1	0	0	0.062155	0.15298	0.18928	0.24156	0.075077	0.093246	0.37521	0.28826	0.21088	0.15709	0.15457	0.17028	0.13154	0.40165	0.21134	0.12192	-2.2646	-2.3729	-2.5	-2.7333	-2.3958	-2.6854	-2.6813	-2.6562	-2.7167	-2.3458	-2.8	-2.7417	-2.5083	-2.8458	-2.4854	-2.8021	229.401	352.587	394.948	376.973	310.030	175.856	328.914	338.271	423.589	219.733	94.974	82.710	361.751	415.302	105.617	168.693	0.0013299	0.00072067	0.00022304	1377.9	1.0706e-05	5.1522e-06	1383.6	370.43	7.652e-06	6.3795e-06	420.81	141.81	123.64	42.088	6.6752e-06	51.912	0.00056977	0.00056537	0.00015783	1406.5	6.1938e-06	6.1865e-06	1404.4	379.05	6.1427e-06	6.1511e-06	431.43	145.1	126.32	43.512	6.1541e-06	53.687	317.808	202.591	194.325	87.269	220.573	212.550	86.996	92.093	266.947	207.604	91.407	96.273	96.713	100.739	202.826	99.720	-8191	255	
20857.557	1	1	0	0	0.17011	0.22845	0.097454	0.15905	0.070611	0.1319	0.25322	0.16128	0.065728	0.2019	0.1511	0.16524	0.10957	0.099178	0.16121	0.2018	-2.4813	-2.4958	-2.6125	-2.85	-2.4062	-2.7333	-2.8125	-2.7625	-2.8187	-2.5187	-2.5833	-2.9104	-2.6063	-2.8063	-2.6229	-2.6979	418.071	312.625	246.189	99.484	122.653	241.319	404.942	97.846	222.629	135.975	99.661	305.182	260.278	415.707	209.973	409.829	0.0012468	0.00050124	0.00012843	1376.9	6.8543e-06	5.8673e-06	1384.9	369.73	3.6562e-06	3.2764e-06	421.1	141.87	123.84	42.083	6.0028e-06	51.749	0.00056994	0.00056036	0.00015773	1406.8	6.0978e-06	6.0981e-06	1404.7	378.5	6.0369e-06	6.0468e-06	431.14	144.8	126.19	43.4	6.0559e-06	53.62	304.525	159.906	85.491	87.252	230.584	253.127	87.117	92.145	261.512	319.576	91.240	95.701	96.428	100.866	258.813	99.842	-8191	255	
20857.654	1	1	0	0	0.21977	0.13029	0.17435	0.13432	0.26446	0.084468	0.19708	0.30466	0.1484	0.039242	0.22639	0.25839	0.13583	0.22362	0.34169	0.20071	-2.5187	-2.6	-2.7021	-2.9729	-2.4333	-2.9458	-2.8125	-2.6437	-2.8354	-2.6792	-2.6729	-2.9896	-2.6583	-2.8625	-2.6917	-2.5312	324.910	250.820	120.358	340.213	178.310	188.444	365.280	75.210	275.130	132.513	349.941	110.551	92.295	383.064	420.032	354.368	0.0011327	0.00050903	0.00020341	1378.1	7.8087e-06	2.4606e-06	1385.4	369.97	4.4388e-06	2.7303e-06	418.72	141.45	123.34	41.853	1.1389e-05	51.848	0.00056297	0.00055251	0.00015368	1404	6.0467e-06	6.0904e-06	1403.6	378.35	6.0909e-06	6.1395e-06	430.75	144.82	126.14	43.331	6.1313e-06	53.658	311.994	228.015	166.184	87.146	237.822	212.467	87.169	92.163	375.260	226.684	91.321	95.984	96.701	100.629	178.403	99.847	-8191	255	
20857.750	1	1	0	0	0.1694	0.035607	0.074748	0.27541	0.20122	0.087985	0.25817	0.29807	0.2445	0.19111	0.26874	0.22532	0.055924	0.19556	0.35681	0.079415	-2.4354	-2.4417	-2.5646	-3.0042	-2.2667	-2.6833	-2.8625	-2.4958	-2.675	-2.4917	-2.475	-2.8354	-2.5021	-2.825	-2.7188	-2.2812	111.211	177.229	346.632	89.076	267.649	224.747	429.708	424.513	122.946	420.089	385.044	203.365	359.128	77.556	364.657	296.256	0.0013265	0.00040879	0.00015445	1376.2	5.6282e-06	4.4313e-06	1378.3	370.13	5.4177e-06	1.4216e-05	421.76	142.29	123.82	42.174	2.3741e-06	51.738	0.00056602	0.00056147	0.00015623	1405.7	6.198e-06	6.1614e-06	1404	378.4	6.1513e-06	6.1464e-06	432	144.98	126.17	43.499	6.1884e-06	53.656	310.949	127.751	219.425	87.372	226.387	150.558	87.201	92.035	261.971	235.467	91.397	95.986	96.375	100.881	128.734	99.827	-8191	255	
20857.846	1	1	0	0	0.19098	0.17244	0.17145	0.33812	0.35848	0.13151	0.29583	0.30721	0.20871	0.15013	0.24012	0.43072	0.1568	0.1837	0.19684	0.30811	-2.3542	-2.6229	-2.3958	-2.8604	-2.4458	-2.6667	-2.8708	-2.5812	-2.6188	-2.5875	-2.5833	-2.9313	-2.3396	-2.5938	-2.5917	-2.3271	360.674	129.557	378.302	99.521	334.450	209.689	408.732	361.746	249.187	191.856	323.698	387.955	137.638	343.511	192.326	358.872	0.0011907	0.0011693	0.00021183	1372	7.2959e-06	2.4911e-06	1381	371.14	4.9584e-06	7.7924e-06	420.77	141.9	123.47	42.02	6.2681e-06	51.914	0.00056911	0.00057061	0.00015851	1406.4	6.276e-06	6.3033e-06	1406.5	379.41	6.2991e-06	6.3255e-06	431.99	145.1	126.21	43.498	6.2977e-06	53.681	316.701	182.107	146.825	87.247	236.924	162.018	86.971	91.946	212.417	179.833	91.288	95.888	96.847	100.803	245.468	100.054	-8191	255	
20857.941	1	1	0	0	0.090737	0.075816	0.19499	0.2807	0.13061	0.065701	0.14017	0.27022	0.089832	0.052095	0.12831	0.17753	0.15381	0.12134	0.15752	0.2099	-2.1521	-2.5354	-2.3896	-2.9062	-2.3625	-2.4917	-2.8521	-2.4479	-2.4792	-2.7583	-2.3708	-2.7833	-2.5271	-2.6604	-2.7771	-2.4896	259.324	141.522	330.230	352.360	371.412	280.683	328.059	115.767	191.706	261.159	413.618	318.248	107.582	349.569	423.569	345.783	0.0013419	0.0011122	0.00010376	1380.7	9.5448e-06	9.4401e-06	1387.1	370.56	1.0214e-05	1.0246e-06	422.36	142.12	123.67	42.124	4.7178e-06	51.898	0.00058396	0.00057729	0.00015988	1410.1	6.3074e-06	6.3004e-06	1408.8	379.35	6.3307e-06	6.3498e-06	432.61	145.32	126.66	43.597	6.3366e-06	53.781	305.359	168.869	145.235	87.135	200.403	248.109	87.063	91.913	234.635	191.802	91.108	95.917	96.491	100.801	85.434	99.769	-8191	255	
20858.062	1	1	0	0	0.15301	0.10077	0.16208	0.36396	0.098947	0.19441	0.083225	0.29076	0.24929	0.13048	0.059522	0.43354	0.18497	0.25939	0.12035	0.33598	-2.3521	-2.5896	-2.2708	-3.025	-2.5812	-2.4313	-2.8979	-2.2979	-2.8646	-2.7125	-2.3875	-2.9813	-2.6979	-2.5854	-2.7271	-2.3708	190.041	352.059	327.710	372.237	142.035	103.984	91.517	358.255	364.934	148.140	90.114	367.068	368.703	433.751	166.077	424.621	0.0011444	0.00085306	0.00018623	1379.6	4.6258e-06	6.8581e-06	1384.1	372.41	2.1783e-06	7.0464e-06	421.7	142.13	124.03	42.312	3.8256e-06	52.08	0.0005905	0.00058024	0.00016048	1410.7	6.3683e-06	6.3569e-06	1408.4	380.42	6.3545e-06	6.3779e-06	432.34	145.38	126.7	43.614	6.3523e-06	53.841	303.535	237.617	188.844	87.143	217.666	221.410	87.164	92.132	271.965	246.398	91.160	95.935	96.683	100.716	429.774	99.578	-8191	255	
20858.156	1	1	0	0	0.083003	0.18862	0.05836	0.24151	0.1555	0.42815	0.21779	0.12116	0.089422	0.19371	0.14886	0.21942	0.27422	0.19866	0.12302	0.35412	-2.3937	-2.7646	-2.2792	-2.9625	-2.5417	-2.4396	-2.9729	-2.4479	-2.5375	-2.7687	-2.4854	-2.7333	-2.7458	-2.5479	-2.7188	-2.6042	293.331	328.977	125.650	354.828	115.744	333.468	347.103	118.274	377.482	136.063	345.044	407.297	133.195	415.424	120.604	398.849	0.001395	0.001252	0.00022938	1379.9	7.61e-06	1.343e-06	1389.3	370.89	9.0342e-06	2.2717e-06	421.48	142.46	123.31	42.061	3.2167e-06	52.525	0.00058803	0.00057946	0.00016129	1410.9	6.3428e-06	6.305e-06	1408.6	380.2	6.347e-06	6.3053e-06	432.92	145.6	126.47	43.595	6.2638e-06	53.94	311.407	190.147	133.022	87.183	177.040	272.940	86.936	92.161	258.016	183.237	91.387	96.119	96.469	100.685	292.976	99.833	-8191	255	
20858.254	1	1	0	0	0.21359	0.15892	0.19975	0.22043	0.14171	0.15117	0.43978	0.11176	0.18264	0.1564	0.097658	0.049573	0.034309	0.22753	0.155	0.39871	-2.0479	-2.8312	-2.2896	-2.7375	-2.7271	-2.3917	-2.8396	-2.6417	-2.6792	-2.8854	-2.6396	-2.5042	-2.8	-2.6146	-2.7646	-2.4437	432.326	198.169	244.389	382.925	180.125	195.772	339.212	354.181	328.336	279.170	410.454	165.896	368.286	387.146	83.796	381.742	0.001323	0.00078196	0.00024619	1379.6	6.6474e-06	5.8557e-06	1389.3	370.88	5.8189e-06	3.701e-07	422.56	141.72	123.66	42.154	4.5571e-06	51.975	0.00058202	0.00057227	0.00015826	1410.5	6.2399e-06	6.2639e-06	1409.6	379.79	6.225e-06	6.2551e-06	432.34	145.09	126.54	43.581	6.2391e-06	53.806	306.073	152.468	206.478	87.186	239.298	248.469	87.182	91.790	281.892	433.088	91.321	96.039	96.842	100.569	124.611	99.808	-8191	255	
20858.373	1	1	0	0	0.047011	0.30032	0.031922	0.57896	0.11114	0.097632	0.24774	0.1369	0.18931	0.17164	0.25214	0.13389	0.27722	0.38267	0.17287	0.071801	-1.8375	-3.0125	-2.2729	-2.7979	-2.7083	-2.3896	-2.8542	-2.8167	-2.4	-2.7313	-2.5563	-2.6771	-2.9062	-2.3417	-2.675	-2.8937	155.244	210.631	198.738	376.203	365.515	394.441	374.835	292.028	308.065	423.435	371.182	176.678	123.431	391.162	87.998	320.954	0.0012104	0.0006009	0.00021422	1379.3	4.5061e-06	2.7338e-06	1382.2	371.01	3.6018e-06	7.6879e-06	421.94	141.98	123.81	42.092	5.3504e-06	52.121	0.00057706	0.00057071	0.00015836	1409.8	6.269e-06	6.2542e-06	1409	379.83	6.3111e-06	6.2279e-06	432.93	145.13	126.49	43.514	6.2817e-06	53.847	309.275	165.695	166.512	87.259	199.710	112.099	87.128	91.971	328.552	147.371	91.122	96.081	96.646	100.713	218.103	99.823	-8191	255	
20858.445	1	1	0	0	0.22685	0.22839	0.0095583	0.13269	0.11617	0.10266	0.27882	0.35083	0.08578	0.30943	0.25976	0.064845	0.15946	0.32903	0.23151	0.11132	-1.825	-3.0229	-2.425	-2.7167	-2.6729	-2.4125	-2.8625	-2.7	-2.3146	-2.9	-2.5417	-2.6	-2.8729	-2.3708	-2.4958	-2.6521	103.093	85.403	76.583	374.255	274.559	93.758	369.657	398.005	413.811	242.531	319.072	401.168	231.269	354.414	115.299	372.524	0.0011118	0.0011142	0.00028739	1383.1	7.3326e-06	3.6658e-06	1387.2	370.61	4.5522e-06	6.1117e-06	421.29	142.37	124.09	42.029	1.0719e-05	52.057	0.00057651	0.00056953	0.00015915	1410.2	6.2332e-06	6.248e-06	1410.6	379.71	6.2311e-06	6.2895e-06	432.35	145.49	126.47	43.474	6.3078e-06	53.833	314.655	212.648	115.418	87.228	252.258	238.834	87.165	91.965	268.652	315.007	91.147	96.066	96.656	100.866	269.173	99.926	-8191	255	
20858.543	1	1	0	0	0.12146	0.0785	0.10162	0.2896	0.16425	0.1416	0.31071	0.43065	0.18294	0.12003	0.23309	0.078364	0.18458	0.055139	0.099547	0.15317	-1.9271	-2.7958	-2.5312	-2.7042	-2.8104	-2.3688	-2.7875	-2.8833	-2.2896	-2.7146	-2.6312	-2.575	-2.6833	-2.5208	-2.4813	-2.8271	264.142	382.281	324.112	385.712	347.719	161.943	79.509	355.857	159.895	86.024	418.158	139.806	362.091	168.173	161.039	341.529	0.0010658	0.00020275	0.00010782	1382.6	7.6738e-06	2.6222e-06	1380.4	369.96	1.1201e-05	2.4663e-06	421.55	141.76	123.5	41.912	7.0378e-06	52.023	0.00057563	0.00057064	0.00016059	1410.9	6.2355e-06	6.2303e-06	1408.3	379.51	6.1983e-06	6.2653e-06	432.33	145.2	126.42	43.46	6.3141e-06	53.757	316.386	215.377	143.272	87.237	229.463	234.782	87.117	91.860	250.708	192.537	91.469	96.009	96.517	100.375	200.241	100.120	-8191	255	
20858.639	1	1	0	0	0.086761	0.06031	0.14863	0.10212	0.11096	0.11835	0.36083	0.15789	0.38124	0.22327	0.23326	0.28627	0.2112	0.26718	0.12242	0.16293	-1.8646	-2.6667	-2.6292	-2.6813	-2.8812	-2.3667	-2.8563	-2.8292	-2.3042	-2.7021	-2.8563	-2.575	-2.9667	-2.4875	-2.6021	-2.7604	162.990	335.175	104.006	399.553	174.107	219.330	412.329	351.938	321.503	424.468	88.941	77.065	303.243	318.154	301.593	327.481	0.0010481	0.0011683	0.00013799	1378	8.807e-06	2.3532e-06	1383.5	372.16	8.011e-06	1.2285e-05	421.96	141.41	123.49	41.885	9.7258e-06	51.791	0.0005775	0.00057119	0.00015909	1408.2	6.2306e-06	6.2183e-06	1408.5	379.62	6.2575e-06	6.2524e-06	432.36	145.12	126.37	43.436	6.2951e-06	53.664	313.493	145.242	207.087	87.230	180.610	224.764	86.881	92.092	300.244	168.432	91.450	95.655	96.596	100.726	209.187	99.698	-8191	255	
20858.760	1	1	0	0	0.27412	0.25142	0.14747	0.11008	0.22426	0.15941	0.2989	0.29462	0.19	0.11982	0.13177	0.34269	0.15829	0.41456	0.22934	0.28921	-1.9	-2.6	-2.6604	-2.5167	-2.7271	-2.5812	-2.6958	-3.0021	-2.3438	-2.7896	-2.8083	-2.5667	-2.9104	-2.5833	-2.4562	-2.8542	356.982	277.551	424.755	347.241	414.499	236.952	387.164	392.452	332.013	244.131	78.785	251.656	229.605	410.664	236.589	411.450	0.0011864	0.00084185	0.00015271	1383	1.1763e-05	6.7028e-06	1383.5	370.54	3.13e-06	3.9991e-06	421.61	142.19	123.18	41.928	3.059e-06	52.208	0.00057767	0.00056963	0.00015869	1409.6	6.2272e-06	6.207e-06	1409	379.21	6.1779e-06	6.2296e-06	431.51	145.12	126.06	43.464	6.195e-06	53.839	308.323	126.036	129.466	87.086	222.597	259.034	87.219	91.836	241.229	167.488	91.431	95.808	96.807	100.810	195.098	99.867	-8191	255	
20858.855	1	1	0	0	0.1115	0.12539	0.30869	0.29425	0.15859	0.10685	0.20471	0.07796	0.14296	0.031026	0.23562	0.16922	0.07072	0.19327	0.13843	0.15468	-1.8104	-2.6271	-2.6583	-2.6	-2.775	-2.4729	-2.6271	-2.8792	-2.4875	-2.625	-2.875	-2.5667	-2.7625	-2.625	-2.3396	-2.8354	323.139	356.847	263.274	433.487	172.077	360.353	378.546	296.788	121.406	295.755	405.665	115.437	341.971	371.173	365.217	319.453	0.0011564	0.00032619	0.0001571	1374.8	3.3524e-06	1.7221e-06	1384.1	370.88	4.0145e-06	1.1435e-05	422.39	142.12	123.73	42.067	7.4308e-06	52.079	0.00057039	0.00057	0.00015814	1407.2	6.1675e-06	6.1689e-06	1407.3	379.31	6.1642e-06	6.1686e-06	431.3	145.16	126.44	43.459	6.1534e-06	53.746	310.395	325.060	186.342	87.385	198.774	281.174	87.009	91.887	266.973	207.110	91.330	96.054	96.838	100.797	174.164	99.892	-8191	255	
20858.951	1	1	0	0	0.22948	0.40571	0.023504	0.45128	0.11783	0.011476	0.089902	0.13291	0.23987	0.28017	0.18329	0.17196	0.22507	0.50236	0.12252	0.033342	-1.8604	-2.5875	-2.7833	-2.3458	-2.5792	-2.5583	-2.6688	-2.775	-2.3937	-2.4021	-2.9562	-2.4021	-2.7854	-2.6292	-2.2542	-2.7375	301.024	152.405	128.807	416.290	121.397	120.720	363.179	328.512	156.484	413.004	99.194	293.815	365.171	400.556	358.946	301.629	0.0012614	0.00018677	0.00023808	1379.4	2.3531e-06	6.4874e-06	1385.4	372.56	8.9495e-06	7.3762e-06	421.97	141.87	123.67	42.137	6.8409e-06	52.179	0.00057573	0.00056525	0.00015637	1407.1	6.1704e-06	6.2165e-06	1406.6	379.37	6.1859e-06	6.2191e-06	432.26	145.19	126.43	43.562	6.2016e-06	53.805	305.303	111.862	166.450	87.127	269.742	193.927	87.225	91.888	226.693	268.373	91.393	95.967	96.614	100.926	172.372	99.795	-8191	255	
20859.021	1	1	0	0	0.071384	0.17895	0.18891	0.46884	0.19507	0.066795	0.10789	0.29994	0.20476	0.029666	0.18298	0.11783	0.11896	0.28939	0.085206	0.23582	-2.1292	-2.4333	-2.6625	-2.7396	-2.6583	-2.5354	-2.6104	-3.0792	-2.2729	-2.2417	-2.9688	-2.4958	-2.7687	-2.775	-2.2687	-2.6167	165.551	417.061	432.201	421.321	409.585	375.114	414.515	379.250	230.969	287.306	202.894	388.246	134.861	416.341	172.318	334.349	0.0013234	0.00066858	0.00017006	1379.9	5.812e-06	3.9093e-06	1384.3	368.89	7.287e-06	7.2233e-06	421.67	141.72	123.37	42.175	6.708e-06	52.183	0.00057254	0.00056931	0.00015686	1408.1	6.1216e-06	6.099e-06	1407.8	378.3	6.0734e-06	6.0628e-06	431.63	144.98	126.14	43.395	6.0022e-06	53.697	302.261	135.064	144.518	87.434	195.361	198.908	87.017	92.092	302.504	229.710	91.358	96.021	96.584	100.616	171.322	99.783	-8191	255	
20859.141	1	1	0	0	0.18872	0.29296	0.18269	0.13421	0.2934	0.010354	0.4628	0.25104	0.12833	0.18461	0.18994	0.099482	0.27586	0.036764	0.25534	0.25231	-1.9292	-2.2104	-2.6417	-2.6562	-2.4688	-2.5375	-2.575	-2.8125	-2.6562	-2.4896	-2.9333	-2.3708	-2.7771	-2.8917	-2.2521	-2.7083	201.402	326.834	320.164	413.366	78.709	185.005	344.006	404.845	395.954	379.715	393.407	412.763	349.966	367.087	271.071	385.172	0.0011642	0.00077612	0.00012524	1378.5	1.0437e-05	3.8936e-06	1385.8	370.03	5.3623e-06	8.0294e-06	421.5	142.41	123.76	42.206	7.5645e-06	51.869	0.00055649	0.00054434	0.00015186	1408.3	5.976e-06	5.9045e-06	1405.3	378.04	5.7724e-06	5.7579e-06	429.97	144.58	125.83	43.274	5.5261e-06	53.268	299.510	147.007	136.340	87.291	207.036	348.563	87.021	91.940	291.339	235.502	91.308	95.954	96.517	100.785	214.348	99.764	-8191	255	
20859.238	1	1	0	0	0.13027	0.032572	0.097134	0.397	0.24674	0.18521	0.24083	0.089138	0.094924	0.21275	0.1504	0.068516	0.19214	0.23009	0.028586	0.23494	-2.0062	-2.4188	-2.7979	-2.5771	-2.7208	-2.6021	-2.5667	-2.7167	-2.5938	-2.3667	-2.9708	-2.5187	-2.7021	-3.025	-2.2958	-2.7	300.333	338.428	260.163	413.084	207.018	306.798	352.430	405.957	349.644	110.530	432.084	294.960	203.709	425.146	165.624	328.119	0.0012034	0.00046278	0.00036606	1371	5.3961e-06	2.2523e-06	1370.2	368.37	7.0077e-06	9.7125e-06	418.64	141.12	122.89	41.782	7.7135e-06	51.736	0.00051219	0.00049852	0.00013769	1394.9	5.3709e-06	5.2945e-06	1391.6	375.62	5.2699e-06	5.2397e-06	426.96	143.42	124.77	42.907	5.2317e-06	53.108	311.562	159.308	173.566	87.145	220.199	246.423	87.138	92.013	228.174	270.471	91.291	95.999	96.796	100.959	433.596	99.934	-8191	255	
20859.334	1	1	0	0	0.12683	0.17147	0.19135	0.26899	0.11367	0.14749	0.17861	0.2517	0.17171	0.12316	0.37419	0.26454	0.13926	0.08725	0.11256	0.13345	-2.1521	-2.3229	-2.8417	-2.6021	-2.5125	-2.7438	-2.5917	-2.675	-2.7292	-2.3125	-2.8375	-2.6312	-2.3229	-2.8792	-2.3875	-2.7146	398.761	239.194	93.618	402.695	385.593	433.518	322.482	87.565	158.149	141.509	129.352	148.067	247.962	369.689	223.449	358.555	0.001104	0.00087964	0.00021645	1364.4	7.463e-06	3.8511e-06	1369.7	367.53	1.0006e-06	6.4594e-06	418.81	140.87	123.01	41.797	8.3203e-06	51.899	0.00048486	0.00047678	0.00013304	1388.7	5.2481e-06	5.2684e-06	1389.8	374.96	5.2781e-06	5.3067e-06	426.84	143.43	124.81	42.984	5.2968e-06	53.187	313.459	189.115	200.670	87.162	253.795	216.161	87.103	91.990	150.759	180.707	91.474	96.198	96.731	100.949	210.310	100.069	-8191	255	
20859.453	1	1	0	0	0.090311	0.12671	0.27169	0.10008	0.23152	0.16602	0.087841	0.13324	0.15314	0.14031	0.053095	0.20136	0.22828	0.15507	0.25151	0.19419	-2.0396	-2.1792	-2.7396	-2.7646	-2.3667	-2.9562	-2.5958	-2.6167	-2.7708	-2.3292	-2.7313	-2.65	-2.4958	-3.0062	-2.3708	-2.5771	331.538	153.952	104.573	145.683	242.211	137.942	250.549	88.351	156.489	179.187	423.673	397.953	363.135	399.628	182.457	331.123	0.0012129	0.00078496	0.00015022	1369.6	9.6905e-06	4.4783e-06	1373	367.91	6.8224e-06	8.164e-06	419.86	141.54	123.08	41.757	4.1791e-06	51.678	0.00049409	0.00048755	0.00013348	1393.2	5.2536e-06	5.2535e-06	1392	374.88	5.2626e-06	5.2555e-06	426.94	143.58	124.78	42.991	5.3137e-06	53.177	308.994	124.359	164.548	87.349	219.119	150.592	86.886	92.002	243.798	274.771	90.995	95.951	96.441	100.665	221.232	99.902	-8191	255	
20859.551	1	1	0	0	0.10864	0.21256	0.054277	0.28921	0.11637	0.16711	0.046593	0.40049	0.34466	0.31711	0.096612	0.29039	0.1826	0.10355	0.28513	0.20576	-2.3354	-2.3083	-2.5083	-2.8792	-2.3646	-2.9375	-2.7354	-2.5875	-2.65	-2.3688	-2.6146	-2.6729	-2.3104	-2.8	-2.525	-2.5208	114.414	179.391	206.672	429.247	266.572	328.849	393.312	393.728	311.619	251.478	409.362	404.968	405.285	399.146	136.928	141.905	0.0013505	0.00058595	0.00029177	1369.1	9.5901e-06	1.2987e-06	1372.7	368.84	6.2393e-06	4.946e-06	417.72	141.31	122.82	41.788	6.5622e-06	51.652	0.00049961	0.00048887	0.00013701	1393.4	5.358e-06	5.3747e-06	1392.3	375.28	5.369e-06	5.3511e-06	426.24	143.5	124.71	42.894	5.4716e-06	53.166	315.304	162.543	149.240	87.262	225.457	298.229	87.078	92.158	290.302	279.090	91.377	96.080	96.735	100.862	201.769	99.829	-8191	255	
20859.646	1	1	0	0	0.16435	0.11161	0.25978	0.41706	0.10171	0.076712	0.13231	0.33335	0.074345	0.15055	0.29066	0.28985	0.27514	0.20991	0.10084	0.20377	-2.4125	-2.3312	-2.725	-2.8271	-2.5583	-2.8063	-2.6583	-2.4125	-2.9125	-2.4271	-2.7292	-2.8896	-2.3521	-2.8271	-2.6229	-2.4125	167.569	349.182	296.947	375.984	363.155	315.118	343.185	352.922	112.878	404.036	422.081	422.439	375.938	301.991	240.403	148.060	0.0011264	0.00057981	0.00015451	1365.2	3.5616e-06	4.2446e-06	1375.3	367.73	2.1338e-06	9.6029e-06	418.74	141.08	122.79	41.742	5.7357e-06	51.637	0.00050935	0.00049878	0.00013949	1392.7	5.4901e-06	5.4379e-06	1394.1	375.6	5.4239e-06	5.4297e-06	427.28	143.62	124.84	42.947	5.455e-06	53.139	309.670	130.287	130.688	87.147	205.359	239.170	87.051	91.812	298.015	220.173	91.255	95.998	96.502	100.906	236.004	100.069	-8191	255	
20859.742	1	1	0	0	0.14234	0.23978	0.063903	0.27128	0.17119	0.081199	0.2697	0.37811	0.27074	0.1313	0.084667	0.21578	0.3951	0.2385	0.17255	0.36655	-2.3854	-2.2604	-2.6354	-2.8542	-2.3604	-2.7938	-2.7521	-2.4667	-2.9792	-2.4958	-2.8083	-2.9042	-2.375	-2.7854	-2.8583	-2.6333	399.130	262.180	222.122	407.615	134.117	80.834	92.959	378.798	416.715	115.408	229.476	371.693	410.874	414.702	75.734	334.143	0.0010704	0.00074168	7.2915e-05	1362.9	1.0069e-05	7.23e-06	1369.8	367.61	7.2395e-06	5.8007e-06	417.6	140.6	123	41.482	4.2801e-06	51.585	0.00050652	0.00049818	0.00013899	1391.9	5.4495e-06	5.4075e-06	1390.4	374.26	5.3699e-06	5.3817e-06	426.49	143.38	124.7	42.869	5.3945e-06	53.015	303.601	190.396	138.586	87.277	249.367	216.257	87.197	92.027	288.752	307.901	91.447	96.423	96.805	100.682	169.831	99.917	-8191	255	
20859.840	1	1	0	0	0.29499	0.085662	0.065363	0.21243	0.27499	0.32174	0.2916	0.25498	0.2118	0.2117	0.097984	0.16147	0.050395	0.23332	0.34629	0.13607	-2.4396	-2.3125	-2.4521	-2.9562	-2.2771	-2.7229	-2.9667	-2.4521	-2.7896	-2.4938	-2.6042	-2.8167	-2.4625	-2.775	-2.5687	-2.3646	338.944	362.303	243.804	76.570	105.059	221.406	393.372	336.548	174.749	314.276	378.873	307.784	119.218	432.412	135.672	323.037	0.0010263	0.00036885	0.00020106	1363	1.1357e-05	3.2783e-06	1369.9	366.96	8.7273e-06	3.3097e-06	416.11	141.35	122.91	41.614	4.0298e-06	51.842	0.00049904	0.00049034	0.00013663	1392	5.3497e-06	5.3687e-06	1391.2	374.61	5.3633e-06	5.4299e-06	426.47	143.58	124.57	42.979	5.4758e-06	53.204	316.389	85.237	205.056	87.249	223.204	155.270	87.017	92.128	271.756	189.010	91.556	95.786	96.715	101.124	204.366	99.998	-8191	255	
20859.936	1	1	0	0	0.17622	0.13628	0.082091	0.13159	0.2901	0.12551	0.2637	0.34652	0.21918	0.21641	0.18041	0.18247	0.13644	0.12319	0.082835	0.12918	-2.4354	-2.3833	-2.2729	-2.9042	-2.2938	-2.6083	-3.0062	-2.5062	-2.6854	-2.7562	-2.4542	-2.9771	-2.3417	-2.7479	-2.7667	-2.4875	227.673	226.271	433.595	83.175	360.188	255.657	318.862	407.758	261.525	299.188	359.408	418.318	410.316	427.664	301.478	396.750	0.0011342	0.00069521	0.0001131	1369.8	4.0789e-06	1.6022e-06	1376.1	367.33	2.6808e-06	4.4333e-06	418.27	141.82	122.75	41.849	6.4712e-06	51.585	0.00051295	0.00050296	0.00014064	1393.9	5.5873e-06	5.6313e-06	1395	375.07	5.6041e-06	5.6106e-06	427.59	144.11	125.05	43.138	5.6815e-06	53.246	310.009	98.805	183.763	87.239	215.398	130.977	86.949	92.235	215.973	260.712	91.227	95.824	96.694	100.881	213.702	99.950	-8191	255	
20860.057	1	1	0	0	0.10778	0.15436	0.22493	0.24853	0.27059	0.10805	0.26593	0.11752	0.14553	0.097567	0.10061	0.0728	0.17681	0.11437	0.12749	0.12023	-2.2812	-2.5979	-2.3896	-2.9271	-2.3604	-2.5062	-2.9437	-2.5792	-2.6792	-2.5438	-2.3167	-2.925	-2.4896	-2.4833	-2.7625	-2.4562	333.971	213.171	237.615	352.017	394.924	77.398	374.885	359.567	354.263	339.557	86.954	425.176	413.163	313.192	151.018	261.568	0.0013207	0.00037638	8.0836e-05	1371.9	5.3703e-06	7.1591e-06	1374.7	367.71	3.2178e-06	8.3652e-06	419.83	141.11	122.54	41.746	3.9805e-06	51.746	0.00053267	0.00052209	0.00014416	1396.4	5.7416e-06	5.7773e-06	1395	376.08	5.8132e-06	5.8942e-06	428.36	143.88	125.3	43.218	5.9701e-06	53.489	304.553	110.178	148.555	87.382	234.425	202.948	87.303	91.923	291.137	260.474	91.184	95.926	96.576	100.798	177.869	99.886	-8191	255	
20860.150	1	1	0	0	0.24882	0.10836	0.24528	0.25395	0.13828	0.24948	0.31969	0.24815	0.095844	0.054068	0.29813	0.16973	0.17166	0.036061	0.22374	0.47909	-2.3125	-2.5021	-2.3438	-2.9229	-2.55	-2.5271	-3.0792	-2.3333	-2.6729	-2.7875	-2.4667	-2.8646	-2.6104	-2.4542	-2.8917	-2.5125	199.899	316.126	310.926	389.830	182.282	391.107	374.608	367.401	121.548	327.810	359.857	354.231	417.176	164.967	202.685	360.797	0.001136	0.0010504	0.00027822	1371.4	4.709e-06	3.7174e-06	1382.7	368.59	8.6765e-06	2.2697e-06	419.8	142.14	123.55	42.019	2.4794e-06	52.123	0.00055915	0.00055331	0.00015277	1403	6.0294e-06	5.9456e-06	1403.1	377.37	5.8638e-06	5.8732e-06	428.85	144.3	125.46	43.273	5.6669e-06	53.494	307.811	138.990	143.368	87.324	216.501	149.364	87.127	91.955	271.642	292.709	91.316	95.957	96.616	100.864	178.251	99.849	-8191	255	
20860.246	1	1	0	0	0.15224	0.15622	0.41497	0.14932	0.12993	0.12186	0.2314	0.17099	0.23548	0.080643	0.53533	0.32331	0.34671	0.19512	0.29874	0.16687	-2.0354	-2.65	-2.325	-2.9354	-2.5729	-2.5521	-3.0083	-2.5667	-2.6042	-2.7687	-2.4146	-2.8771	-2.775	-2.45	-2.6604	-2.7	350.699	348.412	277.650	109.864	213.562	284.947	354.299	76.109	149.648	110.459	354.591	403.730	404.573	374.410	178.851	385.114	0.0011615	0.00081745	0.00021998	1372.1	7.0699e-06	1.8601e-06	1380.1	368.58	1.7866e-06	4.4394e-06	419.68	141.14	122.77	41.87	8.0591e-06	51.911	0.0005272	0.00051499	0.00014456	1400.5	5.6742e-06	5.734e-06	1399.3	376.69	5.7803e-06	5.7808e-06	428.85	144.05	125.23	43.227	5.7614e-06	53.401	303.836	160.105	179.183	87.233	210.754	85.474	87.118	92.025	173.396	286.103	91.262	96.061	96.552	100.769	197.065	99.728	-8191	255	
20860.318	1	1	0	0	0.27462	0.15607	0.049176	0.29525	0.2517	0.22858	0.18906	0.11581	0.14125	0.31457	0.35426	0.16328	0.1731	0.24067	0.13861	0.35474	-2.0479	-2.7104	-2.1937	-2.85	-2.6229	-2.3625	-2.9062	-2.6333	-2.4625	-2.8104	-2.475	-2.7313	-2.6917	-2.4667	-2.7458	-2.6146	256.076	415.529	108.384	402.805	249.854	227.859	281.148	381.297	200.608	380.938	411.277	432.971	88.546	346.391	242.620	383.427	0.0012282	0.00094687	0.00025225	1375	7.1665e-06	3.1585e-06	1376.4	369.31	9.0192e-06	5.3971e-06	420.9	141.8	122.66	41.739	7.3464e-06	51.883	0.00054574	0.00053371	0.00014608	1399	5.8198e-06	5.8191e-06	1398.3	376.92	5.8306e-06	5.7564e-06	429.7	144.34	125.26	43.248	5.784e-06	53.423	300.556	182.236	154.240	87.168	180.229	222.652	87.088	91.823	256.673	199.755	91.230	95.944	96.639	101.075	201.478	99.941	-8191	255	
20860.416	1	1	0	0	0.12718	0.08103	0.37751	0.18945	0.04655	0.12846	0.19106	0.19871	0.16594	0.1333	0.030696	0.15995	0.2348	0.35098	0.1815	0.35825	-2.0542	-2.7542	-2.3	-2.8979	-2.7271	-2.4	-2.7875	-2.8	-2.3604	-2.8583	-2.3667	-2.6562	-2.7021	-2.3458	-2.7313	-2.7958	137.912	169.755	359.817	367.155	378.301	237.883	379.869	324.703	94.587	372.086	321.781	156.580	108.416	377.922	140.223	364.625	0.0013174	0.00070373	7.5838e-05	1373.7	3.7615e-06	5.4985e-06	1375.5	367.31	1.479e-06	4.3305e-06	417.76	141.6	123.07	41.754	6.8665e-07	51.749	0.0005367	0.00052369	0.00014343	1399.6	5.64e-06	5.6176e-06	1396.9	375.49	5.6719e-06	5.6095e-06	427.87	144.11	125.13	43.15	5.6998e-06	53.301	306.406	156.813	125.674	87.266	196.102	192.592	87.091	91.963	203.062	280.133	91.160	96.102	96.644	100.804	213.621	99.967	-8191	255	
20860.535	1	1	0	0	0.18398	0.05978	0.30971	0.48551	0.12027	0.11369	0.268	0.21102	0.061097	0.24292	0.2017	0.23184	0.13368	0.20724	0.17806	0.26249	-1.9625	-2.7375	-2.4917	-2.8438	-2.6917	-2.4271	-2.9354	-2.7125	-2.4708	-3.1208	-2.6917	-2.4625	-2.7917	-2.4417	-2.7271	-2.8458	248.280	138.335	133.508	417.714	189.715	163.183	366.531	363.954	307.604	303.721	384.484	426.013	426.672	99.837	276.014	346.514	0.0010511	0.00055086	0.00031898	1368.8	4.7386e-06	2.0139e-06	1373.5	369.54	7.0749e-06	1.1572e-05	419.74	141.13	122.79	41.788	8.536e-06	51.897	0.00052608	0.00051447	0.00014351	1395.9	5.7192e-06	5.6531e-06	1393.3	376.46	5.693e-06	5.7181e-06	428.28	143.88	125.23	43.083	5.6992e-06	53.411	303.598	111.451	166.054	87.212	155.508	272.166	87.050	92.038	276.912	281.297	91.339	96.152	96.497	100.760	229.318	99.888	-8191	255	
20860.631	1	1	0	0	0.066292	0.13069	0.12255	0.46844	0.24157	0.3349	0.27413	0.089785	0.076829	0.19676	0.31409	0.16509	0.20856	0.10874	0.046688	0.27274	-1.8604	-2.7521	-2.5042	-2.9188	-2.7271	-2.3646	-2.8875	-2.8896	-2.3729	-2.8646	-2.6021	-2.5479	-2.9167	-2.3937	-2.7417	-2.7458	414.878	332.199	86.326	381.095	78.891	266.728	341.271	129.321	214.529	425.317	402.713	314.921	425.272	107.640	339.201	284.294	0.0012044	0.00075718	0.00030544	1370.4	6.2167e-06	6.2811e-06	1372.6	368.23	6.8256e-06	1.3692e-06	418.32	141.23	123.11	41.681	8.4279e-06	52.098	0.00052498	0.00051915	0.00014391	1396	5.7056e-06	5.6524e-06	1394.6	375.77	5.7173e-06	5.7086e-06	428.18	144.08	125.18	43.089	5.7742e-06	53.471	308.520	117.956	174.854	87.314	248.152	243.340	86.989	91.987	262.857	285.878	91.436	96.033	96.426	100.912	278.733	99.873	-8191	255	
20860.727	1	1	0	0	0.16473	0.031832	0.17043	0.32563	0.26377	0.19277	0.30801	0.073359	0.025662	0.32969	0.26563	0.17923	0.22535	0.17723	0.12847	0.12901	-1.8396	-2.8208	-2.5979	-2.5333	-2.7917	-2.5396	-2.7896	-2.9146	-2.3354	-2.8333	-2.6479	-2.625	-2.9271	-2.4583	-2.5292	-2.9104	279.333	198.245	226.497	372.243	334.411	215.560	350.150	386.825	160.278	148.035	422.941	358.101	100.233	86.357	384.070	400.372	0.0011813	0.0006983	0.00020081	1367.2	5.0183e-06	4.0019e-06	1376.1	369.47	9.2557e-06	9.8681e-06	419.1	141.49	122.91	41.808	1.0404e-05	51.564	0.00054017	0.00052977	0.00014778	1396	5.8343e-06	5.8371e-06	1397.1	377.4	5.8496e-06	5.871e-06	429.65	144.3	125.75	43.278	5.9872e-06	53.372	302.592	180.133	106.979	87.295	240.302	340.582	87.117	92.066	232.563	238.810	91.490	96.097	96.659	100.903	228.082	99.919	-8191	255	
20860.848	1	1	0	0	0.18756	0.081229	0.092838	0.27991	0.18779	0.20959	0.12355	0.21585	0.19502	0.067219	0.27147	0.22579	0.31369	0.22331	0.12586	0.07577	-1.8667	-2.7208	-2.6875	-2.6542	-2.9771	-2.4958	-2.8396	-3.1417	-2.3563	-2.6583	-2.675	-2.4292	-2.8896	-2.5312	-2.625	-2.8063	159.385	271.731	201.846	408.619	247.341	229.502	415.345	342.755	360.111	328.970	135.708	333.021	382.546	396.778	333.938	97.244	0.0010875	0.00039181	0.00020251	1374.8	5.4631e-06	6.1594e-06	1384.9	369.4	9.4646e-06	6.1168e-06	418.73	141.76	123.2	41.853	6.6894e-06	51.627	0.00054978	0.00054382	0.00015142	1402.2	5.8394e-06	5.8518e-06	1401	377	5.7103e-06	5.6686e-06	428.36	144.19	125.34	43.129	5.3696e-06	53.184	310.524	128.488	159.230	87.159	198.693	233.416	87.184	92.153	281.513	255.276	91.401	96.131	96.450	100.769	194.777	100.019	-8191	255	
20860.920	1	1	0	0	0.027225	0.046308	0.0087534	0.30833	0.099403	0.053034	0.30109	0.18282	0.048802	0.21841	0.25814	0.14278	0.24793	0.19693	0.25713	0.12119	-1.9417	-2.575	-2.7021	-2.5104	-2.7854	-2.6646	-2.7875	-2.9167	-2.3833	-2.8333	-2.65	-2.4562	-2.8063	-2.5875	-2.5292	-2.975	416.161	144.447	279.399	383.495	253.644	300.118	428.022	425.191	374.189	382.285	410.755	357.181	298.384	377.943	314.400	178.075	0.0012423	0.00042042	0.00021706	1367.2	1.8827e-06	4.0043e-06	1367.1	369.27	5.4488e-06	7.0474e-06	416.8	140.76	122.73	41.878	4.8561e-06	51.679	0.00049043	0.00048171	0.00013298	1391.9	5.1533e-06	5.1595e-06	1385.4	374.68	5.0949e-06	5.0656e-06	424.3	142.86	124.41	42.979	5.0887e-06	53.034	307.796	149.513	132.711	87.184	297.512	256.611	86.984	92.008	281.415	242.451	91.190	96.200	96.849	100.731	160.141	99.819	-8191	255	
20861.016	1	1	0	0	0.01101	0.015998	0.19621	0.17499	0.047883	0.12218	0.22348	0.086073	0.12353	0.080449	0.17185	0.0088959	0.19363	0.20724	0.053566	0.10929	-1.8458	-2.6021	-2.6104	-2.5687	-2.8708	-2.4917	-2.7354	-2.9938	-2.4458	-2.5	-2.725	-2.2646	-2.8292	-2.6562	-2.2771	-3.1396	424.625	291.908	354.435	374.887	428.578	160.581	355.609	415.830	152.734	128.966	371.980	147.980	431.748	391.803	380.838	167.262	0.0010957	0.00021753	0.00025148	1363.6	8.1937e-06	3.6298e-06	1363.2	368.4	4.3728e-06	7.2277e-06	418.28	140.92	122.84	41.722	3.2809e-06	51.999	0.00047458	0.00046532	0.00012923	1385.6	5.1644e-06	5.1882e-06	1384.4	374.33	5.306e-06	5.3527e-06	425.85	143.48	124.92	43.053	5.3893e-06	53.278	310.066	174.544	155.133	87.314	263.138	138.133	86.992	92.158	272.759	254.910	91.331	96.062	96.563	100.812	199.368	99.803	-8191	255	
20861.137	1	1	0	0	0.079043	0.14676	0.15192	0.16185	0.27501	0.2247	0.5371	0.21289	0.17255	0.057853	0.2778	0.3126	0.18469	0.15879	0.12116	0.087296	-1.9146	-2.4583	-2.6271	-2.275	-2.7104	-2.8021	-2.5375	-2.925	-2.4521	-2.5438	-2.775	-2.35	-2.6875	-2.7521	-2.3375	-2.8833	187.405	333.738	375.708	81.621	395.955	79.284	358.719	394.143	117.597	397.920	412.123	415.917	410.932	419.260	370.256	374.039	0.0010763	0.0003424	0.0002706	1368.5	5.462e-06	2.1961e-06	1374.2	368.82	8.5488e-06	5.2787e-06	419.88	141.73	123.37	41.838	6.6024e-06	51.925	0.00049906	0.00048863	0.00013511	1393.8	5.2837e-06	5.2718e-06	1393	375.53	5.1153e-06	5.1283e-06	426.99	143.73	125.05	43.086	5.0598e-06	53.248	320.776	139.948	162.778	87.278	227.637	302.885	86.964	92.127	270.723	198.848	91.201	96.055	96.726	100.713	161.820	100.019	-8191	255	
20861.230	1	1	0	0	0.0090121	0.22537	0.15217	0.23018	0.053234	0.1293	0.23812	0.38085	0.1877	0.18565	0.065705	0.19154	0.042811	0.10724	0.37182	0.09068	-2.0938	-2.3563	-2.8187	-2.6417	-2.6979	-2.6542	-2.6271	-2.85	-2.7021	-2.475	-3.0542	-2.4292	-2.775	-2.7812	-2.2729	-2.7667	212.608	425.018	198.030	425.074	309.373	211.357	390.308	408.588	168.799	246.472	231.001	360.543	415.725	342.870	112.947	195.518	0.0010044	0.00060971	6.1265e-05	1368.4	8.3433e-06	3.5934e-06	1374.1	368.27	3.5437e-06	1.1129e-05	417.86	141.9	123.42	42.019	7.5248e-06	52.121	0.00047486	0.00046727	0.00012977	1392.8	5.1731e-06	5.2127e-06	1392.9	375.17	5.3688e-06	5.3835e-06	426.97	144.09	125.33	43.293	5.6439e-06	53.601	299.780	80.039	184.824	87.268	279.585	269.405	86.945	91.928	257.200	264.135	91.155	96.078	96.589	100.787	187.536	99.935	-8191	255	
20861.326	1	1	0	0	0.28703	0.046164	0.13703	0.14618	0.18216	0.099678	0.31403	0.17067	0.24462	0.13618	0.13596	0.21383	0.14261	0.16708	0.1123	0.28486	-2.175	-2.3812	-2.875	-2.5729	-2.4771	-2.8208	-2.6917	-2.8312	-2.7667	-2.3292	-2.8104	-2.7104	-2.6646	-2.8625	-2.3	-2.6875	182.130	188.429	304.277	83.055	272.799	186.656	401.083	392.556	220.805	291.631	421.407	401.001	346.161	311.232	99.270	316.009	0.0012164	0.0013439	0.00018717	1366.5	3.7824e-06	2.9159e-06	1373.2	369.37	2.2828e-06	9.7153e-06	418	141.61	122.92	41.944	4.526e-06	52.177	0.00052904	0.00051675	0.00014541	1395.2	5.718e-06	5.663e-06	1395.1	376.3	5.615e-06	5.5934e-06	427.57	144.11	125.32	43.203	5.4485e-06	53.46	314.806	133.327	158.854	87.243	212.585	338.278	87.057	91.998	258.216	269.181	91.113	96.145	96.642	100.792	218.349	99.935	-8191	255	
20861.424	1	1	0	0	0.10084	0.17849	0.071449	0.3157	0.30917	0.28907	0.29829	0.1948	0.066876	0.045402	0.11781	0.2896	0.12507	0.21963	0.49181	0.18296	-2.0604	-2.4625	-2.8604	-2.6167	-2.3937	-2.8375	-2.5583	-2.9333	-2.7958	-2.4354	-2.8542	-2.8688	-2.6312	-2.9271	-2.3854	-2.7958	227.688	190.716	229.338	384.447	276.800	411.948	339.057	235.914	379.020	79.928	358.372	364.995	105.278	432.221	343.149	321.241	0.0012052	0.00060283	0.00018651	1369.2	5.5753e-06	2.6069e-06	1375.1	369.53	7.3728e-06	5.5327e-06	420.9	141.79	123.39	41.951	6.009e-06	52.195	0.0005027	0.00049288	0.00013482	1395.4	5.4093e-06	5.3601e-06	1393.6	376.26	5.3976e-06	5.4351e-06	428.06	144.31	125.52	43.203	5.5681e-06	53.473	311.674	171.415	154.095	87.234	208.825	78.844	87.118	92.085	274.026	224.160	91.170	95.924	96.739	100.616	186.571	99.881	-8191	255	
20861.543	1	1	0	0	0.30082	0.12867	0.23673	0.40911	0.055279	0.32311	0.38537	0.34067	0.088077	0.098782	0.2616	0.12332	0.24779	0.18606	0.11589	0.2933	-2.4229	-2.3458	-2.6896	-2.8333	-2.5458	-2.8208	-2.6458	-2.7313	-2.6854	-2.3396	-2.9313	-2.7542	-2.4	-2.9521	-2.325	-2.6771	162.652	265.925	377.969	399.896	363.469	97.845	377.935	295.886	165.686	242.564	405.674	242.441	150.023	124.467	295.257	412.909	0.0011769	0.00044315	4.9907e-05	1372.1	8.7846e-06	7.0912e-06	1374.5	369.12	4.2809e-06	7.435e-06	419.59	141.61	123.45	42.078	9.2682e-06	52.198	0.00052721	0.00051591	0.00014466	1397.5	5.6974e-06	5.6685e-06	1396.3	376.6	5.7142e-06	5.7315e-06	429.01	144.58	125.84	43.407	5.8075e-06	53.658	312.274	224.157	133.175	87.147	240.050	198.016	87.009	91.991	363.540	205.418	91.227	95.985	96.732	100.654	167.926	99.992	-8191	255	
20861.615	1	1	0	0	0.12942	0.27732	0.1275	0.32176	0.1851	0.14936	0.15711	0.1312	0.25423	0.12256	0.056869	0.34448	0.25561	0.097174	0.12191	0.12523	-2.3521	-2.1958	-2.5438	-2.8083	-2.3854	-2.7208	-2.6813	-2.5687	-2.75	-2.45	-2.9396	-2.8021	-2.5062	-2.9833	-2.4708	-2.6354	145.000	138.789	359.490	410.402	136.393	295.648	357.299	316.230	404.057	75.863	222.862	322.230	381.247	86.385	159.819	404.564	0.0011217	0.00089764	0.00018619	1372.3	5.9976e-06	3.9225e-06	1381.2	368.76	8.1719e-06	1.0089e-05	419.99	141.7	123.68	42.158	3.6712e-06	51.942	0.00053626	0.00052881	0.00014804	1400.6	5.791e-06	5.8379e-06	1399.9	377.44	5.7995e-06	5.7827e-06	429.83	144.71	125.98	43.438	5.8769e-06	53.617	306.929	158.229	163.316	87.157	182.251	180.467	87.141	91.994	290.626	201.630	91.221	96.125	96.451	100.787	137.020	99.679	-8191	255	
20861.711	1	1	0	0	0.13507	0.12799	0.17878	0.20437	0.11742	0.10505	0.099191	0.40491	0.28182	0.28736	0.18873	0.21433	0.0745	0.36305	0.059684	0.25534	-2.4458	-2.3083	-2.5979	-2.8604	-2.4271	-2.8729	-2.6646	-2.5625	-2.75	-2.425	-2.7208	-2.8354	-2.3875	-3.0146	-2.5833	-2.4437	413.819	194.584	374.333	345.533	414.434	118.149	80.842	348.455	333.678	204.023	333.298	108.425	294.576	81.666	102.708	402.859	0.0011162	0.00039993	0.00016423	1372	1.1344e-05	3.3878e-06	1376.7	370.43	4.0943e-06	3.5225e-06	418.9	142.02	123.4	41.964	4.6218e-06	51.789	0.00054264	0.00053537	0.00015082	1401.1	5.8719e-06	5.8405e-06	1400.8	377.85	5.7725e-06	5.7985e-06	429.82	144.49	126.02	43.339	5.8068e-06	53.567	307.443	266.750	190.718	87.357	219.636	244.917	86.982	92.024	285.351	216.986	91.557	95.894	96.746	100.824	182.253	100.065	-8191	255	
20861.832	1	1	0	0	0.11718	0.0743	0.11226	0.18854	0.050267	0.038284	0.30555	0.19975	0.096215	0.10385	0.30789	0.059987	0.35213	0.20883	0.12669	0.1514	-2.2938	-2.2729	-2.6292	-2.8792	-2.35	-2.6083	-2.7979	-2.5271	-2.8958	-2.4229	-2.6646	-2.8333	-2.6167	-2.8958	-2.6521	-2.5333	297.968	394.609	408.215	82.845	157.994	98.033	363.115	161.779	122.211	92.597	395.667	145.633	384.505	371.008	414.771	82.980	0.0010744	0.0003849	0.00027039	1375	8.1223e-06	1.9546e-06	1379.1	369.99	1.0604e-05	3.868e-06	419.41	141.71	123.39	41.926	3.1226e-06	51.942	0.0005347	0.000536	0.00014696	1402.4	5.8257e-06	5.8335e-06	1399.5	377.29	5.7944e-06	5.8397e-06	429.49	144.61	125.72	43.32	5.8769e-06	53.473	309.871	191.045	186.246	87.207	207.442	97.664	87.113	91.783	245.743	247.977	91.330	96.034	96.381	101.087	172.124	99.854	-8191	255	
20861.928	1	1	0	0	0.18628	0.03293	0.18154	0.27724	0.13597	0.017337	0.28658	0.23245	0.17236	0.10604	0.10302	0.40491	0.22477	0.18893	0.10054	0.050805	-2.4521	-2.4958	-2.6562	-2.8937	-2.3604	-2.8146	-2.8125	-2.7042	-2.6792	-2.6396	-2.5625	-2.9521	-2.4625	-2.8937	-2.7083	-2.5375	281.788	91.739	291.494	331.029	204.303	423.734	342.549	395.311	232.585	138.688	80.521	412.788	240.562	228.537	111.638	295.259	0.0011373	0.00015346	0.00015756	1373	8.4545e-06	4.5046e-06	1379.1	371.58	5.0058e-06	7.6206e-06	420.3	141.87	123.51	42.08	7.4799e-06	51.772	0.00053969	0.00053315	0.00014759	1400.5	5.7584e-06	5.8263e-06	1399.7	377.77	5.8e-06	5.8056e-06	429.41	144.3	125.68	43.381	5.8361e-06	53.542	312.303	423.096	237.178	87.187	232.399	237.232	87.125	91.733	308.776	217.979	91.344	96.050	96.637	100.723	203.800	99.786	-8191	255	
20862.021	1	1	0	0	0.14428	0.13078	0.24617	0.33179	0.22449	0.028026	0.49223	0.26775	0.24564	0.20326	0.20098	0.27826	0.21815	0.11113	0.2229	0.044182	-2.4938	-2.55	-2.4625	-3.0021	-2.3812	-2.8417	-2.975	-2.6771	-2.7854	-2.7375	-2.5396	-2.8354	-2.4938	-2.7042	-2.7729	-2.5187	265.796	109.082	238.175	343.103	165.117	197.408	352.273	397.769	391.895	88.925	116.282	397.710	367.876	77.113	319.415	375.779	0.0012488	0.000873	5.0267e-05	1370.9	2.7918e-06	4.7882e-06	1381.4	368.16	5.4988e-06	9.8004e-06	420.17	141.39	123.15	42.019	9.374e-06	52.056	0.00054144	0.00053351	0.00014921	1399.2	5.8898e-06	5.9349e-06	1398.8	377.31	5.9533e-06	5.9654e-06	429.39	144.56	125.77	43.378	6.1009e-06	53.644	311.081	128.496	393.909	87.250	273.727	277.647	87.137	92.108	219.844	218.402	91.404	96.244	96.399	100.873	165.303	99.868	-8191	255	
20862.119	1	1	0	0	0.10496	0.15199	0.13978	0.27172	0.10459	0.24636	0.3021	0.27305	0.21958	0.10013	0.20335	0.18202	0.35311	0.20036	0.12601	0.12573	-2.3812	-2.3979	-2.2021	-3.0542	-2.525	-2.6063	-2.8646	-2.6042	-2.7562	-2.7604	-2.4771	-2.9917	-2.6771	-2.5771	-2.6917	-2.4625	327.639	353.707	258.522	402.705	304.186	136.076	417.399	358.182	345.771	312.275	315.872	348.384	429.108	89.293	221.492	369.644	0.0013038	0.00031511	0.00021593	1372.3	6.2807e-06	5.3092e-06	1379.8	369.23	9.4287e-06	6.6743e-06	420.35	142.28	122.76	41.894	2.1256e-06	51.775	0.00057257	0.00057399	0.0001577	1401.1	6.346e-06	6.4755e-06	1401.9	378.82	6.4616e-06	6.4855e-06	431.29	145.23	126.07	43.505	6.5081e-06	53.776	310.446	145.581	103.630	87.487	218.970	245.906	87.049	92.145	310.157	399.743	91.387	95.871	96.683	100.772	217.466	99.778	-8191	255	
20862.215	1	1	0	0	0.070571	0.15943	0.18421	0.0040499	0.19904	0.30353	0.13093	0.36065	0.088585	0.16335	0.03962	0.048204	0.23373	0.19005	0.11431	0.077195	-2.1625	-2.6312	-2.4562	-3.0417	-2.5687	-2.5333	-3.05	-2.4292	-2.7479	-2.8771	-2.2354	-2.8354	-2.5563	-2.6063	-2.9292	-2.5542	370.244	209.009	394.431	411.111	374.928	352.657	407.794	368.262	144.818	98.158	408.522	399.838	90.574	106.925	399.850	127.742	0.001224	0.00075571	0.0001109	1376.3	6.9852e-06	5.7992e-06	1381.7	371	4.1004e-06	3.3194e-06	421.19	141.46	123.52	42.033	7.1656e-06	51.99	0.00060682	0.00060215	0.00016563	1406.9	6.5323e-06	6.6204e-06	1405	380.01	6.6059e-06	6.6998e-06	432.86	145.4	126.77	43.644	6.7865e-06	53.922	315.214	162.541	180.470	87.292	197.758	275.654	87.076	91.950	319.986	141.220	91.310	96.150	96.696	100.725	237.704	99.932	-8191	255	
20862.311	1	1	0	0	0.14768	0.2286	0.16771	0.078437	0.19548	0.26363	0.10528	0.1326	0.14585	0.25299	0.34615	0.28528	0.26449	0.24704	0.077928	0.155	-2.1312	-2.7396	-2.2417	-3.0667	-2.6188	-2.1958	-2.9271	-2.5646	-2.5458	-2.6646	-2.4083	-2.7771	-2.6771	-2.3896	-2.6583	-2.5083	154.493	359.209	199.543	376.353	178.117	170.605	388.253	377.177	169.070	386.202	324.241	313.475	257.065	370.072	252.559	431.977	0.0011347	0.00010317	0.00020933	1381.3	7.5858e-06	4.9483e-06	1382.5	371.34	1.2551e-05	3.4207e-06	422.53	141.78	123.43	41.956	3.2344e-06	52.267	0.00063799	0.00062552	0.00017505	1410.5	6.9521e-06	6.9111e-06	1409.9	381.22	6.9568e-06	7.0098e-06	434.64	145.88	127.21	43.71	6.995e-06	54.196	310.651	170.385	115.918	87.326	196.014	133.756	87.065	91.727	287.237	157.047	91.130	95.952	96.462	100.820	134.716	99.787	-8191	255	
20862.406	1	1	0	0	0.43008	0.048614	0.12633	0.13056	0.237	0.10271	0.1279	0.12287	0.05554	0.2009	0.13271	0.062808	0.46514	0.10185	0.11578	0.11781	-2.1292	-2.8604	-2.3167	-2.9917	-2.525	-2.4042	-2.9208	-2.6146	-2.4708	-3.0687	-2.3875	-2.5	-2.7875	-2.3979	-2.7979	-2.6521	342.022	379.530	427.395	408.705	405.952	168.611	393.514	80.970	289.276	294.614	114.364	253.033	427.801	119.839	321.663	248.492	0.00094365	0.00092375	0.00034126	1383.5	6.9916e-06	3.5171e-06	1385.7	370.57	6.7703e-06	3.5708e-06	422.06	142.39	124	42.283	2.2079e-06	52.039	0.00063434	0.00063011	0.00017357	1414.4	6.7455e-06	6.8043e-06	1413.7	380.65	6.7e-06	6.6457e-06	434.04	145.62	126.86	43.731	6.6102e-06	54.097	307.903	94.935	197.736	87.425	247.949	293.578	87.151	91.862	198.009	321.839	91.247	96.098	96.600	100.878	233.504	99.823	-8191	255	
20862.504	1	1	0	0	0.131	0.074595	0.052721	0.19794	0.12936	0.22257	0.32756	0.28245	0.1921	0.22669	0.30403	0.04383	0.060265	0.1928	0.16648	0.065656	-2.0458	-2.9562	-2.4313	-2.8771	-2.6917	-2.4458	-2.9292	-2.7729	-2.5354	-2.8396	-2.3438	-2.8208	-2.8125	-2.4854	-2.7542	-2.6792	328.362	149.359	262.709	422.069	225.602	216.374	311.989	324.538	106.433	409.275	368.841	335.343	88.207	115.511	85.629	190.628	0.0010815	0.00046701	0.000416	1380.7	6.1804e-06	5.9914e-06	1389.9	371.15	7.3608e-06	4.0706e-06	422.11	142.19	123.48	42.333	1.0031e-05	52.051	0.00061812	0.00060892	0.00016855	1412.5	6.6097e-06	6.5617e-06	1413.1	380.45	6.5267e-06	6.4883e-06	433.23	145.63	126.68	43.743	6.4431e-06	53.948	322.350	217.993	206.869	87.381	225.543	220.117	87.263	91.997	280.502	188.687	91.263	96.114	96.682	100.904	214.459	99.886	-8191	255	
20862.623	1	1	0	0	0.16255	0.20197	0.093061	0.31198	0.047672	0.1439	0.093936	0.30392	0.12971	0.27567	0.051461	0.1857	0.29608	0.12907	0.099103	0.034951	-2.0729	-2.75	-2.2938	-2.9146	-2.9125	-2.5604	-3.1104	-2.6792	-2.2979	-2.8104	-2.5938	-2.55	-2.8438	-2.2896	-2.7729	-2.8187	79.120	363.621	411.684	92.517	306.055	411.502	257.570	345.920	329.333	410.433	77.554	219.633	384.377	77.409	270.699	213.360	0.0011756	0.00095766	0.00035125	1383	8.0008e-06	4.2054e-06	1386.4	371.36	1.052e-05	2.6946e-06	422.04	142.06	123.9	42.189	6.3963e-06	51.974	0.00059256	0.00058063	0.00016215	1412.6	6.3895e-06	6.3308e-06	1412.6	380.46	6.3448e-06	6.3012e-06	432.58	145.32	126.58	43.664	6.3093e-06	53.943	315.746	163.239	142.263	87.242	258.456	252.827	87.174	92.000	264.357	292.938	91.105	96.030	96.141	100.697	162.790	100.036	-8191	255	
20862.721	1	1	0	0	0.16241	0.065681	0.16357	0.10866	0.048251	0.37428	0.26298	0.21573	0.23428	0.12384	0.11973	0.42517	0.20712	0.28413	0.38221	0.085636	-1.9021	-2.9417	-2.4854	-2.8771	-2.9417	-2.45	-2.9979	-2.7917	-2.3396	-2.8479	-2.5375	-2.5396	-2.7417	-2.3688	-2.6771	-2.6312	179.390	288.681	297.355	393.528	348.315	123.673	407.815	308.314	422.434	290.404	99.589	420.120	93.449	403.679	151.747	173.624	0.0010746	0.00072611	0.00029807	1384.2	4.359e-06	3.2905e-06	1382.9	370.85	4.9047e-06	7.4156e-06	421.99	141.87	123.48	42.226	1.0214e-06	52.273	0.00058375	0.000575	0.00015893	1411.9	6.2232e-06	6.1735e-06	1408.2	379.79	6.202e-06	6.1868e-06	431.86	145.28	126.47	43.634	6.2683e-06	53.876	314.632	111.917	178.199	87.204	259.634	276.584	87.197	91.912	323.637	222.868	91.129	96.069	96.536	100.604	408.959	100.144	-8191	255	
20862.816	1	1	0	0	0.51719	0.061878	0.17266	0.12566	0.27158	0.065445	0.14495	0.26931	0.22488	0.051248	0.11559	0.03384	0.28646	0.17054	0.26205	0.38754	-1.7646	-2.7938	-2.6	-2.6042	-2.9062	-2.3375	-2.7521	-2.9417	-2.4188	-2.8479	-2.8063	-2.4188	-2.9104	-2.5229	-2.5479	-2.8812	203.437	155.694	116.786	84.778	414.078	101.864	344.474	371.291	376.778	75.162	119.747	95.299	382.256	93.355	425.589	342.901	0.0012142	0.00022204	0.00033302	1379.9	6.835e-06	5.4519e-06	1389.1	370.63	9.4306e-06	4.6462e-06	420.51	142.51	123.41	42.185	1.046e-05	51.956	0.0005745	0.0005709	0.00015904	1409.1	6.2319e-06	6.2607e-06	1409.7	379.88	6.1667e-06	6.1771e-06	431.75	145.44	126.44	43.591	6.2244e-06	53.811	316.560	127.927	191.532	87.280	190.953	316.804	87.093	91.857	244.221	294.309	91.273	95.992	96.526	101.125	217.161	99.935	-8191	255	
20862.912	1	1	0	0	0.19476	0.072245	0.037566	0.25897	0.088535	0.14297	0.16284	0.13041	0.1	0.27088	0.16092	0.11448	0.34008	0.21276	0.095624	0.12655	-1.9229	-2.7396	-2.4958	-2.4938	-2.7896	-2.4167	-2.8104	-2.9521	-2.3479	-2.7792	-2.8583	-2.5667	-2.9375	-2.6417	-2.4771	-3.0187	217.762	250.180	202.973	381.277	393.578	292.360	388.531	93.289	295.462	425.730	385.189	318.007	428.511	365.949	379.751	413.764	0.0013316	0.00063778	0.00018278	1380.8	6.0377e-06	5.5827e-06	1381.5	372.56	8.2652e-06	4.4283e-06	419.36	142.23	123.54	42.155	5.364e-06	52.106	0.00057494	0.00056685	0.0001573	1408.5	6.1692e-06	6.1621e-06	1405.9	380.13	6.1522e-06	6.2657e-06	431.55	145.28	126.52	43.593	6.2884e-06	53.794	300.745	168.969	192.603	87.272	215.330	242.164	87.164	91.958	310.191	284.977	91.187	95.838	96.660	100.686	183.252	99.801	-8191	255	
20863.008	1	1	0	0	0.32139	0.1065	0.041752	0.28689	0.15564	0.11874	0.23074	0.12821	0.22901	0.036302	0.18777	0.1408	0.20705	0.18246	0.31002	0.22053	-1.8583	-2.8708	-2.6417	-2.5687	-2.7208	-2.475	-2.7562	-3.0333	-2.4188	-2.7833	-3.0146	-2.3542	-2.7979	-2.5125	-2.4604	-2.8229	188.028	301.160	119.921	333.660	263.248	336.042	78.467	90.025	321.215	212.708	415.916	117.068	157.026	432.935	157.176	95.344	0.0011901	0.00093226	0.0001471	1381.4	1.0038e-06	4.4781e-06	1386.6	370.59	9.8084e-06	6.1109e-06	419.58	141.61	123.54	42.303	4.6756e-06	52.05	0.000578	0.00058022	0.00016077	1409.6	6.2873e-06	6.3561e-06	1407.9	379.8	6.339e-06	6.3927e-06	431.63	145.3	126.65	43.691	6.37e-06	53.773	310.998	164.147	180.151	87.198	309.488	189.663	86.987	91.929	274.811	228.045	91.141	96.034	96.558	100.737	181.694	99.757	-8191	255	
20863.104	1	1	0	0	0.21377	0.12088	0.11191	0.29503	0.081377	0.071614	0.11492	0.10591	0.070313	0.12851	0.086713	0.24384	0.20975	0.062846	0.15803	0.17757	-1.8958	-2.5167	-2.6771	-2.6	-2.6188	-2.6188	-2.6021	-2.9542	-2.3937	-2.6229	-3.0583	-2.5521	-2.9042	-2.8021	-2.4521	-2.8833	305.572	336.326	413.798	369.310	369.141	141.526	354.771	324.991	193.363	292.935	270.292	369.107	360.137	88.691	368.537	331.524	0.0011711	0.00098705	0.00016963	1382.4	5.6372e-06	6.7142e-06	1381.9	369.97	9.7588e-06	5.6728e-06	424.07	142.46	123.38	42.237	5.4418e-06	52.068	0.00058495	0.00057668	0.00015944	1409.4	6.2369e-06	6.2272e-06	1408.3	379.32	6.1841e-06	6.1848e-06	432.41	145.17	126.5	43.682	6.0562e-06	53.726	304.711	111.582	98.120	87.343	249.044	253.521	86.974	91.955	278.603	117.034	91.224	95.975	96.527	100.944	175.866	99.754	-8191	255	
20863.225	1	1	0	0	0.10563	0.16632	0.25249	0.2336	0.1067	0.034091	0.23805	0.21741	0.043782	0.069445	0.22727	0.13741	0.28417	0.29347	0.21312	0.045194	-1.9062	-2.55	-2.6583	-2.55	-2.7708	-2.5792	-2.5583	-2.9562	-2.6479	-2.3417	-3.0208	-2.5563	-2.8	-2.7687	-2.4458	-2.8604	191.164	176.216	216.231	279.366	373.143	156.494	421.876	410.117	321.473	152.225	90.002	423.170	355.477	359.126	145.050	398.025	0.0012752	0.0010494	0.00014814	1381.8	8.8575e-06	6.2248e-06	1388.6	370.03	6.6621e-06	9.1224e-06	420.1	141.93	123.69	42.111	6.3434e-06	51.876	0.00056165	0.00055326	0.00015265	1409.2	6.047e-06	6.043e-06	1406.4	378.19	6.0519e-06	6.0533e-06	431.33	145.02	126.24	43.476	6.0318e-06	53.742	305.444	161.859	89.446	87.179	222.908	332.807	87.090	92.000	268.176	253.460	91.335	96.154	96.492	100.917	214.209	99.958	-8191	255	
20863.320	1	1	0	0	0.14838	0.14486	0.22699	0.17594	0.26031	0.2434	0.33707	0.27523	0.10879	0.14429	0.11584	0.39796	0.33028	0.38546	0.1512	0.15582	-2.1583	-2.4667	-2.9708	-2.5958	-2.6646	-2.7146	-2.5875	-2.7708	-2.7687	-2.4417	-3.1771	-2.5354	-2.6979	-2.8312	-2.4104	-2.8312	420.396	101.955	137.566	392.842	229.821	174.799	389.108	386.144	309.135	108.251	325.631	93.642	364.104	397.126	286.955	383.307	0.0011702	0.0010255	0.00016511	1382	3.7576e-06	2.2688e-06	1387.5	370.6	7.7282e-06	4.3316e-06	421.74	142.44	123.69	41.973	1.1623e-05	52.066	0.00056183	0.00055674	0.00015222	1408.6	6.0541e-06	6.0373e-06	1407.2	379.16	6.082e-06	6.1145e-06	431.79	145.18	126.64	43.53	6.1325e-06	53.844	304.423	131.134	112.807	87.165	204.694	223.572	87.127	92.024	288.568	230.391	91.400	96.009	96.658	100.685	229.325	99.903	-8191	255	
20863.416	1	1	0	0	0.30488	0.14213	0.16216	0.33272	0.18232	0.34292	0.1775	0.12418	0.12123	0.10756	0.14337	0.25981	0.21222	0.10911	0.08126	0.089591	-2.1792	-2.5396	-2.6312	-2.6833	-2.7729	-2.8229	-2.5229	-2.9062	-2.6688	-2.5062	-3.0687	-2.6854	-2.6604	-2.8333	-2.4146	-2.8542	397.172	293.167	353.091	422.341	359.460	88.916	412.097	291.445	109.545	414.722	245.734	364.104	382.228	397.354	107.677	303.961	0.0010158	0.00035522	0.00031131	1381.2	4.5424e-06	2.6146e-06	1384.9	371.47	8.7195e-06	2.7196e-06	421.3	142.31	124	42.253	5.8648e-06	52.244	0.0005701	0.00056366	0.0001568	1410.7	6.161e-06	6.1297e-06	1409.2	379.55	6.1546e-06	6.108e-06	431.97	145.44	126.71	43.568	6.062e-06	53.894	304.837	238.642	142.671	87.125	163.831	327.777	86.932	91.962	275.724	154.333	91.302	95.885	96.169	100.731	212.857	99.857	-8191	255	
20863.512	1	1	0	0	0.084244	0.18797	0.13156	0.29787	0.1837	0.14658	0.33581	0.24256	0.074084	0.098891	0.22075	0.14919	0.06547	0.31277	0.10426	0.11516	-2.2667	-2.4042	-2.7896	-2.7792	-2.4625	-2.8479	-2.6146	-2.8646	-2.7604	-2.4	-2.9938	-2.6604	-2.5646	-2.9729	-2.5021	-2.9562	162.054	189.249	366.458	429.512	171.496	268.939	356.259	374.511	286.326	187.675	380.821	332.584	237.350	396.356	422.613	255.235	0.0011476	0.00075469	0.00016929	1383.5	2.9904e-06	4.4774e-06	1386	372.18	7.0779e-06	1.4909e-06	422.07	142.2	123.94	42.23	6.5315e-06	52.025	0.00056068	0.00055093	0.00015315	1411.9	6.0255e-06	5.9862e-06	1408.3	379.67	5.922e-06	5.9851e-06	431.3	145.34	126.4	43.579	5.9231e-06	53.753	310.391	202.378	149.225	87.302	173.696	238.508	87.008	91.922	240.904	160.786	91.151	96.119	96.632	100.687	263.904	99.854	-8191	255	
#DATA ENDS
