BOXY.EXE: ISS Imagent and Oximeter Data Acquisition Program Version 0.80
Ascii Record File

#ACQ INFORMATION
2  Detector Channels 
16  External MUX Channels 
1  Auxiliary Channels 
5000  Waveform (CCF) Frequency (Hz)
1  Waveforms Skipped 
30  Waveforms Averaged 
1  Cycles Averaged 
16  Acquisitions per Waveform 
10.0806  Updata Rate (Hz) 

#FILE INFORMATION
TRUE -- External MUX Channel results are PARSED.
FALSE -- AC DC and Phase are NOT grouped.
TRUE -- Companion Program Settings File CREATED.
FALSE -- AC data not excluded
FALSE -- DC data not excluded
FALSE -- Phase data not excluded
FALSE -- Auxillary Chn. data not excluded
Tab delimiters

#CALIBRATION STATE
TRUE -- Waveform Calibration Values APPLIED.


#AUX CALIBRATION VALUES
Val Type	aux-1	

Term	1.0000e+00	
Factor	0.0000e+00	


#WF CALIBRATION VALUES
A = Detector Channel
Val Type	A-AC1	A-AC2	A-AC3	A-AC4	A-AC5	A-AC6	A-AC7	A-AC8	A-AC9	A-AC10	A-AC11	A-AC12	A-AC13	A-AC14	A-AC15	A-AC16	A-DC1	A-DC2	A-DC3	A-DC4	A-DC5	A-DC6	A-DC7	A-DC8	A-DC9	A-DC10	A-DC11	A-DC12	A-DC13	A-DC14	A-DC15	A-DC16	A-Ph1	A-Ph2	A-Ph3	A-Ph4	A-Ph5	A-Ph6	A-Ph7	A-Ph8	A-Ph9	A-Ph10	A-Ph11	A-Ph12	A-Ph13	A-Ph14	A-Ph15	A-Ph16	

Term	0.00000e+00	0.00000e+00	0.00000e+00	0.00000e+00	0.00000e+00	0.00000e+00	0.00000e+00	0.00000e+00	0.00000e+00	0.00000e+00	0.00000e+00	0.00000e+00	0.00000e+00	0.00000e+00	0.00000e+00	0.00000e+00	0.00000e+00	0.00000e+00	0.00000e+00	0.00000e+00	0.00000e+00	0.00000e+00	0.00000e+00	0.00000e+00	0.00000e+00	0.00000e+00	0.00000e+00	0.00000e+00	0.00000e+00	0.00000e+00	0.00000e+00	0.00000e+00	0.00000e+00	0.00000e+00	0.00000e+00	0.00000e+00	0.00000e+00	0.00000e+00	0.00000e+00	0.00000e+00	0.00000e+00	0.00000e+00	0.00000e+00	0.00000e+00	0.00000e+00	0.00000e+00	0.00000e+00	0.00000e+00	
Factor	1.00000e+00	1.00000e+00	1.00000e+00	1.00000e+00	1.00000e+00	1.00000e+00	1.00000e+00	1.00000e+00	1.00000e+00	1.00000e+00	1.00000e+00	1.00000e+00	1.00000e+00	1.00000e+00	1.00000e+00	1.00000e+00	1.00000e+00	1.00000e+00	1.00000e+00	1.00000e+00	1.00000e+00	1.00000e+00	1.00000e+00	1.00000e+00	1.00000e+00	1.00000e+00	1.00000e+00	1.00000e+00	1.00000e+00	1.00000e+00	1.00000e+00	1.00000e+00	X	X	X	X	X	X	X	X	X	X	X	X	X	X	X	X	

B = Detector Channel
Val Type	B-AC1	B-AC2	B-AC3	B-AC4	B-AC5	B-AC6	B-AC7	B-AC8	B-AC9	B-AC10	B-AC11	B-AC12	B-AC13	B-AC14	B-AC15	B-AC16	B-DC1	B-DC2	B-DC3	B-DC4	B-DC5	B-DC6	B-DC7	B-DC8	B-DC9	B-DC10	B-DC11	B-DC12	B-DC13	B-DC14	B-DC15	B-DC16	B-Ph1	B-Ph2	B-Ph3	B-Ph4	B-Ph5	B-Ph6	B-Ph7	B-Ph8	B-Ph9	B-Ph10	B-Ph11	B-Ph12	B-Ph13	B-Ph14	B-Ph15	B-Ph16	

Term	0.00000e+00	0.00000e+00	0.00000e+00	0.00000e+00	0.00000e+00	0.00000e+00	0.00000e+00	0.00000e+00	0.00000e+00	0.00000e+00	0.00000e+00	0.00000e+00	0.00000e+00	0.00000e+00	0.00000e+00	0.00000e+00	0.00000e+00	0.00000e+00	0.00000e+00	0.00000e+00	0.00000e+00	0.00000e+00	0.00000e+00	0.00000e+00	0.00000e+00	0.00000e+00	0.00000e+00	0.00000e+00	0.00000e+00	0.00000e+00	0.00000e+00	0.00000e+00	6.26660e+01	-1.60708e+02	-1.38034e+02	-1.81640e+02	-8.09839e+01	-1.13405e+02	-1.57973e+02	-1.62015e+02	-1.03025e+02	-8.37485e+01	-1.80409e+02	-1.70637e+02	-1.81506e+02	-1.76090e+02	-1.06331e+02	-1.49360e+02	
Factor	4.46417e-05	7.40306e-05	1.66068e-05	1.80300e-01	6.95920e-07	6.52801e-07	1.65304e-01	5.16653e-02	1.08927e-06	6.59530e-07	1.02996e-01	2.98071e-02	2.44284e-02	9.16901e-03	8.66652e-07	1.32262e-02	3.52392e-07	3.56068e-07	9.93150e-08	8.43590e-02	3.89487e-09	3.90538e-09	7.38614e-02	2.41382e-02	3.89876e-09	3.90770e-09	4.36374e-02	1.29438e-02	1.10597e-02	4.10157e-03	3.91558e-09	5.63340e-03	X	X	X	X	X	X	X	X	X	X	X	X	X	X	X	X	



#DISTANCE SETTINGS
A = Detector Channel
A-1	A-2	A-3	A-4	A-5	A-6	A-7	A-8	A-9	A-10	A-11	A-12	A-13	A-14	A-15	A-16	

2.5000e+00	3.0000e+00	2.5000e+00	3.0000e+00	2.0000e+00	3.0000e+00	1.5000e+00	3.0000e+00	3.0000e+00	3.0000e+00	3.0000e+00	3.0000e+00	3.0000e+00	3.0000e+00	1.5000e+00	3.0000e+00	

B = Detector Channel
B-1	B-2	B-3	B-4	B-5	B-6	B-7	B-8	B-9	B-10	B-11	B-12	B-13	B-14	B-15	B-16	

1.0000e+01	1.0000e+01	1.0000e+01	1.4400e+00	1.0000e+01	1.0000e+01	1.5100e+00	1.9400e+00	1.0000e+01	1.0000e+01	1.9900e+00	2.4900e+00	2.4100e+00	2.9000e+00	1.0000e+01	2.9800e+00	




#DATA BEGINS
time	group	step	mark	flag	A-AC1	A-AC2	A-AC3	A-AC4	A-AC5	A-AC6	A-AC7	A-AC8	A-AC9	A-AC10	A-AC11	A-AC12	A-AC13	A-AC14	A-AC15	A-AC16	A-DC1	A-DC2	A-DC3	A-DC4	A-DC5	A-DC6	A-DC7	A-DC8	A-DC9	A-DC10	A-DC11	A-DC12	A-DC13	A-DC14	A-DC15	A-DC16	A-Ph1	A-Ph2	A-Ph3	A-Ph4	A-Ph5	A-Ph6	A-Ph7	A-Ph8	A-Ph9	A-Ph10	A-Ph11	A-Ph12	A-Ph13	A-Ph14	A-Ph15	A-Ph16	B-AC1	B-AC2	B-AC3	B-AC4	B-AC5	B-AC6	B-AC7	B-AC8	B-AC9	B-AC10	B-AC11	B-AC12	B-AC13	B-AC14	B-AC15	B-AC16	B-DC1	B-DC2	B-DC3	B-DC4	B-DC5	B-DC6	B-DC7	B-DC8	B-DC9	B-DC10	B-DC11	B-DC12	B-DC13	B-DC14	B-DC15	B-DC16	B-Ph1	B-Ph2	B-Ph3	B-Ph4	B-Ph5	B-Ph6	B-Ph7	B-Ph8	B-Ph9	B-Ph10	B-Ph11	B-Ph12	B-Ph13	B-Ph14	B-Ph15	B-Ph16	aux-1	digaux	

7022.353	1	1	0	256	0.02107	0.39878	0.1383	0.053724	0.1742	0.21206	0.35118	0.073458	0.1227	0.22712	0.12302	0.29209	0.26935	0.13693	0.23286	0.14491	-2.425	-1.9979	-2.7604	-2.7604	-2.2646	-2.8417	-2.6583	-2.3729	-2.8208	-2.175	-2.6042	-2.3833	-2.2521	-2.7125	-2.4021	-2.3604	380.246	112.021	262.492	367.561	367.424	417.032	391.923	212.288	195.957	88.890	292.599	90.388	357.357	391.098	260.140	373.820	0.00072697	0.00028015	3.2012e-05	1077	1.1395e-06	2.2557e-07	1176.3	232.97	4.9487e-06	1.1483e-06	294.81	83.266	65.472	19.648	2.7033e-06	27.247	4.6754e-05	4.1127e-05	1.2439e-05	978.96	4.8569e-07	4.4149e-07	1074.9	212.81	4.8737e-07	4.5859e-07	253.92	73.692	57.964	17.551	5.3125e-07	23.885	359.624	117.379	169.255	81.069	295.746	177.363	81.157	89.002	215.567	181.190	88.373	95.182	95.462	102.486	218.688	101.939	-8191	255	
7022.474	1	1	0	0	0.20637	0.14383	0.12463	0.069073	0.22316	0.226	0.32786	0.21569	0.12801	0.10769	0.10338	0.25011	0.098101	0.035125	0.13629	0.10885	-2.3688	-1.9521	-2.5667	-2.625	-2.2167	-2.7542	-2.4604	-2.1771	-2.7188	-2.3875	-2.4708	-2.8021	-2.0563	-2.7188	-2.3917	-2.3021	413.531	107.165	368.987	117.668	313.374	248.378	351.728	405.066	402.247	144.164	418.577	405.066	360.356	362.374	249.291	194.594	0.00056668	0.00027119	2.525e-05	1085	2.0301e-06	1.3551e-06	1172.5	234.25	3.115e-06	6.9439e-07	295.07	84.37	65.805	19.862	1.5748e-06	27.358	4.6708e-05	4.3017e-05	1.3543e-05	982.79	4.9879e-07	4.7934e-07	1076.7	213.48	4.921e-07	4.87e-07	254.57	74.129	58.165	17.762	5.7339e-07	23.944	356.851	173.456	394.185	81.127	185.215	138.592	81.091	88.780	128.149	158.577	88.429	95.037	95.504	101.765	205.386	101.684	-8191	255	
7022.570	1	1	0	0	0.18164	0.31858	0.11978	0.053459	0.21495	0.11297	0.15979	0.46083	0.13397	0.15491	0.30644	0.19292	0.21412	0.049353	0.20305	0.24276	-2.2896	-2.1146	-2.3187	-2.8	-1.8354	-2.8125	-2.6521	-2.225	-2.9021	-2.1958	-2.5083	-2.8021	-2.1833	-2.4292	-2.6271	-2.2438	177.340	184.061	306.334	364.042	380.664	174.017	351.118	135.518	271.908	252.462	382.805	367.608	149.557	240.526	183.360	428.290	0.0007003	0.00018512	4.0325e-05	1087.5	8.1826e-07	1.8901e-06	1177	235.7	1.5461e-06	1.4569e-06	293.89	83.968	65.621	19.696	2.168e-06	27.012	4.9057e-05	4.558e-05	1.4584e-05	983.73	5.0496e-07	5.2687e-07	1078.4	214.21	5.1353e-07	5.5353e-07	254.88	74.109	58.109	17.695	6.8797e-07	24.014	360.820	177.598	173.603	81.109	114.944	138.812	81.261	88.687	233.403	211.133	88.281	94.982	95.726	102.319	163.843	101.463	-8191	255	
7022.666	1	1	0	0	0.12207	0.23608	0.062809	0.32877	0.18026	0.25301	0.4441	0.32727	0.15373	0.22854	0.041999	0.098425	0.2443	0.1617	0.1311	0.18606	-2.2917	-2.3875	-2.1917	-2.9146	-2.0625	-2.4979	-2.8417	-2.2375	-2.8417	-2.4583	-2.2625	-2.875	-2.2542	-2.4708	-2.5271	-2.3063	251.583	337.293	374.916	402.198	284.465	72.987	371.452	253.057	205.937	173.634	175.180	98.510	73.556	389.784	113.963	367.569	0.00068851	0.00051093	2.2143e-05	1083.9	3.6589e-06	1.1241e-06	1176.4	233.18	1.8123e-06	1.2576e-06	295.73	83.845	65.821	19.714	2.5542e-06	27.213	5.9897e-05	6.4347e-05	1.7982e-05	985.53	6.2285e-07	7.0122e-07	1079.6	214.24	6.259e-07	7.1389e-07	256.52	74.171	58.251	17.767	6.3375e-07	23.909	340.422	112.635	204.465	81.187	239.464	218.708	80.899	88.538	181.292	146.646	88.178	95.103	95.618	102.301	188.521	101.482	-8191	255	
7022.762	1	1	0	0	0.18792	0.09708	0.080522	0.3626	0.19248	0.15786	0.068871	0.17105	0.17871	0.1528	0.063643	0.20408	0.13983	0.068956	0.049756	0.2059	-2.1333	-2.5187	-2.2542	-2.9313	-2.1771	-2.4062	-2.8646	-2.15	-2.5729	-2.575	-2.1958	-2.7708	-2.1958	-2.4167	-2.65	-2.0333	213.357	142.913	125.967	353.724	345.435	163.319	290.909	417.372	364.334	175.808	301.803	369.250	167.930	335.121	184.357	420.185	0.00059464	0.00016673	5.84e-05	1087	2.7667e-06	1.1903e-06	1175.2	234.37	2.4874e-06	8.5881e-07	294.37	83.416	65.098	19.589	2.0622e-06	26.923	5.3572e-05	5.7825e-05	1.5047e-05	983.22	5.6152e-07	6.1994e-07	1076.3	213.29	5.4515e-07	6.1491e-07	254.12	73.453	57.878	17.616	5.5587e-07	23.76	347.584	140.343	159.721	81.169	178.424	135.213	81.010	88.949	165.627	328.760	88.446	95.140	95.842	102.021	129.156	101.765	-8191	255	
7022.881	1	1	0	0	0.10224	0.038048	0.087052	0.32821	0.067478	0.41488	0.15219	0.21875	0.49411	0.159	0.28024	0.14296	0.31827	0.32347	0.14908	0.095238	-1.975	-2.6375	-2.0875	-2.8187	-2.3021	-2.2687	-2.8937	-1.8521	-2.6542	-2.5021	-2.2042	-3.0521	-2.2792	-2.4625	-2.7562	-2.175	129.000	386.652	113.110	390.974	259.018	257.971	427.854	128.225	227.379	110.609	84.918	72.734	268.151	165.606	85.555	129.321	0.00075846	0.00016897	4.8678e-05	1087.7	1.1556e-06	2.6768e-06	1177	233.9	4.5063e-06	1.9215e-06	296.55	83.799	65.603	19.626	2.1976e-06	26.934	5.395e-05	5.4142e-05	1.3759e-05	984.12	5.6773e-07	5.9063e-07	1076.7	213.17	5.6463e-07	5.7349e-07	254.48	73.725	58.162	17.614	5.1293e-07	23.709	347.751	423.909	130.252	81.312	233.652	167.248	81.135	88.729	197.834	273.682	88.232	95.431	95.402	102.353	148.032	102.022	-8191	255	
7022.953	1	1	0	0	0.13872	0.11758	0.33781	0.14393	0.23	0.049999	0.28036	0.24353	0.17977	0.19328	0.12886	0.044904	0.11945	0.31311	0.24954	0.19653	-2.2792	-2.8104	-1.9208	-2.9229	-2.4396	-2.3812	-3.0833	-2.1312	-2.3896	-2.625	-2.2042	-2.7167	-2.6292	-2.2062	-2.9521	-2.0354	313.889	280.130	401.958	385.288	189.966	350.260	365.817	399.470	398.021	427.382	390.594	176.191	399.879	292.271	396.255	229.698	0.00068064	0.00016348	4.2195e-05	1083.5	3.2741e-06	1.9245e-06	1180.3	232.75	3.3915e-06	7.6808e-07	294.45	83.256	65.196	19.485	3.1422e-06	26.762	5.4576e-05	5.1117e-05	1.3158e-05	983.79	5.7643e-07	5.524e-07	1076.4	212.63	5.6994e-07	5.3014e-07	253.34	73.328	57.95	17.424	4.9451e-07	23.681	358.799	116.990	145.559	81.212	206.327	242.014	81.113	88.863	232.770	179.434	88.652	95.505	95.201	102.235	222.487	101.820	-8191	255	
7023.049	1	1	0	0	0.12668	0.1223	0.2361	0.19392	0.14593	0.3118	0.30098	0.12981	0.10989	0.068122	0.16495	0.11234	0.11471	0.16702	0.15268	0.1491	-2.0687	-2.6354	-2.1708	-2.8729	-2.5521	-2.1208	-3.0062	-2.2792	-2.6021	-2.7729	-2.2438	-2.5833	-2.5417	-2.025	-2.9021	-2.4125	418.995	319.743	88.294	372.842	149.238	336.447	327.824	296.676	242.776	262.697	416.745	298.449	284.940	350.283	361.869	250.193	0.00076528	0.0001263	3.3076e-05	1080.9	3.2539e-06	1.2915e-06	1173.6	233.76	3.0651e-06	1.9207e-06	295.09	83.727	64.974	19.356	8.6511e-07	26.667	5.6187e-05	4.8244e-05	1.2887e-05	981.12	5.8892e-07	5.2814e-07	1072.9	212.58	5.8658e-07	5.2274e-07	253.11	73.513	57.767	17.424	4.8524e-07	23.713	363.249	128.244	190.923	81.227	202.299	261.118	81.056	88.467	251.828	202.800	88.081	95.189	95.360	102.178	125.751	101.981	-8191	255	
7023.170	1	1	0	0	0.33261	0.13923	0.21346	0.3398	0.21924	0.15454	0.11128	0.11814	0.32578	0.021485	0.13137	0.23646	0.039431	0.44093	0.076226	0.20338	-1.8458	-2.7812	-2.1208	-2.7521	-2.6292	-2.2438	-2.9521	-2.4875	-2.5125	-2.7875	-2.3625	-2.5812	-2.7229	-2.0812	-2.7438	-2.4604	205.410	303.097	156.824	380.043	173.850	109.047	344.073	387.524	253.088	429.888	428.906	322.498	71.990	332.245	152.359	86.554	0.000572	0.00024428	4.4104e-05	1077.1	5.7911e-07	4.8806e-07	1166.5	232.39	1.9062e-06	1.2529e-06	292.28	83.355	65.207	19.55	4.273e-06	26.813	5.4332e-05	4.6461e-05	1.235e-05	981.54	5.5865e-07	5.0565e-07	1071.5	212.14	5.4858e-07	4.9696e-07	252.41	73.466	57.708	17.427	4.8883e-07	23.711	362.052	138.843	124.395	81.040	250.306	202.481	81.158	88.752	114.434	179.977	88.174	95.230	95.282	102.086	247.593	101.762	-8191	255	
7023.266	1	1	0	0	0.31328	0.24604	0.074247	0.31625	0.10758	0.081176	0.12725	0.28589	0.39179	0.20277	0.19018	0.045243	0.15476	0.24655	0.20843	0.16597	-1.8208	-2.8833	-2.1562	-2.775	-2.7792	-1.9792	-2.8417	-2.4792	-2.1979	-2.8917	-2.3146	-2.5062	-2.7062	-2.1375	-2.6271	-2.5875	189.688	237.065	131.438	395.852	178.260	100.059	418.187	301.590	110.185	215.229	236.970	88.037	424.546	376.356	397.805	223.764	0.00067464	0.0001048	3.2248e-05	1084.8	4.7618e-07	2.107e-06	1170.8	232.35	2.0648e-06	7.9552e-07	292.99	83.77	65.114	19.347	1.5393e-06	26.84	5.3037e-05	4.5104e-05	1.2619e-05	982.53	5.259e-07	4.9008e-07	1070.9	212.21	5.2082e-07	4.7052e-07	252.84	73.494	57.557	17.294	5.0167e-07	23.589	361.247	271.814	173.081	81.137	245.608	207.088	81.087	88.947	232.525	202.482	88.767	95.059	95.540	102.381	186.108	101.914	-8191	255	
7023.362	1	1	0	0	0.067482	0.016397	0.072605	0.30642	0.060674	0.25347	0.19161	0.1674	0.1011	0.21444	0.19677	0.11747	0.19472	0.37708	0.098461	0.16153	-1.6604	-2.8583	-2.2042	-2.5812	-2.5854	-2.2188	-2.8375	-2.7542	-2.0104	-2.8896	-2.3146	-2.5979	-2.8354	-2.3396	-2.4625	-2.6625	310.200	378.676	156.115	425.359	163.359	367.790	340.151	372.783	343.956	128.506	429.430	416.242	322.154	374.697	404.287	366.382	0.00065737	0.00020373	3.3621e-05	1073.6	1.6422e-06	2.6979e-06	1168.5	231.95	1.3415e-06	1.5234e-06	294.65	82.626	64.603	19.207	4.1097e-06	26.606	4.8935e-05	4.2721e-05	1.2997e-05	976.21	5.0197e-07	4.7314e-07	1069.4	211.43	5.1291e-07	4.6822e-07	252.44	73.052	57.255	17.199	5.3054e-07	23.462	366.551	95.124	142.743	81.201	146.089	251.471	81.157	88.849	175.966	212.319	88.282	95.212	95.799	102.537	202.919	101.300	-8191	255	
7023.483	1	1	0	0	0.089442	0.0089852	0.24221	0.18326	0.062653	0.11057	0.08382	0.20272	0.09684	0.10187	0.20032	0.07211	0.063221	0.24929	0.2435	0.17589	-1.7354	-2.4375	-2.4271	-2.35	-2.9208	-2.1542	-2.6813	-2.7458	-2.1771	-2.7771	-2.5312	-2.1688	-2.7479	-2.3708	-2.4792	-2.7021	429.108	146.497	80.938	391.370	197.673	154.734	87.181	388.815	303.331	386.746	420.708	260.661	403.306	132.290	282.247	177.110	0.00055874	0.00020148	5.2548e-05	1066.9	3.4715e-06	2.8588e-06	1161.5	229.89	3.083e-06	1.0648e-06	290.38	82.21	63.894	18.986	2.3668e-06	26.391	4.7304e-05	4.1543e-05	1.3431e-05	972.76	4.7165e-07	4.5444e-07	1063.5	209.53	4.7995e-07	4.575e-07	250.27	72.252	56.411	17.012	5.3189e-07	23.276	355.964	128.898	104.306	81.211	211.055	117.801	81.219	89.215	193.238	196.945	88.462	95.470	95.683	102.374	153.904	102.239	-8191	255	
7023.579	1	1	0	0	0.14438	0.059972	0.23726	0.52368	0.129	0.16142	0.22614	0.32661	0.1551	0.065973	0.28803	0.20374	0.17164	0.21406	0.19668	0.36127	-1.6021	-2.5917	-2.3438	-2.3104	-2.7083	-2.1625	-2.5208	-2.8375	-2.0396	-2.6625	-2.525	-2.2604	-2.8521	-2.1396	-2.4792	-2.8771	347.037	151.289	424.583	373.919	423.875	312.764	88.924	360.750	406.851	272.641	344.193	87.042	216.060	428.820	378.203	377.900	0.00074981	0.00029226	1.5157e-05	1068.7	1.0301e-06	1.9466e-06	1153.5	227.68	4.0159e-06	2.0288e-06	286.05	81.158	63.455	18.815	3.3527e-06	26.176	4.5519e-05	4.1808e-05	1.3091e-05	964.93	4.4367e-07	4.765e-07	1054.6	206.98	4.5481e-07	4.6624e-07	247.05	71.316	55.889	16.779	5.0219e-07	22.946	354.045	125.761	157.598	81.184	215.315	185.872	81.125	88.693	187.680	259.557	88.389	95.635	95.817	102.553	193.345	102.121	-8191	255	
7023.651	1	1	0	0	0.15435	0.21859	0.098182	0.29534	0.13493	0.135	0.21275	0.15458	0.11955	0.20742	0.10767	0.26902	0.23734	0.17544	0.08494	0.23534	-1.6187	-2.5271	-2.6229	-2.0729	-2.9271	-2.4125	-2.4479	-2.8208	-2.0438	-2.5896	-2.9854	-2.275	-2.5438	-2.4417	-2.1792	-2.9667	76.467	137.179	105.879	71.317	388.426	277.956	396.473	416.356	369.559	181.259	168.174	232.415	239.711	374.431	165.681	411.533	0.00053253	0.00028849	1.8009e-05	1056.4	2.8289e-06	3.2074e-07	1144.3	226.16	2.5057e-06	5.2103e-07	285.6	80.53	62.865	18.639	1.6266e-06	26.124	4.2493e-05	4.3661e-05	1.2323e-05	957.38	4.2461e-07	4.8008e-07	1047.2	205.18	4.3517e-07	4.7297e-07	245.15	70.785	55.514	16.686	4.6883e-07	22.757	356.935	107.663	209.490	80.950	260.491	156.495	81.193	89.042	159.154	188.497	88.695	95.624	96.087	103.020	427.164	102.385	-8191	255	
7023.771	1	1	0	0	0.27955	0.2067	0.078213	0.21211	0.17372	0.11517	0.297	0.22761	0.061387	0.075352	0.18364	0.13309	0.21053	0.33041	0.099656	0.085052	-1.8062	-2.4271	-2.6146	-2.2042	-2.7104	-2.3979	-2.3417	-3.0146	-2.3083	-2.3667	-2.8333	-2.1125	-2.8583	-2.4458	-2.35	-2.6917	374.531	271.737	122.972	348.669	244.711	142.009	380.794	419.526	416.949	231.414	86.031	409.843	359.116	410.714	244.127	110.412	0.00055587	0.00018605	3.7318e-05	1049.6	2.6234e-06	1.2335e-06	1142.3	223.97	3.9761e-06	3.1594e-07	284.82	80.125	63.009	18.522	1.7517e-06	26.108	4.16e-05	4.4623e-05	1.1785e-05	950.76	4.3546e-07	4.9075e-07	1043	203.76	4.3863e-07	4.8402e-07	244.32	70.576	55.353	16.592	4.5585e-07	22.728	354.115	152.253	227.284	81.264	173.125	167.457	81.074	89.064	180.364	229.111	88.656	95.535	95.608	102.978	149.594	102.225	-8191	255	
7023.866	1	1	0	0	0.16273	0.28113	0.13935	0.23201	0.21496	0.23327	0.1207	0.21242	0.18961	0.15584	0.056618	0.065143	0.16541	0.020753	0.13754	0.14284	-1.9625	-2.2292	-2.7583	-2.1042	-2.6937	-2.5563	-2.0187	-2.95	-2.4813	-2.4292	-2.8604	-2.2583	-2.4021	-2.7792	-1.9604	-2.9021	273.655	205.962	207.660	404.546	324.104	183.146	401.809	343.738	388.066	361.713	357.082	430.035	251.012	224.518	292.298	373.394	0.0006762	0.00032497	1.6505e-05	1049.1	3.0248e-06	6.5698e-07	1138.7	224.59	5.9992e-06	2.8794e-06	284.1	80.586	62.806	18.57	2.1529e-06	25.858	4.4498e-05	4.3643e-05	1.105e-05	949.79	4.5604e-07	4.7512e-07	1038.8	203.52	4.6872e-07	4.686e-07	244.14	70.635	55.408	16.595	4.4089e-07	22.65	363.617	134.371	205.137	81.405	218.081	104.779	81.206	89.070	203.663	240.844	88.710	95.639	95.734	102.740	183.575	102.222	-8191	255	
7023.962	1	1	0	0	0.27868	0.24663	0.052977	0.23751	0.026538	0.19181	0.39649	0.1794	0.14886	0.15742	0.23737	0.20799	0.15026	0.041657	0.14444	0.11653	-1.9833	-2.4188	-2.6562	-2.4688	-2.5312	-2.6063	-2.0938	-2.675	-2.2979	-2.3833	-2.8083	-2.2667	-2.4792	-2.5583	-2.1229	-2.6937	332.999	351.442	266.943	393.060	84.786	167.939	304.094	382.698	105.211	123.301	103.640	109.178	307.826	186.266	270.297	283.602	0.00062936	5.3735e-05	3.7721e-05	1046.9	1.6103e-06	2.8487e-06	1135.7	225.27	4.9211e-06	1.5195e-06	284.63	80.287	62.648	18.452	2.6347e-06	25.878	4.5828e-05	4.2337e-05	1.0765e-05	948.77	4.9111e-07	4.5021e-07	1038.4	203.61	4.8981e-07	4.5133e-07	243.76	70.502	55.406	16.545	4.2128e-07	22.696	350.951	78.886	118.939	81.299	188.044	201.141	81.139	89.099	197.818	230.620	88.806	95.425	95.693	102.755	174.419	102.146	-8191	255	
7024.058	1	1	0	0	0.094376	0.20333	0.12545	0.32223	0.11909	0.14259	0.18139	0.41496	0.35364	0.080419	0.088656	0.14124	0.29113	0.076067	0.13787	0.23502	-1.9979	-2.0938	-2.9396	-2.3354	-2.3521	-2.9125	-2.3979	-2.7271	-2.5542	-2.1021	-3.0229	-2.2417	-2.4437	-2.8396	-1.9792	-2.7208	160.794	254.336	180.829	313.088	315.324	188.883	406.438	390.504	209.051	153.353	145.954	214.391	371.008	172.444	114.352	362.873	0.00075011	0.00013086	5.562e-05	1051.1	5.7705e-07	9.1761e-07	1133.5	223.34	2.7041e-06	8.299e-07	283.35	80.151	62.548	18.495	3.0107e-06	25.906	4.7257e-05	4.0588e-05	1.0284e-05	948.08	4.8269e-07	4.3061e-07	1037.3	203.2	4.8012e-07	4.3324e-07	243.39	70.466	55.269	16.549	4.1592e-07	22.653	352.580	198.298	127.585	81.388	190.985	114.223	81.229	88.996	241.748	105.465	88.692	95.488	96.037	102.791	177.978	101.844	-8191	255	
7024.178	1	1	0	0	0.27076	0.32136	0.25125	0.14801	0.14911	0.14504	0.18727	0.11784	0.12374	0.1123	0.15121	0.076056	0.17039	0.22163	0.13397	0.17141	-2.1083	-2.1063	-2.6833	-2.3667	-2.35	-2.7625	-2.2979	-2.5938	-2.5146	-2.1771	-2.8688	-2.6375	-2.0938	-2.7271	-2.1333	-2.5667	210.703	388.652	297.375	310.648	320.735	129.867	344.443	422.028	422.764	411.573	249.161	182.836	365.998	202.216	163.540	310.190	0.00060335	0.00019785	3.7212e-05	1044	1.5966e-06	5.2235e-07	1136.7	223.97	1.7124e-06	1.6275e-06	283.71	80.409	63.138	18.447	2.53e-06	26.001	4.5998e-05	3.9584e-05	1.0272e-05	946.82	4.7608e-07	4.2656e-07	1037.5	203.59	4.6048e-07	4.3367e-07	243.92	70.695	55.349	16.469	4.2939e-07	22.781	350.234	122.314	153.338	81.211	295.760	215.819	81.304	88.702	217.804	301.290	88.746	95.522	96.035	102.295	181.247	102.030	-8191	255	
7024.250	1	1	0	0	0.074318	0.060946	0.18023	0.18421	0.20189	0.17476	0.1658	0.34814	0.1589	0.17123	0.40468	0.22085	0.12524	0.12824	0.25805	0.13007	-2.2854	-2	-2.725	-2.6083	-2.0646	-2.7542	-2.3583	-2.4208	-2.7021	-2.0646	-2.7792	-2.5646	-2.0146	-2.9208	-2.4083	-2.4854	352.306	324.368	140.705	344.928	419.494	321.112	426.840	390.607	380.713	356.775	381.860	370.376	355.420	135.421	164.161	421.619	0.00060223	0.00014734	5.5529e-05	1048.1	2.0946e-06	2.2597e-06	1138.1	225.08	2.7278e-06	1.1851e-06	283.47	80.287	63.024	18.679	2.5745e-06	25.936	4.484e-05	3.9426e-05	1.0664e-05	948.98	4.6042e-07	4.2092e-07	1038.7	204.57	4.5937e-07	4.3049e-07	243.91	70.796	55.439	16.593	4.5377e-07	22.829	360.844	92.195	173.974	81.208	235.833	143.418	81.452	88.789	184.446	246.045	88.687	95.639	95.990	102.791	245.786	102.115	-8191	255	
7024.346	1	1	0	0	0.36585	0.35046	0.057181	0.080079	0.095302	0.14934	0.11687	0.085343	0.25612	0.12263	0.089713	0.17443	0.10548	0.086737	0.087161	0.13464	-2.275	-1.9583	-2.8604	-2.7687	-2.1479	-2.8812	-2.4896	-2.2188	-2.7875	-2	-2.625	-2.7208	-2.275	-2.6896	-2.3854	-2.3917	97.279	356.016	190.541	377.309	132.943	93.123	128.967	277.315	372.223	367.616	420.786	404.242	348.164	360.411	362.002	326.202	0.00059798	0.00011214	2.0178e-05	1042	1.1399e-06	1.2438e-06	1140.7	224.51	3.6606e-06	1.7605e-06	284.88	80.888	62.529	18.716	1.0143e-06	26.038	4.4385e-05	3.9006e-05	1.169e-05	948.1	4.5624e-07	4.2167e-07	1040.4	204.56	4.4345e-07	4.1615e-07	244.85	70.937	55.361	16.587	4.8948e-07	22.833	360.885	124.359	146.553	81.273	216.199	158.536	81.323	88.584	220.705	229.169	88.450	95.391	95.798	102.443	141.688	101.812	-8191	255	
7024.442	1	1	0	0	0.13491	0.048896	0.31572	0.33533	0.11424	0.04262	0.10757	0.18771	0.10817	0.058076	0.25402	0.15874	0.20111	0.3529	0.053596	0.13873	-2.225	-2.0479	-2.4479	-2.7146	-2.1312	-2.7167	-2.5521	-2.1604	-3	-2.2396	-2.5792	-2.8042	-2.2021	-2.7708	-2.3438	-2.4062	232.087	183.855	143.530	371.355	335.177	215.208	402.197	342.778	95.307	176.825	125.481	366.788	270.490	309.378	313.110	241.078	0.0006527	0.00010713	3.6388e-05	1046.6	1.9194e-06	1.7972e-06	1140.4	223.68	2.8365e-06	2.0876e-06	285.07	81.301	62.837	18.707	2.161e-06	26.029	4.2686e-05	3.9035e-05	1.2299e-05	949.9	4.5595e-07	4.2485e-07	1043.5	204.31	4.3851e-07	4.332e-07	245.32	71.154	55.49	16.664	4.9899e-07	22.815	370.991	351.553	418.114	81.331	319.363	208.553	81.357	89.150	253.749	174.809	88.867	95.519	95.796	102.773	174.324	101.594	-8191	255	
7024.563	1	1	0	0	0.26012	0.18146	0.29141	0.15592	0.054733	0.35022	0.070236	0.086528	0.21532	0.054175	0.27968	0.22296	0.19233	0.057634	0.13587	0.18407	-2.3458	-2.2958	-2.3583	-2.8979	-2.0896	-2.7583	-2.5917	-2.3417	-2.7438	-2.3396	-2.3	-2.6354	-1.9	-2.6562	-2.6229	-2.1979	394.712	344.297	322.374	105.508	293.221	87.363	122.004	318.994	139.243	158.255	428.040	96.630	161.065	179.453	427.026	330.922	0.00065337	0.00041939	2.9605e-05	1053.4	2.6328e-06	1.7184e-06	1138.4	226.09	2.2531e-06	9.1193e-07	285.57	80.824	62.79	18.723	2.2316e-06	26.095	4.1874e-05	4.0075e-05	1.2495e-05	952.82	4.3308e-07	4.4695e-07	1043.4	204.9	4.3114e-07	4.5792e-07	245.11	70.909	55.46	16.693	4.9521e-07	22.812	354.412	106.790	187.081	81.236	184.692	152.704	81.036	89.070	168.316	245.460	88.218	95.578	95.541	102.546	176.319	102.039	-8191	255	
7024.659	1	1	0	0	0.020133	0.080514	0.070971	0.16668	0.28524	0.13843	0.10625	0.17174	0.2508	0.086077	0.088682	0.13865	0.22838	0.10047	0.18029	0.25993	-2.2854	-2.2188	-2.2646	-3.0271	-2.0229	-2.7042	-2.7208	-2.3312	-2.875	-2.55	-2.2562	-2.7938	-1.8708	-2.5687	-2.8083	-2.1875	184.516	189.748	302.016	132.743	420.635	416.625	286.304	113.852	197.437	130.207	328.401	222.640	408.610	414.211	155.715	348.449	0.00066802	7.2851e-05	5.9075e-05	1051.3	2.2183e-06	1.5639e-06	1135	225.99	1.9095e-06	1.2077e-06	285.15	80.581	63.142	18.615	1.0995e-06	26.129	4.0596e-05	4.3819e-05	1.2288e-05	951.17	4.3226e-07	4.7343e-07	1041.8	205	4.2012e-07	4.8964e-07	245.64	70.9	55.661	16.706	4.6512e-07	22.884	356.039	240.926	138.032	81.027	270.540	176.412	81.221	89.044	304.740	111.923	88.183	95.355	95.624	102.888	333.360	101.942	-8191	255	
7024.754	1	1	0	0	0.082915	0.21661	0.11534	0.19518	0.12916	0.17081	0.2791	0.30606	0.18391	0.097053	0.13022	0.28484	0.23617	0.20848	0.1744	0.12056	-2.4479	-2.275	-2.275	-2.8896	-2.1437	-2.2896	-2.9104	-2.2917	-2.6875	-2.3896	-2.2792	-2.8458	-2.1521	-2.4583	-2.7396	-2.0396	147.738	71.554	139.682	99.739	293.290	274.353	311.648	343.516	180.751	214.111	313.341	121.471	226.975	336.706	317.305	88.714	0.00063205	0.00021399	2.9205e-05	1052.5	1.8326e-06	2.166e-06	1137	225.43	2.1296e-06	2.8419e-07	285.87	80.379	62.823	18.541	2.9197e-06	26.036	4.2047e-05	4.6057e-05	1.1877e-05	950.56	4.4765e-07	5.024e-07	1042.3	204.9	4.4493e-07	4.9749e-07	245.01	70.734	55.55	16.678	4.5238e-07	22.8	348.284	342.442	238.316	80.979	220.168	261.273	80.936	88.884	157.430	206.082	88.554	95.174	95.780	102.612	191.663	102.153	-8191	255	
7024.852	1	1	0	0	0.2904	0.060654	0.078901	0.14249	0.14243	0.10531	0.31086	0.12097	0.15351	0.17241	0.077061	0.35273	0.11065	0.20636	0.32086	0.24004	-2.2625	-2.4146	-2.0917	-2.9583	-2.1792	-2.1292	-3.0229	-2.0271	-2.5417	-2.5292	-2.1646	-2.7375	-2.4562	-2.35	-2.7604	-2.2562	120.616	384.550	111.164	71.843	188.164	270.138	407.953	336.215	355.672	307.765	219.015	160.232	71.880	417.602	409.934	101.952	0.00064796	0.00029052	2.2553e-05	1043.8	2.7597e-06	8.4873e-07	1135	225.27	4.1418e-06	1.2627e-06	284.1	81.12	63.011	18.676	2.4932e-06	26.154	4.4571e-05	4.495e-05	1.1551e-05	949.66	4.7434e-07	4.8939e-07	1040.5	204.96	4.7925e-07	4.7952e-07	244.47	70.952	55.742	16.717	4.5015e-07	22.849	358.957	165.866	422.925	81.276	260.739	212.298	80.996	88.837	196.020	411.596	88.371	95.808	95.846	102.822	207.717	101.982	-8191	255	
7024.946	1	1	0	0	0.22152	0.35239	0.36845	0.18835	0.16434	0.12295	0.082536	0.15939	0.24521	0.2864	0.148	0.04623	0.33135	0.16163	0.070423	0.24609	-1.9625	-2.4813	-1.9979	-2.7104	-2.2938	-2.1375	-3.05	-2.0708	-2.6813	-2.5958	-2.2062	-2.625	-2.4688	-2.0729	-2.6542	-2.35	352.165	357.958	334.990	417.761	148.895	174.633	107.183	99.159	201.263	219.053	79.671	198.443	385.359	80.177	213.747	340.903	0.00068214	0.00018583	2.9321e-05	1049.9	1.9744e-06	1.7844e-06	1135	225.53	2.0577e-06	1.598e-06	285.03	81.031	62.503	18.69	1.2827e-06	26.189	4.7379e-05	4.2944e-05	1.1266e-05	949.77	4.9301e-07	4.676e-07	1040.2	204.8	4.938e-07	4.6048e-07	244.52	70.705	55.495	16.672	4.2584e-07	22.882	366.330	141.213	251.861	81.343	251.302	181.136	81.116	88.922	189.454	151.396	88.396	95.163	95.690	102.792	245.039	102.023	-8191	255	
7025.042	1	1	0	0	0.18397	0.1677	0.20167	0.30222	0.26125	0.16729	0.10679	0.083088	0.32467	0.20588	0.18039	0.18282	0.24318	0.30207	0.085262	0.22372	-2.0104	-2.7729	-2.0771	-2.7938	-2.3354	-2.2687	-2.9833	-2.2562	-2.3646	-2.6958	-2.0208	-2.6625	-2.6229	-2.1312	-2.7792	-2.3042	168.880	411.321	187.442	93.348	136.888	370.511	371.357	361.523	256.507	224.176	425.698	201.965	387.298	75.903	276.096	108.491	0.00057094	0.00012369	4.01e-05	1052.5	9.0745e-07	5.1386e-07	1136.3	225.03	1.6689e-06	1.4655e-06	284.6	80.976	63	18.683	1.604e-06	26.053	4.8547e-05	4.1347e-05	1.0967e-05	950.58	5.0408e-07	4.5094e-07	1039.9	204.8	4.9336e-07	4.4729e-07	244.74	71.01	55.652	16.667	4.1177e-07	22.826	351.397	401.988	109.155	81.056	235.181	196.818	81.422	88.874	191.811	164.658	88.530	95.751	95.702	102.811	185.371	101.563	-8191	255	
7025.163	1	1	0	0	0.14694	0.20697	0.19326	0.2086	0.32953	0.15928	0.23609	0.11968	0.088527	0.16203	0.10035	0.28904	0.22525	0.158	0.26172	0.10516	-1.7917	-2.7958	-1.8687	-2.8187	-2.5	-2.1083	-2.9354	-2.4688	-2.1958	-2.8604	-2.2583	-2.4917	-2.5333	-2.0771	-2.7958	-2.4354	263.378	332.652	132.630	71.229	214.490	167.570	319.259	311.691	79.911	274.980	134.397	75.943	424.250	296.660	273.219	348.209	0.00060558	7.1585e-05	3.6047e-05	1052.7	1.3888e-06	1.1181e-06	1136.9	226.32	4.2378e-06	2.3508e-06	284.67	80.01	63.067	18.63	4.4466e-06	25.836	4.7764e-05	4.0085e-05	1.0959e-05	951.43	4.911e-07	4.3835e-07	1037.9	205.52	4.8581e-07	4.2797e-07	245.07	70.905	55.694	16.692	4.2894e-07	22.848	350.751	89.506	114.635	81.338	267.975	173.781	81.106	89.038	198.498	195.786	88.543	95.485	95.336	102.780	223.798	101.738	-8191	255	
7025.257	1	1	0	0	0.11599	0.339	0.059033	0.20047	0.26262	0.25389	0.2275	0.091018	0.16719	0.012473	0.21088	0.2627	0.090425	0.064794	0.1826	0.13512	-1.6354	-2.7229	-2.1479	-2.7125	-2.6292	-2.0563	-2.9938	-2.5312	-2.0729	-2.7812	-2.3146	-2.5438	-2.6479	-2.0479	-2.7375	-2.7083	237.297	267.015	178.119	98.709	278.477	93.103	340.436	397.595	405.985	82.168	108.504	387.029	88.405	404.310	359.704	128.612	0.00060426	0.00018185	3.2533e-05	1053.7	1.6555e-06	1.7576e-06	1140.2	226.25	2.7858e-06	5.7638e-07	287.15	80.485	63.07	18.785	3.256e-06	26.031	4.64e-05	3.8854e-05	1.0899e-05	953.43	4.7392e-07	4.2174e-07	1042.8	205.82	4.6226e-07	4.2141e-07	245.68	71.042	55.71	16.723	4.4828e-07	22.887	353.459	161.553	142.615	81.084	266.902	206.277	81.421	88.913	226.045	298.216	88.589	95.332	96.067	102.335	198.566	101.998	-8191	255	
7025.353	1	1	0	0	0.22682	0.18581	0.041138	0.19705	0.23982	0.073189	0.1608	0.24731	0.091037	0.18735	0.09221	0.036567	0.16019	0.089462	0.18132	0.077148	-1.5396	-2.8083	-2.2313	-2.4479	-2.5521	-1.9271	-2.6312	-2.5479	-2.0604	-2.6021	-2.3812	-2.2625	-2.8708	-1.9896	-2.6125	-2.5146	330.250	410.266	178.940	373.448	233.154	312.156	341.632	71.915	404.592	212.610	78.153	395.353	141.805	422.017	149.825	302.701	0.00058024	2.3526e-05	4.1586e-05	1050	1.4627e-06	1.6614e-06	1140.4	225.33	5.8029e-07	1.9824e-06	284.45	80.787	62.814	18.753	7.4422e-07	25.941	4.3893e-05	3.775e-05	1.1704e-05	952.33	4.5142e-07	4.2486e-07	1042.3	205.28	4.4808e-07	4.077e-07	245.17	71.137	55.527	16.698	4.7878e-07	22.806	351.359	96.978	154.379	81.214	135.895	222.724	81.250	88.976	277.613	176.979	88.618	95.516	95.750	102.822	138.879	102.270	-8191	255	
7025.474	1	1	0	0	0.078372	0.15498	0.158	0.27986	0.18429	0.18173	0.080738	0.10763	0.25442	0.17468	0.23176	0.18924	0.31557	0.36211	0.19927	0.12522	-1.6479	-2.8063	-2.2208	-2.4583	-2.8	-2.0854	-2.7167	-2.5333	-2.1813	-2.5729	-2.4667	-2.2271	-3.1188	-2.2917	-2.4062	-2.6625	264.261	156.446	317.570	418.877	310.900	108.453	387.825	149.737	254.686	337.418	399.407	260.404	102.188	366.907	332.342	329.914	0.0006125	0.00017504	4.1237e-05	1045.8	1.7957e-06	1.1589e-06	1136.9	224.9	6.6894e-07	2.6349e-06	283.91	80.68	62.879	18.716	3.2189e-07	25.952	4.3723e-05	3.8043e-05	1.2371e-05	951.17	4.2994e-07	4.148e-07	1043.1	204.97	4.3797e-07	4.2364e-07	244.82	70.999	55.526	16.712	4.8044e-07	22.813	351.286	86.218	173.427	81.104	171.540	101.542	81.246	88.816	240.433	188.776	88.815	95.241	95.575	102.654	206.939	102.066	-8191	255	
7025.546	1	1	0	0	0.037689	0.36333	0.10401	0.080884	0.089448	0.16872	0.16282	0.25496	0.34752	0.082079	0.30938	0.21542	0.14322	0.056342	0.066303	0.051775	-1.5125	-2.6958	-2.1583	-2.1708	-2.7417	-2.1708	-2.5271	-2.6625	-2.225	-2.6021	-2.5812	-2.2708	-2.6229	-2.4562	-2.1	-2.9938	323.874	352.107	354.771	185.691	251.091	83.195	302.441	399.275	332.203	282.063	354.551	101.151	324.067	252.434	420.023	242.421	0.00061126	0.00018857	5.2839e-05	1049.8	4.9213e-07	1.6536e-06	1133.9	224.73	3.1929e-06	2.2572e-06	286.22	80.433	62.765	18.83	2.7214e-06	26.039	4.2283e-05	4.036e-05	1.2642e-05	951.93	4.2749e-07	4.5057e-07	1041.3	204.75	4.3273e-07	4.5177e-07	245.86	70.897	55.448	16.742	4.8556e-07	22.849	360.902	240.300	150.754	80.944	152.248	182.606	81.284	88.980	229.815	183.305	88.407	95.558	95.974	102.390	183.493	101.668	-8191	255	
7025.642	1	1	0	0	0.15182	0.025788	0.19521	0.25328	0.18916	0.13756	0.11594	0.10094	0.19369	0.17874	0.075772	0.21849	0.20478	0.26363	0.1483	0.14473	-1.7167	-2.5833	-2.5542	-2.3937	-2.8292	-2.3854	-2.4313	-2.7896	-2.275	-2.5333	-2.8667	-2.1083	-2.6917	-2.3312	-1.9375	-2.8458	202.025	229.328	280.567	398.534	326.106	135.403	291.101	302.791	185.261	117.297	92.114	374.836	354.239	232.685	232.645	398.576	0.00067438	0.00014279	1.0932e-05	1044.1	4.2615e-07	1.1735e-06	1140.5	224.53	3.6751e-06	3.1337e-06	284.41	80.377	62.897	18.833	2.5881e-06	26.042	4.1714e-05	4.2098e-05	1.1996e-05	949.22	4.249e-07	4.7348e-07	1040.4	204.61	4.1794e-07	4.7687e-07	245.11	70.93	55.603	16.798	4.6295e-07	22.793	361.334	183.808	362.207	81.367	259.537	133.072	81.126	88.762	177.071	280.468	88.471	95.330	95.669	103.012	191.988	102.034	-8191	255	
7025.738	1	1	0	0	0.2355	0.2211	0.2555	0.24629	0.17506	0.2431	0.27669	0.27897	0.11885	0.25655	0.21877	0.074486	0.18581	0.17128	0.026117	0.18954	-1.5875	-2.7	-2.5583	-2.2833	-2.6312	-2.5854	-2.3771	-2.9979	-2.3063	-2.3438	-2.9688	-2.0479	-2.75	-2.4813	-2.1208	-2.8583	366.020	248.921	230.677	363.911	216.196	408.435	393.360	405.817	385.050	295.846	400.652	179.667	102.132	388.343	262.626	370.481	0.00070655	0.00012273	1.5203e-05	1050.4	1.4735e-06	3.7247e-07	1140.3	225.23	4.5692e-06	2.7565e-06	284.44	79.827	63.134	18.745	1.2126e-06	26.158	4.2517e-05	4.4492e-05	1.1659e-05	950.25	4.3489e-07	4.8969e-07	1039.6	204.8	4.4924e-07	4.9037e-07	244.73	70.662	55.542	16.747	4.4787e-07	22.795	361.137	77.756	226.063	81.200	194.210	348.851	81.328	88.817	236.628	259.920	88.962	95.103	95.965	102.440	129.741	102.179	-8191	255	
7025.834	1	1	0	0	0.16252	0.26934	0.15631	0.11912	0.24581	0.25022	0.082476	0.046224	0.09754	0.11016	0.017731	0.13051	0.051805	0.154	0.060732	0.36322	-1.6458	-2.4896	-2.6167	-2.175	-2.7479	-2.65	-2.1	-2.7958	-2.4562	-2.4104	-2.875	-2.2604	-2.5333	-2.6729	-1.9792	-2.6437	297.158	126.234	390.434	318.120	279.190	245.487	81.559	406.714	420.036	192.322	353.727	163.683	145.973	90.347	271.865	327.020	0.00058261	0.00012044	2.4199e-05	1049.7	2.3439e-06	1.364e-06	1134.2	225.28	4.8271e-06	1.8997e-06	282.85	80.485	63.192	18.79	1.6235e-06	26.151	4.3723e-05	4.4083e-05	1.1261e-05	949.11	4.6024e-07	4.8661e-07	1038.4	204.54	4.8066e-07	4.792e-07	244.34	70.704	55.813	16.759	4.4318e-07	22.818	363.600	344.870	158.066	81.563	184.898	131.865	81.176	89.125	185.319	233.928	88.448	95.816	95.875	102.669	232.964	101.683	-8191	255	
7025.955	1	1	0	0	0.26992	0.2669	0.33422	0.12196	0.18356	0.20834	0.10386	0.14388	0.034019	0.078846	0.21733	0.23026	0.18194	0.071315	0.20515	0.11798	-1.9813	-2.1896	-2.7167	-2.3854	-2.4167	-2.8979	-2.1937	-2.7812	-2.3563	-2.0646	-2.7542	-2.2938	-2.4708	-2.7458	-2.1479	-2.7021	355.182	393.207	217.319	350.582	370.084	179.462	401.691	330.578	108.655	211.159	354.077	358.290	125.907	257.213	167.695	323.285	0.00052278	9.1896e-05	1.7845e-05	1048.8	2.8924e-06	1.2569e-06	1137.7	226.07	3.7638e-06	1.6743e-06	285.58	80.965	63.227	18.627	1.4872e-06	26.047	4.7787e-05	4.348e-05	1.0916e-05	950.17	4.9779e-07	4.7169e-07	1039.4	204.65	5.0423e-07	4.6815e-07	244.42	70.72	55.749	16.699	4.2937e-07	22.797	364.743	106.824	314.378	80.996	160.230	351.418	81.145	88.987	165.697	247.322	88.640	95.346	95.751	102.885	81.615	102.109	-8191	255	
7026.051	1	1	0	0	0.1362	0.10754	0.10304	0.2872	0.087248	0.072238	0.38077	0.29853	0.28652	0.057552	0.21359	0.050722	0.12723	0.046201	0.36393	0.089188	-1.9896	-2.1458	-2.9938	-2.3458	-2.4938	-2.9479	-2.0396	-2.6625	-2.5104	-1.9937	-2.7562	-2.2188	-2.6063	-3.0021	-1.8167	-2.7458	132.058	298.353	87.185	417.326	378.274	411.863	360.239	372.152	103.245	341.587	284.170	387.074	357.916	163.716	391.059	142.865	0.0006158	0.00021119	1.4155e-05	1053.4	1.7246e-06	1.4324e-06	1132.2	226.43	2.1129e-06	1.9098e-06	285.36	80.374	62.806	18.697	2.324e-06	26.053	4.8746e-05	4.1944e-05	1.0644e-05	950.64	5.0413e-07	4.4202e-07	1036.3	205.2	4.9153e-07	4.4755e-07	244.89	70.926	55.572	16.681	4.2942e-07	22.891	357.435	161.831	183.288	81.291	272.666	295.066	81.219	88.816	178.234	167.472	88.281	95.403	95.936	102.660	188.071	101.647	-8191	255	
7026.122	1	1	0	0	0.10726	0.1795	0.10697	0.23664	0.11941	0.058777	0.12521	0.079242	0.074495	0.090551	0.16255	0.29173	0.30005	0.039433	0.15039	0.1197	-2.1229	-2.1729	-2.6417	-2.3229	-2.3333	-2.6188	-2.4104	-2.3812	-2.6813	-2.1104	-2.6771	-2.5458	-2.1625	-2.6937	-2.2229	-2.4813	161.562	182.545	339.131	385.930	107.518	314.429	291.948	380.253	265.198	198.416	220.560	106.999	119.874	365.610	253.086	331.712	0.00048968	8.2613e-05	5.7411e-05	1050.9	2.2061e-06	5.4805e-07	1135.1	226.09	4.1058e-06	3.5946e-07	285.36	80.855	62.862	18.696	3.5484e-06	26.23	4.644e-05	4.0235e-05	1.0371e-05	952.31	4.7878e-07	4.3536e-07	1038.3	205.51	4.7571e-07	4.3991e-07	244.65	71.059	55.508	16.685	4.2433e-07	22.923	355.051	371.279	130.868	80.971	200.898	107.374	81.282	88.993	230.693	254.499	88.645	95.594	95.852	102.653	184.628	101.956	-8191	255	
7026.243	1	1	0	0	0.24055	0.231	0.12096	0.1105	0.16943	0.18862	0.18143	0.32524	0.14495	0.11341	0.30947	0.23332	0.079463	0.20608	0.054946	0.093646	-2.2271	-2.175	-2.6917	-2.6479	-2.3875	-2.7521	-2.4313	-2.3917	-2.65	-2.1625	-2.8833	-2.5146	-2.1125	-2.925	-2.1562	-2.5687	210.909	317.574	284.614	383.083	412.325	271.835	391.369	398.345	183.337	357.556	107.895	339.181	265.057	378.786	391.293	152.980	0.00049457	0.00026499	6.264e-05	1044.3	2.1753e-06	2.3971e-06	1139.9	225.07	5.2463e-06	5.3878e-07	284.84	80.822	62.578	18.669	2.8848e-06	25.989	4.4528e-05	3.8907e-05	1.0851e-05	949.76	4.5955e-07	4.1364e-07	1039.6	204.99	4.5492e-07	4.1956e-07	244.68	71.015	55.319	16.67	4.4654e-07	22.861	348.277	138.339	125.142	81.465	245.525	210.799	80.931	88.633	160.479	194.269	88.433	95.058	95.857	102.845	187.622	101.928	-8191	255	
7026.337	1	1	0	0	0.15811	0.12742	0.079409	0.15883	0.087456	0.18391	0.19643	0.096357	0.12532	0.18975	0.17064	0.16854	0.25423	0.23982	0.26038	0.19299	-2.2	-2.2375	-2.5854	-2.5667	-2.2521	-2.925	-2.5062	-2.4646	-2.9688	-2.0042	-2.5875	-2.6271	-2.2562	-2.9313	-2.3937	-2.2125	108.207	326.612	241.816	422.574	109.022	397.465	403.072	390.969	172.756	360.431	422.478	358.296	126.682	353.570	216.824	96.110	0.00052634	6.0086e-05	3.4366e-05	1044.7	2.2448e-06	1.5524e-06	1137	225.22	1.9093e-06	1.0551e-06	285.04	80.718	62.857	18.718	2.0966e-06	26.072	4.4035e-05	3.7205e-05	1.1301e-05	947.97	4.4617e-07	4.0452e-07	1038.1	205.22	4.3116e-07	4.1443e-07	245.09	70.977	55.347	16.647	4.6984e-07	22.817	343.061	200.069	199.579	81.053	195.155	160.856	81.244	88.848	250.226	109.698	88.533	95.329	96.120	102.313	159.838	102.047	-8191	255	
7026.434	1	1	0	0	0.20652	0.17241	0.17974	0.26517	0.095066	0.099394	0.35525	0.31121	0.073974	0.16163	0.089355	0.085078	0.097981	0.29112	0.20348	0.24193	-2.2792	-1.9875	-2.7313	-2.6917	-2.1021	-2.7104	-2.5687	-2.425	-2.5958	-2.2125	-2.6979	-2.7292	-2.2125	-2.6958	-2.2354	-2.1646	312.193	148.734	221.827	106.330	87.395	192.849	365.274	418.856	350.041	231.443	125.725	275.263	109.457	391.468	228.613	140.055	0.00063486	0.00020899	4.3702e-05	1050.3	8.3845e-07	1.471e-06	1134.2	225.29	1.1088e-06	1.6662e-06	285.12	80.377	63.014	18.671	1.8537e-06	25.987	4.1827e-05	3.8073e-05	1.1847e-05	951.05	4.2355e-07	4.0324e-07	1038.9	204.8	4.2127e-07	4.1373e-07	245.07	70.736	55.444	16.707	4.9075e-07	22.766	350.200	131.615	158.547	81.090	177.923	184.647	81.143	88.927	221.173	201.318	88.474	95.154	95.720	102.619	186.490	102.037	-8191	255	
7026.554	1	1	0	0	0.071387	0.28152	0.12958	0.29767	0.22901	0.22364	0.30916	0.29517	0.25298	0.22535	0.054409	0.13227	0.018242	0.19454	0.12205	0.12152	-2.4167	-2.2875	-2.3104	-2.9646	-2.1875	-2.5625	-2.7708	-2.2292	-2.8875	-2.3083	-2.2854	-2.8625	-2.2188	-2.6688	-2.5729	-2.1333	72.791	239.474	167.640	375.362	378.069	113.153	388.837	116.169	378.609	387.733	422.496	338.615	73.584	428.192	290.210	82.809	0.00060967	0.00011269	8.4951e-05	1047.1	1.6319e-06	1.4007e-06	1131.9	225.05	2.0886e-06	2.7185e-06	283.09	80.233	62.75	18.746	3.2833e-06	26.1	4.148e-05	3.9492e-05	1.2354e-05	949.18	4.17e-07	4.4393e-07	1039.1	205.15	4.0969e-07	4.4708e-07	244.84	70.773	55.373	16.737	4.7554e-07	22.771	362.287	150.658	154.620	81.116	221.683	154.722	81.083	89.247	223.942	275.143	88.610	95.107	95.854	102.742	213.458	101.904	-8191	255	
7026.650	1	1	0	0	0.069372	0.15744	0.27852	0.20485	0.15042	0.19334	0.081761	0.30025	0.29765	0.14246	0.17706	0.22013	0.099498	0.23187	0.042865	0.1219	-2.3854	-2.1188	-2.4875	-2.8375	-2.3625	-2.6437	-2.7708	-2.0083	-2.9167	-2.4583	-2.4583	-2.8312	-2.3542	-2.2542	-2.5979	-2.1354	173.300	99.279	260.943	367.379	207.794	243.502	304.448	423.249	121.155	128.539	382.668	135.364	358.267	161.030	425.013	392.823	0.0006315	0.00021595	5.2139e-05	1047.7	2.4507e-06	3.3474e-06	1136.7	226.35	4.1023e-06	7.8358e-07	285.06	80.54	63.362	18.726	3.725e-06	26.138	4.0573e-05	4.2326e-05	1.2163e-05	947.86	4.1487e-07	4.6985e-07	1038.8	205.27	4.1707e-07	4.8519e-07	244.95	70.82	55.605	16.82	4.6331e-07	22.873	351.562	151.233	166.913	81.134	237.387	162.648	81.233	88.588	184.739	249.718	88.640	95.112	95.606	102.477	184.681	101.635	-8191	255	
7026.747	1	1	0	0	0.2169	0.21963	0.44004	0.16537	0.15196	0.054466	0.21725	0.084755	0.16608	0.10501	0.091059	0.020747	0.23059	0.34649	0.15131	0.10792	-2.1521	-2.4583	-1.9625	-2.95	-2.275	-2.4125	-2.8667	-1.9521	-2.9604	-2.6479	-2.1042	-3.1292	-2.3229	-2.4688	-2.6979	-2.0729	233.943	329.113	360.298	384.543	339.203	314.285	361.610	147.261	110.581	179.882	209.535	311.706	392.408	277.422	170.867	182.475	0.00056804	0.00011099	3.6211e-05	1049.6	1.9313e-06	1.054e-06	1134.7	225.31	4.27e-06	2.3705e-06	284.91	80.832	62.643	18.721	2.6352e-06	26.181	4.1714e-05	4.4532e-05	1.1653e-05	949.96	4.2918e-07	4.8516e-07	1039	204.77	4.3422e-07	4.8503e-07	244.76	70.823	55.41	16.782	4.3927e-07	22.8	351.612	135.676	192.841	81.081	179.534	181.095	81.219	88.605	192.044	246.493	88.501	95.337	95.950	102.396	158.387	101.592	-8191	255	
7026.843	1	1	0	0	0.30729	0.21086	0.19397	0.22183	0.11407	0.053005	0.12213	0.26247	0.072693	0.13851	0.20349	0.17587	0.1442	0.074984	0.094036	0.19342	-2.1708	-2.7646	-1.9375	-2.8271	-2.0438	-2.3208	-2.9167	-2.1271	-2.6542	-2.5042	-2.2833	-2.725	-2.4813	-2.3812	-2.8417	-2.2479	372.599	90.551	195.304	103.268	350.610	231.087	315.125	78.763	229.626	110.509	367.103	87.161	368.803	351.577	370.337	378.345	0.00066587	0.00021361	3.3773e-05	1050.8	2.9534e-06	3.7693e-07	1133.7	225.7	5.8885e-06	1.5595e-06	282.71	80.793	62.773	18.762	2.9246e-06	25.982	4.3836e-05	4.3955e-05	1.1167e-05	949.72	4.5998e-07	4.7079e-07	1037.5	204.64	4.6426e-07	4.7211e-07	244.37	70.714	55.536	16.75	4.3139e-07	22.772	350.522	187.723	366.537	81.156	213.368	345.598	80.884	88.663	160.097	140.041	88.555	95.349	95.434	102.597	223.663	102.035	-8191	255	
7026.939	1	1	0	0	0.14861	0.15167	0.1208	0.265	0.10696	0.16296	0.093981	0.19843	0.18517	0.27072	0.18512	0.16482	0.17351	0.12213	0.252	0.28143	-2.0875	-2.7896	-1.9	-2.8479	-2.2396	-2.1896	-3.0958	-2.4104	-2.4604	-2.6583	-2.1292	-2.7313	-2.625	-2.0896	-2.7583	-2.2812	188.795	187.815	400.884	384.371	258.110	397.756	384.816	384.209	185.750	140.148	121.791	398.152	384.777	375.752	210.932	93.802	0.00059265	0.00018885	1.2814e-05	1045.7	3.5011e-06	1.2748e-06	1134.7	224.7	5.3306e-06	8.6353e-07	285.34	80.255	63.064	18.797	2.3749e-06	26.099	4.6041e-05	4.2287e-05	1.0892e-05	947.46	4.8864e-07	4.5189e-07	1037.3	204.74	4.8279e-07	4.4832e-07	244.63	70.688	55.739	16.746	4.2247e-07	22.848	356.694	378.139	219.945	81.156	209.944	242.058	81.034	89.104	188.304	328.519	88.751	95.162	95.724	102.625	196.587	101.808	-8191	255	
7027.035	1	1	0	0	0.10216	0.17046	0.1904	0.28792	0.12024	0.20865	0.27197	0.16688	0.2969	0.063141	0.031884	0.16336	0.22729	0.048007	0.097287	0.31811	-1.9354	-2.8708	-1.9	-2.6896	-2.45	-2.0771	-2.8354	-2.3333	-2.3375	-2.8021	-2.2438	-2.7562	-2.3229	-2.2208	-2.6979	-2.3937	209.356	142.548	255.014	330.141	173.849	395.708	364.927	407.209	164.494	241.315	430.177	375.151	82.364	225.879	428.871	247.409	0.00060493	8.7447e-05	1.8979e-05	1044.2	8.4329e-07	2.3392e-06	1136.3	225	3.852e-06	1.5051e-06	285.26	81.023	63.102	18.676	1.9113e-06	26.016	4.6895e-05	4.0095e-05	1.0685e-05	948.39	4.9327e-07	4.4097e-07	1037.9	204.61	4.899e-07	4.4059e-07	244.85	70.858	55.661	16.703	4.1712e-07	22.835	366.723	348.970	147.322	81.295	412.261	210.561	80.976	88.796	173.930	246.804	88.395	95.383	95.781	102.303	178.269	101.665	-8191	255	
7027.131	1	1	0	0	0.22686	0.17395	0.08678	0.13734	0.16491	0.094389	0.11907	0.076842	0.070456	0.16112	0.24353	0.17316	0.23445	0.13285	0.10661	0.16797	-1.9062	-2.7833	-2.0583	-2.6833	-2.6562	-2.075	-2.9938	-2.4646	-2.3917	-2.7438	-2.0021	-2.6479	-2.575	-2.1146	-2.6229	-2.4375	401.869	333.244	262.460	340.401	303.023	261.709	387.871	365.512	183.178	368.672	412.946	401.152	78.421	77.185	113.898	318.490	0.00067621	0.00020767	5.2269e-05	1052.9	8.2637e-07	9.6326e-07	1140.5	225.42	2.8483e-06	6.9038e-07	283.86	80.925	62.623	18.739	1.9126e-06	26.06	4.6404e-05	3.8929e-05	1.0597e-05	950.82	4.802e-07	4.3342e-07	1038.8	205.23	4.6447e-07	4.1868e-07	244.38	71.056	55.525	16.72	4.1694e-07	22.93	358.114	75.715	214.070	81.084	241.153	123.739	81.276	89.000	229.580	250.636	88.750	94.934	95.219	102.397	188.490	101.886	-8191	255	
7027.250	1	1	0	0	0.13296	0.089506	0.19266	0.070752	0.15733	0.25111	0.32176	0.16784	0.15371	0.18423	0.1849	0.21506	0.0079659	0.028703	0.1985	0.087404	-1.6917	-2.8208	-2.0521	-2.5687	-2.6271	-1.8604	-2.9521	-2.4958	-2.1854	-2.8958	-2.2438	-2.3292	-2.6188	-1.9604	-2.7062	-2.4958	79.511	100.641	286.967	422.306	197.489	142.944	385.885	322.768	174.403	197.988	405.382	388.757	380.687	337.371	237.205	144.418	0.0006656	6.4644e-05	2.7524e-05	1048.2	1.4425e-06	1.2599e-06	1139.2	225	3.5028e-06	1.8468e-06	286.77	80.652	62.957	18.812	1.5832e-06	26.096	4.5182e-05	3.8232e-05	1.0902e-05	950.16	4.4692e-07	4.2959e-07	1039.8	205.35	4.6448e-07	4.1673e-07	245.17	70.9	55.501	16.727	4.4461e-07	22.912	361.973	382.619	161.504	81.058	159.477	159.366	81.067	89.179	210.967	198.651	88.754	95.315	95.520	102.202	169.839	101.459	-8191	255	
7027.346	1	1	0	0	0.2671	0.1263	0.20187	0.20344	0.023229	0.14286	0.21992	0.13375	0.02935	0.17784	0.17628	0.29021	0.29075	0.073273	0.10749	0.15519	-1.6396	-2.6208	-2.1479	-2.5062	-2.5521	-2.0792	-2.7417	-2.6146	-2.1229	-2.7375	-2.425	-2.5646	-2.6688	-2.1042	-2.525	-2.6229	219.908	98.922	302.829	127.724	216.112	207.501	397.621	400.042	77.989	125.271	358.577	103.453	425.983	82.101	188.731	367.282	0.00061763	0.00032995	2.5384e-06	1050.7	2.0824e-06	1.7347e-06	1133.7	225.56	3.5264e-06	1.9724e-06	284.08	80.345	62.674	18.763	4.111e-06	26.315	4.3716e-05	3.699e-05	1.1434e-05	950.21	4.4028e-07	4.0507e-07	1038.3	205.63	4.446e-07	4.0719e-07	244.63	71.008	55.51	16.747	4.7284e-07	22.976	358.259	142.173	203.682	81.232	212.687	197.651	81.158	88.873	124.302	238.850	88.800	95.373	95.925	102.177	176.870	101.677	-8191	255	
7027.418	1	1	0	0	0.16353	0.29132	0.12325	0.30319	0.17395	0.10812	0.04063	0.093355	0.12096	0.19231	0.15055	0.31855	0.22238	0.47416	0.12668	0.0838	-1.7333	-2.7417	-2.3875	-2.275	-2.8479	-2.325	-2.4875	-2.8	-1.9771	-2.6104	-2.5417	-2.2417	-2.9583	-2.1042	-2.6417	-2.6458	419.618	87.580	123.316	304.869	271.137	266.121	236.419	256.239	426.890	240.084	393.033	381.765	376.650	73.322	410.349	295.999	0.00070643	0.0002797	5.1364e-05	1048.1	2.5069e-06	2.1585e-06	1136.8	225.77	1.0264e-06	1.7305e-06	283.12	80.653	63.006	18.742	1.689e-06	25.868	4.3371e-05	3.7694e-05	1.2319e-05	951	4.3459e-07	4.2488e-07	1040	205.14	4.3761e-07	4.193e-07	245.63	70.868	55.581	16.718	4.9599e-07	22.823	358.938	104.764	146.285	81.096	196.110	186.995	81.008	88.565	268.577	200.753	88.432	95.387	95.544	102.441	248.782	101.878	-8191	255	
7027.514	1	1	0	0	0.10689	0.08975	0.18213	0.19362	0.15385	0.15683	0.16399	0.15937	0.15591	0.16174	0.19213	0.27613	0.14621	0.14593	0.24588	0.071829	-1.6333	-2.9104	-2.4917	-2.1958	-2.9021	-2.3667	-2.6354	-2.7229	-2.2188	-2.5312	-2.5458	-2.2271	-2.9583	-2.2729	-2.3104	-2.9896	276.524	287.733	278.786	331.584	273.585	254.561	393.312	381.683	324.215	119.638	368.129	317.883	350.751	366.828	267.522	121.093	0.0006792	0.00017585	5.8535e-05	1050.9	2.034e-06	2.7942e-06	1136.9	227.19	2.178e-06	2.5632e-06	283.75	80.442	63.238	18.834	1.2161e-06	26.021	4.2032e-05	4.0016e-05	1.2636e-05	951.46	4.254e-07	4.3975e-07	1040.5	205.71	4.1645e-07	4.4758e-07	245.51	70.833	55.709	16.775	4.795e-07	22.837	354.625	144.714	148.964	81.169	147.647	142.041	81.132	88.677	166.320	153.778	88.810	95.424	95.694	102.179	163.530	101.745	-8191	255	
7027.635	1	1	0	0	0.026123	0.14371	0.049605	0.27758	0.23268	0.036705	0.15302	0.27178	0.14929	0.251	0.17715	0.11446	0.096852	0.14896	0.086936	0.18398	-1.4396	-2.6437	-2.5187	-2.2521	-2.7604	-2.4313	-2.3688	-2.8063	-2.0062	-2.6042	-2.65	-2.3146	-2.8542	-2.4958	-2.225	-2.7771	267.248	219.071	254.173	389.882	190.947	296.184	315.193	408.126	120.801	239.177	386.733	97.478	102.904	379.531	94.777	142.378	0.00061014	0.00014052	2.4652e-05	1051.8	1.1588e-06	5.0147e-07	1136.2	226.35	1.1069e-06	2.1148e-06	286.58	80.718	62.939	18.877	4.9206e-07	26.292	4.0789e-05	4.2492e-05	1.2169e-05	950.03	4.1251e-07	4.7806e-07	1040.1	205.58	4.2769e-07	4.6651e-07	245.35	71.059	55.571	16.858	4.6883e-07	22.868	357.367	163.870	245.556	81.262	238.228	124.037	81.224	88.460	164.082	104.655	88.670	95.474	95.598	102.482	81.723	102.142	-8191	255	
7027.731	1	1	0	0	0.25837	0.13399	0.19826	0.082939	0.011045	0.060898	0.058972	0.26879	0.25106	0.089942	0.24132	0.1707	0.12315	0.41467	0.069323	0.25659	-1.7208	-2.5771	-2.7896	-2.0104	-2.6854	-2.5375	-2.2313	-2.9292	-2.3125	-2.4792	-2.7917	-2.0438	-2.7792	-2.6458	-2.0917	-2.7875	302.549	335.291	194.803	285.417	207.578	307.566	279.293	415.770	405.641	171.821	365.411	336.483	100.977	384.164	99.563	186.765	0.00059158	0.00021979	1.1872e-05	1049.9	3.1336e-06	1.0347e-06	1135.7	226.3	1.605e-06	2.4911e-06	284.83	81.193	62.962	18.9	1.5446e-06	25.979	4.2433e-05	4.4607e-05	1.1594e-05	950.88	4.3375e-07	4.9561e-07	1039.1	205.43	4.4076e-07	4.7813e-07	244.46	70.854	55.585	16.855	4.5329e-07	22.794	346.196	177.673	166.161	81.370	195.104	173.757	81.002	88.665	224.484	234.555	88.549	95.268	95.500	102.207	123.410	101.433	-8191	255	
7027.827	1	1	0	0	0.24505	0.22179	0.15638	0.091732	0.13697	0.13457	0.15525	0.043071	0.094522	0.1361	0.19618	0.19388	0.19957	0.084661	0.06883	0.20155	-1.5979	-2.2917	-2.6875	-2.2417	-2.4521	-2.7333	-2.1146	-2.9354	-2.3167	-2.4021	-2.7729	-2.2229	-2.5583	-2.7562	-2.2229	-2.7438	298.871	240.917	254.862	398.511	202.185	177.626	416.412	268.429	215.019	85.139	414.932	80.693	323.155	122.152	88.698	407.240	0.00058488	9.8897e-05	3.9422e-05	1054.1	2.1763e-06	2.4437e-06	1137.5	226.55	2.472e-06	1.4497e-06	283.57	80.536	63.12	18.769	1.3444e-06	26.354	4.5641e-05	4.4841e-05	1.1399e-05	951.84	4.6276e-07	4.809e-07	1039.7	205.18	4.7739e-07	4.7345e-07	244.65	70.793	55.795	16.804	4.4119e-07	22.918	348.948	152.377	135.225	81.259	211.775	227.595	81.026	88.888	227.439	237.229	88.411	95.593	95.551	102.640	144.673	101.427	-8191	255	
7027.923	1	1	0	0	0.35973	0.066185	0.017773	0.33022	0.34445	0.2959	0.42972	0.21421	0.18494	0.20388	0.040284	0.12118	0.28143	0.1653	0.20882	0.12853	-1.9667	-2.3625	-2.8604	-2.1562	-2.5854	-2.5708	-2.1271	-2.9875	-2.3229	-2.1354	-2.9708	-2.3146	-2.6229	-2.7	-2.1312	-2.625	237.871	115.807	162.325	334.021	345.850	276.092	323.363	348.101	106.245	412.581	390.883	97.208	337.355	401.149	147.372	115.186	0.00060775	0.00012108	5.1472e-05	1055.4	1.9422e-06	1.8578e-06	1136.5	225.56	1.6383e-06	1.897e-06	284.58	80.593	63.14	18.771	1.5912e-06	25.984	4.6662e-05	4.2408e-05	1.0807e-05	951.57	4.7946e-07	4.6315e-07	1039.4	205.21	4.9153e-07	4.546e-07	244.54	70.927	55.792	16.785	4.3101e-07	22.868	353.952	97.654	362.746	81.209	226.787	215.857	81.049	88.867	210.497	217.038	88.753	95.155	95.628	102.386	137.701	101.820	-8191	255	
7028.019	1	1	0	0	0.11296	0.05235	0.29792	0.35188	0.19655	0.19974	0.14254	0.17772	0.25407	0.25434	0.28841	0.13294	0.29868	0.044683	0.16831	0.14238	-2.0021	-2.0333	-2.7062	-2.2042	-2.3917	-2.8625	-2.3979	-2.8792	-2.6937	-2.1104	-2.7604	-2.3917	-2.2313	-2.8667	-2.0021	-2.6813	299.281	309.151	116.018	393.996	149.252	327.023	356.591	391.660	162.018	403.244	393.819	268.028	380.877	402.031	234.682	329.413	0.00063246	3.7593e-05	3.4564e-05	1044.9	2.4996e-06	5.2523e-07	1141.7	226.28	2.781e-06	1.1943e-06	283.44	80.073	63.111	18.998	2.3665e-06	26.277	4.8947e-05	4.1344e-05	1.0637e-05	949.35	4.8297e-07	4.3887e-07	1041	205.38	4.8609e-07	4.4183e-07	244.33	70.794	55.912	16.821	4.1367e-07	22.959	354.264	122.728	127.598	80.991	203.032	271.674	81.205	88.955	181.722	253.076	88.387	95.613	95.786	102.781	163.826	101.630	-8191	255	
7028.115	1	1	0	0	0.12298	0.10822	0.17958	0.041229	0.14751	0.25917	0.29092	0.16021	0.10354	0.15442	0.079886	0.17725	0.16234	0.33703	0.18375	0.3714	-2.2625	-2.1188	-2.7104	-2.4271	-2.2938	-2.7083	-2.2375	-2.8021	-2.4854	-2.1896	-2.8063	-2.3958	-2.2792	-2.9375	-2.2458	-2.6688	166.633	395.880	119.649	85.361	171.350	354.904	402.801	348.381	321.421	344.494	240.549	411.667	392.809	119.368	174.284	361.705	0.00070161	0.00014725	6.3993e-05	1049.3	3.1884e-06	1.2307e-06	1134.1	225.68	3.4344e-06	6.1042e-07	285.79	80.513	63.17	18.744	2.5937e-06	25.953	4.6639e-05	3.9544e-05	1.0405e-05	950.9	4.73e-07	4.3613e-07	1037.6	205.36	4.7177e-07	4.3161e-07	245.29	71.053	55.643	16.754	4.2951e-07	22.89	356.527	140.325	128.645	80.965	233.636	213.241	81.088	88.870	191.945	420.368	88.395	95.215	95.678	102.263	194.366	101.829	-8191	255	
7028.234	1	1	0	0	0.11708	0.28523	0.22747	0.15912	0.35294	0.071154	0.20887	0.095606	0.17523	0.19007	0.028258	0.11101	0.096746	0.22897	0.067595	0.34841	-2.3333	-2.0312	-2.7479	-2.5896	-2.1854	-2.8229	-2.4167	-2.4542	-2.7396	-1.9917	-2.7771	-2.3563	-2.4271	-2.8333	-2.35	-2.3667	295.819	355.632	323.848	381.991	172.715	323.699	364.964	104.440	156.036	214.768	245.383	109.445	277.999	362.090	404.098	315.703	0.00068793	6.38e-05	7.682e-05	1048.7	7.7728e-07	8.1248e-07	1135.1	225.81	4.1454e-06	1.2327e-06	284.34	80.523	62.905	18.735	3.1624e-06	26.092	4.4688e-05	3.8668e-05	1.076e-05	951.41	4.5499e-07	4.0773e-07	1038	205.45	4.5928e-07	4.2276e-07	244.98	70.899	55.512	16.72	4.5165e-07	22.902	355.811	188.730	128.641	81.086	218.525	170.179	81.084	88.843	137.757	244.115	88.828	95.227	95.413	102.566	191.632	101.763	-8191	255	
7028.330	1	1	0	0	0.17107	0.072574	0.13517	0.19647	0.16775	0.20246	0.12236	0.09901	0.039988	0.13936	0.2336	0.17785	0.2952	0.22479	0.12378	0.14448	-2.3396	-1.8937	-2.7146	-2.7	-2.0458	-2.9625	-2.3771	-2.525	-2.6396	-2.2979	-2.675	-2.6688	-2.0438	-2.9188	-2.2562	-2.5208	357.941	295.812	161.951	87.529	407.838	394.762	362.026	406.522	285.607	214.091	87.576	235.504	368.420	81.870	421.319	178.507	0.00064494	0.00017856	3.949e-05	1052.7	1.1099e-06	2.1507e-06	1139.7	225.28	2.4283e-06	2.3201e-06	284.99	80.727	62.977	18.802	3.1394e-06	25.922	4.2263e-05	3.7666e-05	1.1576e-05	952.12	4.4567e-07	4.0294e-07	1042.7	205.48	4.4522e-07	4.1507e-07	245.54	70.895	55.508	16.668	4.8333e-07	22.811	352.753	179.931	167.408	81.350	193.512	143.810	80.859	89.003	184.117	143.907	88.569	95.617	95.688	102.577	155.738	101.849	-8191	255	
7028.427	1	1	0	0	0.25981	0.35617	0.15219	0.033889	0.078954	0.19778	0.081247	0.25309	0.052019	0.15818	0.26893	0.067495	0.039234	0.17384	0.12302	0.30685	-2.3646	-2.2188	-2.5125	-2.6229	-1.9854	-2.8854	-2.5625	-2.3042	-2.8021	-2.1458	-2.4167	-2.7583	-1.9188	-2.7562	-2.6417	-2.1479	389.454	155.870	221.592	375.129	168.487	189.909	84.564	351.536	232.594	158.922	301.103	213.498	87.818	73.674	265.941	358.572	0.00062067	0.00017097	5.8542e-05	1050.1	9.3713e-07	2.6528e-06	1138.9	225.49	1.7611e-06	1.3003e-06	285.36	80.794	62.976	18.745	2.2263e-06	26.198	4.196e-05	3.8633e-05	1.2346e-05	952.45	4.4064e-07	4.2283e-07	1042.2	205.19	4.4219e-07	4.3208e-07	245.1	70.949	55.479	16.764	5.0249e-07	22.86	357.760	157.851	186.487	81.365	247.095	198.643	81.263	88.656	140.618	405.137	88.439	95.211	95.431	102.605	206.039	101.853	-8191	255	
7028.523	1	1	0	0	0.16952	0.21826	0.18763	0.27864	0.12853	0.33204	0.32986	0.098171	0.28234	0.23592	0.21062	0.32766	0.066228	0.17167	0.05606	0.12805	-2.4833	-2.2479	-2.6437	-2.8854	-2.1333	-2.7208	-2.6417	-2.0917	-2.7667	-2.4875	-2.3333	-2.775	-2.0646	-2.5792	-2.7917	-2.2021	194.127	402.871	370.560	326.361	178.556	260.161	322.185	393.726	109.959	413.098	350.673	385.541	341.002	253.482	95.831	157.682	0.00049842	0.0001774	5.0457e-05	1052.6	1.279e-06	2.3835e-06	1137.6	225.68	1.9841e-06	2.3691e-06	283.74	80.337	62.752	18.863	2.8806e-06	25.955	4.1747e-05	4.1153e-05	1.2496e-05	952.86	4.3055e-07	4.3863e-07	1043	205.31	4.2277e-07	4.5254e-07	244.91	70.687	55.362	16.758	4.8403e-07	22.772	351.450	111.409	174.504	80.763	133.306	164.185	80.962	88.835	177.958	246.543	88.349	95.410	95.544	102.478	274.231	101.505	-8191	255	
7028.643	1	1	0	0	0.13523	0.50373	0.20307	0.22374	0.067354	0.27484	0.11239	0.1785	0.36174	0.22967	0.15572	0.081212	0.14083	0.12095	0.28875	0.012522	-2.3104	-2.2167	-2.3417	-2.8833	-2.0667	-2.5458	-2.7021	-2.2938	-2.7792	-2.6417	-2.4271	-2.9542	-2.2208	-2.5417	-2.8667	-2.2958	172.569	172.992	101.952	372.564	428.810	205.938	231.960	402.621	185.394	233.333	373.255	297.032	110.410	241.755	218.195	276.554	0.0006473	0.00030259	2.9687e-05	1051.9	1.2766e-06	1.6691e-06	1138	226.16	3.1475e-06	2.1663e-06	282.67	80.158	62.842	18.801	2.583e-06	26.019	4.0912e-05	4.1767e-05	1.1852e-05	951.63	4.2235e-07	4.6171e-07	1041	204.98	4.0956e-07	4.7687e-07	243.92	70.493	55.4	16.757	4.5168e-07	22.7	351.638	104.138	202.653	80.927	185.168	197.482	81.229	88.915	190.882	223.740	88.512	95.347	95.612	102.345	185.903	101.727	-8191	255	
7028.715	1	1	0	0	0.23334	0.14	0.068256	0.19206	0.18198	0.14786	0.37071	0.092494	0.14734	0.15384	0.017118	0.16094	0.27673	0.0068859	0.39697	0.078314	-2.3979	-2.4333	-2.4417	-3.0208	-2.125	-2.5875	-3.0792	-2.2854	-2.7229	-2.5687	-2.1729	-2.95	-2.2917	-2.6125	-2.6396	-2.1813	291.165	231.515	215.157	339.774	150.612	235.283	365.179	426.509	213.410	298.855	406.548	356.073	351.840	158.532	116.417	104.664	0.00064954	0.00016343	3.6767e-05	1054	2.4537e-06	1.7875e-06	1137.1	225.15	3.0417e-06	2.9431e-06	282.64	80.66	62.474	18.547	4.8905e-07	25.777	4.0223e-05	4.2964e-05	1.1265e-05	949.4	4.2448e-07	4.6093e-07	1038.4	203.93	4.1679e-07	4.6001e-07	243.41	70.447	55.141	16.646	4.1694e-07	22.58	349.093	168.717	198.666	81.271	206.130	144.176	80.950	89.048	236.240	208.002	88.519	95.105	96.129	102.706	102.547	101.639	-8191	255	
7028.811	1	1	0	0	0.18978	0.16948	0.29071	0.3096	0.23941	0.14661	0.30133	0.35204	0.22664	0.064351	0.23774	0.20478	0.19652	0.16906	0.1538	0.11268	-2.2875	-2.4979	-1.9958	-2.8375	-2.2042	-2.4896	-2.8229	-2.1688	-2.4125	-2.8396	-2.1937	-2.9167	-2.6063	-2.2792	-2.7854	-2.0833	330.986	118.847	340.617	417.016	211.968	101.609	413.146	411.892	282.776	223.953	418.335	238.902	112.552	173.888	176.793	266.594	0.00066113	0.00022024	2.1383e-05	1047.7	1.2645e-06	1.0711e-06	1130.3	224.48	1.4991e-06	2.0386e-06	283.68	80.201	62.719	18.663	2.4294e-06	25.923	4.1706e-05	4.1233e-05	1.0699e-05	947.68	4.3501e-07	4.4737e-07	1035.3	203.51	4.319e-07	4.3971e-07	242.96	70.292	55.276	16.635	4.007e-07	22.655	366.672	129.160	423.809	81.254	225.244	168.180	81.056	88.548	230.749	226.111	88.642	95.588	95.484	102.508	132.176	101.746	-8191	255	
7028.932	1	1	0	0	0.25378	0.10383	0.1304	0.13728	0.11069	0.21966	0.21974	0.1978	0.16737	0.088875	0.19511	0.12593	0.16821	0.051529	0.076835	0.30955	-2.1354	-2.5583	-1.9104	-2.7708	-2.325	-2.2979	-2.8521	-2.4042	-2.6167	-2.7354	-2.2	-2.7729	-2.5125	-2.2062	-2.925	-2.3646	339.214	149.520	100.754	74.072	215.600	215.012	367.623	379.962	254.434	420.038	328.839	416.669	84.308	84.572	283.189	158.011	0.00054537	0.00020895	5.3095e-05	1047.1	2.3168e-06	1.3226e-06	1133.7	223.34	1.6254e-06	1.0362e-06	284.54	80.287	62.544	18.556	1.592e-06	25.794	4.3718e-05	3.8754e-05	9.9367e-06	946.11	4.5722e-07	4.2394e-07	1034.8	203.24	4.4261e-07	4.1682e-07	243.29	70.316	55.349	16.639	3.7434e-07	22.594	354.809	99.533	231.745	81.259	200.795	260.320	81.029	88.879	287.651	212.228	88.406	95.218	95.494	102.338	163.440	101.929	-8191	255	
7029.028	1	1	0	0	0.15929	0.1286	0.21206	0.14007	0.16042	0.10439	0.27972	0.13684	0.1602	0.22031	0.14547	0.077787	0.17945	0.062997	0.12161	0.084188	-2.0521	-2.7333	-2.0479	-2.8583	-2.5146	-2.2354	-3.0354	-2.3187	-2.2562	-2.7292	-2.3792	-2.6083	-2.8104	-2.2896	-2.9479	-2.4292	293.239	165.856	199.503	429.828	145.779	195.891	330.679	323.555	119.575	144.492	317.764	412.950	410.548	255.888	111.458	308.123	0.00054597	0.0001221	6.372e-05	1042.6	2.3902e-06	7.8452e-07	1130.3	224.92	1.8705e-06	1.1173e-06	283.97	80.377	62.555	18.636	2.0423e-06	25.757	4.4349e-05	3.6406e-05	9.8905e-06	943.82	4.5274e-07	3.9829e-07	1032.7	203.88	4.5224e-07	4.0206e-07	242.61	70.52	55.14	16.594	3.8423e-07	22.619	353.168	138.539	117.295	81.054	259.519	151.123	81.095	88.895	206.225	190.780	88.511	95.433	95.361	102.695	213.821	102.214	-8191	255	
7029.122	1	1	0	0	0.15516	0.088495	0.15283	0.024681	0.087912	0.10885	0.35239	0.16477	0.20454	0.079735	0.13921	0.20454	0.14541	0.094219	0.050991	0.070481	-2.0104	-2.7896	-1.8896	-2.6	-2.7854	-2.175	-2.9979	-2.3833	-2.4313	-2.9021	-2.3229	-2.3792	-2.6146	-2.125	-2.8312	-2.4375	385.056	223.886	245.022	269.483	99.604	140.204	316.834	272.258	425.468	175.247	385.067	151.685	362.902	294.345	222.493	300.295	0.0005641	0.00019177	6.7238e-05	1042.7	2.0373e-06	2.7699e-07	1131	225.27	8.6846e-07	1.8111e-06	282.66	80.147	62.429	18.709	1.904e-06	25.854	4.2729e-05	3.6296e-05	9.5169e-06	946.15	4.4028e-07	3.9893e-07	1032.9	203.82	4.3082e-07	3.9184e-07	242.38	70.431	55.043	16.593	3.8803e-07	22.692	358.767	115.699	143.116	81.160	226.265	245.207	81.099	88.920	158.991	122.413	88.312	95.170	95.580	102.278	166.521	101.768	-8191	255	
7029.218	1	1	0	0	0.20426	0.16067	0.14871	0.38731	0.026406	0.087902	0.25684	0.21254	0.052384	0.24035	0.20799	0.24394	0.10688	0.04074	0.13604	0.13926	-1.8958	-2.9083	-2.3021	-2.4688	-2.7833	-1.9729	-2.9292	-2.6646	-2.2417	-3.025	-2.3292	-2.35	-2.9229	-1.9146	-2.5854	-2.6208	352.357	185.341	395.592	360.250	99.990	361.896	338.735	391.109	269.062	274.548	311.556	120.792	119.079	71.518	246.017	402.648	0.00056557	8.1987e-05	3.3324e-05	1038.2	1.5642e-06	1.1379e-06	1129.6	224.37	3.2522e-06	1.1928e-06	283.24	80.367	62.445	18.707	1.6692e-06	26.089	4.1908e-05	3.4749e-05	9.9956e-06	942.67	4.1615e-07	3.8883e-07	1031.4	203.84	4.1482e-07	3.8655e-07	242.45	70.441	54.957	16.528	4.123e-07	22.697	355.476	152.986	119.757	81.452	286.723	177.603	81.151	88.814	182.216	94.994	88.303	95.458	95.853	102.639	142.343	101.726	-8191	255	
7029.315	1	1	0	0	0.21324	0.27986	0.23124	0.31469	0.15766	0.32381	0.32154	0.24701	0.15276	0.18608	0.24932	0.10494	0.048576	0.05975	0.28851	0.10847	-1.6625	-2.8792	-2.2938	-2.525	-2.8229	-1.9917	-2.7583	-2.4437	-2.2083	-2.675	-2.4562	-2.3354	-2.9896	-2.3604	-2.575	-2.875	375.220	126.014	257.414	430.459	307.673	81.626	397.030	286.332	274.302	341.448	94.703	428.724	75.977	356.067	273.142	304.328	0.00069535	6.6194e-05	3.0865e-05	1044.8	2.0283e-06	1.7761e-06	1127.6	224.26	2.7251e-06	1.2362e-06	282.58	80.013	62.154	18.566	1.5264e-06	25.591	4.0769e-05	3.4858e-05	1.0679e-05	944.07	4.016e-07	3.7855e-07	1032.4	203.59	4.0703e-07	3.7797e-07	242.46	70.077	54.918	16.517	4.39e-07	22.589	348.483	394.214	407.469	80.914	216.014	153.263	81.271	89.026	201.070	270.461	88.662	95.639	95.777	102.432	218.154	101.706	-8191	255	
7029.411	1	1	0	0	0.15597	0.25545	0.14854	0.1251	0.088995	0.25616	0.35915	0.23581	0.13224	0.12787	0.12356	0.07665	0.062536	0.38224	0.047542	0.11217	-1.7313	-2.8854	-2.4958	-2.2896	-2.8312	-2.2708	-2.6979	-2.8	-2.0396	-2.9271	-2.4604	-2.2646	-2.8125	-2.2583	-2.5229	-2.9062	247.196	281.778	421.237	329.032	220.522	100.496	385.596	384.033	197.677	318.376	371.142	97.293	350.381	396.416	113.561	77.577	0.0006532	5.0387e-05	2.9315e-05	1038.6	3.2173e-06	1.0325e-06	1132.2	223.83	7.5121e-07	1.9748e-06	282.67	80.173	62.364	18.584	2.1141e-06	25.898	3.9314e-05	3.4098e-05	1.1116e-05	942.61	4.0478e-07	3.8477e-07	1034	203.4	3.968e-07	3.8173e-07	243.07	70.132	54.926	16.547	4.4343e-07	22.564	363.639	322.609	193.238	81.130	246.274	177.833	81.071	88.832	204.402	206.574	88.668	95.171	95.565	102.391	166.746	101.632	-8191	255	
7029.507	1	1	0	0	0.29538	0.171	0.067405	0.31823	0.026813	0.10619	0.39373	0.085734	0.23987	0.29871	0.17323	0.034075	0.10682	0.25405	0.35862	0.22682	-1.5292	-2.6813	-2.6104	-2.4437	-3.0125	-2.1937	-2.6896	-2.85	-2.1375	-2.5708	-2.5583	-2.2958	-2.7417	-2.5104	-2.3417	-2.9417	105.799	336.516	406.661	420.458	389.512	269.633	333.007	154.805	167.572	215.553	412.401	421.124	72.921	102.209	212.296	380.967	0.00055517	0.00021574	1.2253e-06	1042.1	2.4032e-06	3.3737e-06	1128.3	223.47	2.2234e-06	2.1963e-06	281.17	80.212	62.139	18.49	2.7713e-06	25.733	3.789e-05	3.6373e-05	1.1329e-05	943.86	3.8227e-07	4.1091e-07	1031.2	203.02	3.9043e-07	4.0844e-07	242.47	70.217	54.846	16.531	4.3325e-07	22.58	355.113	120.980	136.191	81.074	257.185	139.195	81.142	88.733	199.127	189.818	88.613	95.111	95.565	102.298	189.346	101.585	-8191	255	
7029.603	1	1	0	0	0.26567	0.070616	0.11434	0.2427	0.071802	0.19638	0.32001	0.040917	0.25181	0.061207	0.15728	0.23736	0.22421	0.36221	0.029824	0.25634	-1.4854	-2.6042	-2.5458	-2.0125	-2.6354	-2.3604	-2.3167	-2.8604	-2.0542	-2.7125	-2.5646	-2.1042	-2.8625	-2.6583	-2.1479	-2.725	88.822	72.536	146.386	141.586	156.766	175.515	352.185	329.902	182.563	312.625	412.996	420.454	417.613	107.042	384.806	106.144	0.00070943	0.00015013	1.7953e-05	1040.2	5.1033e-07	5.3561e-07	1129.1	224.64	3.0644e-06	7.4936e-07	281.09	80.279	62.293	18.599	2.1376e-06	25.786	3.7836e-05	3.9081e-05	1.1133e-05	942.94	3.8108e-07	4.3254e-07	1032	203.34	3.9434e-07	4.333e-07	242.28	70.099	54.873	16.639	4.3049e-07	22.624	357.775	170.766	203.910	81.167	204.472	284.688	80.919	88.671	267.876	129.617	88.981	95.459	95.542	102.317	177.534	101.649	-8191	255	
7029.724	1	1	0	0	0.20706	0.047939	0.086242	0.17235	0.1815	0.20237	0.16392	0.20578	0.15217	0.12254	0.28842	0.10582	0.10622	0.1251	0.2174	0.18183	-1.8333	-2.4062	-2.7396	-2.0896	-2.7042	-2.5125	-2.3125	-2.8625	-2.1229	-2.7479	-2.7792	-2.2354	-2.7771	-2.6771	-2.2188	-2.9938	91.067	376.415	328.636	348.316	104.468	307.156	364.241	80.322	156.046	179.494	412.854	168.808	80.753	119.594	74.805	400.934	0.00054994	0.00020468	2.3353e-05	1045.4	2.1599e-06	1.2079e-06	1126.2	222.72	2.2042e-06	9.7832e-07	282.69	79.342	62.242	18.607	2.4588e-06	25.703	3.9204e-05	4.138e-05	1.058e-05	945.39	3.9836e-07	4.5758e-07	1031.1	203.04	4.1198e-07	4.5092e-07	242.37	70.02	54.986	16.653	4.1566e-07	22.528	351.506	177.820	166.079	81.055	190.679	234.854	81.258	89.154	174.208	221.479	88.234	95.447	95.791	102.877	155.352	101.883	-8191	255	
7029.820	1	1	0	0	0.25211	0.068276	0.065854	0.12403	0.18372	0.055343	0.050899	0.13023	0.088427	0.29386	0.16287	0.12452	0.1095	0.12706	0.21214	0.3706	-1.8625	-2.5396	-2.7417	-2.2771	-2.6771	-2.6292	-2.3833	-2.8812	-2.4354	-2.3875	-2.9104	-2.075	-2.6458	-2.4771	-2.3625	-2.9188	402.190	212.779	98.298	345.248	417.425	192.343	248.649	335.278	330.021	398.379	414.675	304.773	353.882	351.332	100.596	327.520	0.00062759	0.00020457	2.8751e-05	1039.2	3.0864e-06	5.98e-07	1128	223.83	7.0479e-06	9.501e-07	283.36	79.878	62.279	18.632	2.7613e-06	25.711	4.1872e-05	4.1598e-05	1.0164e-05	941.88	4.2986e-07	4.4423e-07	1031.9	202.79	4.4033e-07	4.4163e-07	243.07	70.083	55.032	16.601	4.0454e-07	22.505	355.417	148.110	184.223	81.384	205.293	271.584	81.134	88.815	207.343	225.516	88.517	95.408	95.684	102.573	194.072	101.737	-8191	255	
7029.916	1	1	0	0	0.41749	0.03881	0.069235	0.20088	0.27002	0.10914	0.24213	0.21207	0.13307	0.046531	0.098027	0.077098	0.20642	0.24083	0.34408	0.1181	-2.1083	-2.4458	-2.6667	-2.2292	-2.3958	-2.8021	-2.2792	-2.7729	-2.5896	-2.1937	-2.9979	-2.45	-2.3688	-2.7333	-2.1667	-2.9125	97.063	377.593	187.814	367.746	80.758	189.879	316.205	410.916	334.727	101.904	75.985	366.284	245.031	357.076	426.984	399.897	0.00055924	2.7538e-05	4.0463e-05	1039.8	4.029e-06	1.4111e-06	1126.5	222.46	3.8445e-06	1.0032e-06	282.14	80.208	62.439	18.652	1.4977e-06	26.023	4.3608e-05	3.8369e-05	1.0145e-05	943.29	4.491e-07	4.1905e-07	1031.2	202.59	4.5338e-07	4.2186e-07	242.5	70.253	55.217	16.594	3.979e-07	22.584	371.678	131.083	121.384	81.230	217.826	214.270	81.121	88.723	226.037	186.393	88.441	95.526	95.650	102.283	185.218	101.889	-8191	255	
7030.012	1	1	0	0	0.18413	0.18991	0.06379	0.18172	0.16242	0.06001	0.17788	0.11179	0.19866	0.2505	0.208	0.23603	0.40719	0.2668	0.052688	0.2072	-2.0146	-2.2313	-2.7229	-2.2875	-2.4875	-2.7854	-2.2021	-2.8146	-2.6	-2.1979	-3.0125	-2.3604	-2.5896	-2.8042	-2.1125	-2.65	395.859	306.431	348.296	299.613	222.136	204.555	407.728	387.455	291.463	88.779	72.687	380.922	426.577	101.941	371.865	334.433	0.00054912	6.7727e-05	3.6266e-05	1040.9	1.0124e-06	5.9884e-07	1132.4	224.43	4.5338e-06	9.5115e-07	282.13	79.947	62.305	18.55	9.9139e-07	25.72	4.3738e-05	3.7622e-05	9.6369e-06	943.03	4.553e-07	4.0342e-07	1033.1	203.39	4.4365e-07	4.0661e-07	242.28	70.216	55.088	16.582	3.8167e-07	22.615	362.878	190.421	125.478	80.924	186.402	289.122	81.193	88.906	208.819	135.064	88.341	95.003	95.923	102.902	379.315	102.229	-8191	255	
7030.108	1	1	0	0	0.16986	0.12079	0.30044	0.10627	0.32233	0.13505	0.17502	0.078789	0.15925	0.016503	0.26425	0.24439	0.2876	0.24685	0.090202	0.096726	-2.2125	-2.0896	-3.0396	-2.5271	-2.5104	-2.8604	-2.325	-2.7167	-2.6667	-2.2313	-2.9417	-2.4562	-2.3292	-2.8812	-2.0875	-2.4875	373.843	112.561	115.347	201.892	338.591	373.765	331.391	218.999	411.645	158.850	393.208	330.866	125.002	327.141	205.945	375.846	0.0005756	0.00020588	4.7644e-05	1043.4	2.9227e-06	1.2382e-06	1127.7	223.52	3.4512e-06	1.7876e-06	283.4	79.315	62.365	18.609	1.0601e-06	25.786	4.3735e-05	3.7028e-05	9.6596e-06	944.02	4.4435e-07	4.0028e-07	1031.2	203.16	4.3637e-07	3.8904e-07	241.96	70.054	54.948	16.491	3.9149e-07	22.612	360.780	88.605	161.188	81.161	223.769	229.846	81.105	89.073	210.562	227.855	88.409	95.757	95.610	102.282	91.338	101.837	-8191	255	
7030.204	1	1	0	0	0.087053	0.17377	0.14997	0.2905	0.1335	0.20791	0.24282	0.26517	0.19392	0.11912	0.22774	0.27222	0.25	0.21981	0.24898	0.030275	-2.2417	-2.1979	-2.7188	-2.3771	-2.3167	-2.8896	-2.4229	-2.4958	-2.7583	-2.0625	-2.6729	-2.5833	-2.2854	-2.9854	-2.3979	-2.5542	332.890	78.680	265.010	86.538	83.938	418.395	379.110	333.201	179.021	319.821	260.599	401.173	386.419	159.565	136.515	190.993	0.00050505	9.471e-05	5.3221e-05	1040.5	1.6635e-06	8.8407e-07	1127	223.25	2.9658e-06	6.2072e-07	283.02	79.612	62.286	18.577	1.9681e-06	25.94	4.0978e-05	3.5622e-05	9.8974e-06	943.56	4.259e-07	3.8352e-07	1029.7	203.32	4.2111e-07	3.813e-07	242.49	70.136	54.81	16.5	4.2173e-07	22.588	358.364	403.229	214.520	81.314	227.239	99.801	81.196	88.813	140.785	407.706	88.248	95.612	95.666	102.918	275.395	101.746	-8191	255	
7030.323	1	1	0	0	0.19233	0.29631	0.13198	0.14413	0.096693	0.14247	0.12393	0.26324	0.29828	0.24351	0.35049	0.21619	0.27273	0.13797	0.10828	0.22172	-2.3563	-2.1771	-2.95	-2.55	-2.3396	-2.7458	-2.4854	-2.55	-2.7604	-2.3375	-2.6042	-2.7333	-2.2354	-2.7188	-2.4625	-2.4646	205.631	108.586	241.515	105.934	150.057	382.754	368.232	382.899	343.535	73.400	383.964	382.188	99.541	196.476	91.080	119.266	0.00060553	0.00014984	1.9755e-05	1040.6	2.5124e-06	1.5026e-06	1125.3	223	3.2487e-06	2.4035e-06	281.92	79.415	62.085	18.578	2.8373e-06	25.685	4.0782e-05	3.4935e-05	1.0683e-05	940.13	4.1447e-07	3.7084e-07	1030.4	202.89	4.0592e-07	3.8589e-07	242.31	70.016	54.73	16.462	4.3571e-07	22.527	361.882	134.603	411.516	81.239	218.421	256.377	81.152	88.780	228.170	161.828	88.613	95.278	95.903	102.591	212.396	101.850	-8191	255	
7030.420	1	1	0	0	0.23113	0.22495	0.16509	0.31387	0.13554	0.034022	0.21412	0.29197	0.062228	0.18872	0.25371	0.24647	0.063155	0.042053	0.30942	0.14651	-2.3854	-2.0021	-2.4375	-2.6937	-1.9646	-2.8354	-2.6208	-2.5646	-2.8729	-2.3708	-2.5292	-2.7125	-2.5563	-2.8729	-2.4271	-2.2521	217.025	155.107	117.869	76.184	118.216	241.857	350.889	345.573	151.051	89.428	85.482	409.465	185.981	363.126	210.140	112.145	0.00064329	0.00010187	3.4946e-05	1040	7.1965e-07	1.9707e-06	1125.5	223.01	9.541e-07	2.1501e-06	281.88	79.421	62.319	18.547	1.7153e-06	25.611	3.9424e-05	3.477e-05	1.1287e-05	942.71	3.9313e-07	3.8121e-07	1029.4	202.69	3.935e-07	3.9169e-07	242.5	69.907	54.795	16.491	4.5538e-07	22.488	359.826	181.362	74.456	81.278	283.455	211.623	81.028	88.868	83.750	266.821	88.442	95.295	95.696	102.133	251.760	102.212	-8191	255	
7030.516	1	1	0	0	0.10667	0.19991	0.1117	0.24051	0.11834	0.2307	0.17446	0.38381	0.072184	0.23102	0.2952	0.15179	0.13738	0.14319	0.15627	0.23053	-2.4917	-2.2604	-2.5958	-2.9688	-2.1125	-2.725	-2.7104	-2.3812	-2.9021	-2.3375	-2.4229	-2.7625	-2.2104	-2.6188	-2.7167	-2.2958	165.960	341.361	346.801	297.469	225.467	347.650	375.100	332.439	348.017	174.395	316.293	263.637	202.107	90.831	167.317	232.048	0.00059574	0.00019847	4.5418e-05	1040.1	1.2566e-06	2.2948e-06	1127.6	222.47	3.1253e-06	9.2295e-07	282.36	79.428	62.04	18.439	3.3979e-06	25.624	3.7889e-05	3.655e-05	1.1109e-05	941.27	3.9612e-07	3.9903e-07	1030.5	202.57	3.8425e-07	4.1226e-07	242.33	69.827	54.677	16.477	4.4098e-07	22.46	363.306	135.643	127.226	81.144	233.000	152.380	81.251	88.734	205.243	186.973	88.430	95.285	95.512	102.619	145.840	101.500	-8191	255	
7030.612	1	1	0	0	0.21221	0.17357	0.14239	0.10706	0.21559	0.12301	0.16586	0.080435	0.15083	0.10855	0.17958	0.23892	0.09462	0.10598	0.16361	0.096906	-2.3625	-2.2396	-2.3083	-2.7938	-2.1292	-2.4854	-2.8438	-2.2188	-2.9708	-2.6562	-2.2583	-3.0396	-2.375	-2.7667	-2.7042	-2.0042	361.258	173.046	243.691	88.020	186.819	298.515	420.549	359.839	221.803	128.120	419.641	86.127	164.001	84.594	268.066	423.643	0.00058209	5.0776e-05	7.6928e-05	1044.8	2.5705e-06	2.3708e-07	1127.5	223.41	3.4726e-06	1.0599e-06	283.01	79.751	62.171	18.538	2.749e-06	25.859	3.7653e-05	3.9512e-05	1.1139e-05	941.7	3.8578e-07	4.3457e-07	1029.9	202.9	3.8498e-07	4.4462e-07	242.06	69.879	54.706	16.564	4.29e-07	22.454	362.283	386.882	176.150	81.027	210.104	112.965	81.127	88.826	213.824	218.562	88.543	95.404	95.717	102.752	202.702	101.888	-8191	255	
7030.708	1	1	0	0	0.24887	0.03292	0.17084	0.14182	0.31334	0.35209	0.33189	0.4468	0.1616	0.049968	0.21168	0.11141	0.30121	0.21754	0.26065	0.37279	-2.3979	-2.4333	-2.2396	-2.9896	-2.2542	-2.575	-2.8542	-2.1625	-2.7479	-2.5542	-1.9312	-2.9104	-2.3771	-2.4667	-2.7771	-2.0667	174.674	303.512	78.188	392.903	288.614	321.542	329.814	367.972	160.537	393.830	190.623	272.364	266.161	351.153	73.427	330.976	0.00066819	6.5872e-05	1.4519e-05	1044.5	2.0814e-06	1.5042e-06	1124.8	223.25	4.2726e-06	2.3409e-06	281.57	79.547	62.565	18.556	2.1603e-06	25.706	3.8624e-05	4.113e-05	1.0688e-05	942.29	4.0206e-07	4.4798e-07	1030	202.96	4.0618e-07	4.4891e-07	242.6	69.879	55.02	16.582	4.1862e-07	22.47	362.908	354.318	207.293	81.277	154.912	190.031	80.951	88.948	183.103	200.661	88.484	95.460	95.587	102.573	264.908	101.373	-8191	255	
7030.804	1	1	0	0	0.12765	0.2373	0.16609	0.055958	0.26281	0.23852	0.12095	0.16198	0.077982	0.10241	0.11227	0.25756	0.33489	0.10577	0.052053	0.28554	-2.2833	-2.5042	-1.9667	-3.0292	-2.3563	-2.4292	-2.8792	-1.9583	-2.6854	-2.6688	-2.2042	-2.6646	-2.3625	-2.2854	-2.7562	-2.2479	135.998	192.869	84.086	134.330	255.481	164.430	371.006	311.823	425.700	284.652	329.084	383.828	415.133	353.591	113.041	337.781	0.00057325	3.5744e-05	1.2345e-05	1041.6	2.5903e-06	2.6254e-06	1132.8	223.91	6.111e-06	7.5131e-07	280.08	79.939	62.184	18.475	1.4559e-06	25.808	4.158e-05	4.1279e-05	1.0453e-05	942.58	4.3182e-07	4.47e-07	1030.7	202.96	4.3023e-07	4.3651e-07	241.8	70.018	54.983	16.537	3.9998e-07	22.516	351.529	177.195	124.259	81.284	209.508	201.981	81.355	88.741	192.473	304.938	88.609	95.120	95.836	102.610	181.496	102.013	-8191	255	
7030.900	1	1	0	0	0.066604	0.13459	0.16203	0.22534	0.076138	0.30728	0.33616	0.011407	0.14524	0.25937	0.29585	0.12064	0.13551	0.34285	0.089141	0.082101	-2.0854	-2.525	-2.2042	-3.0833	-2.5812	-2.2687	-3.0146	-2.1375	-2.6417	-2.7	-2.1583	-2.7313	-2.6479	-2.1083	-2.8958	-2.2021	348.736	295.657	133.291	366.522	315.914	323.202	398.822	386.019	257.655	367.546	379.314	168.333	354.289	74.947	227.043	185.569	0.00061886	0.00019502	3.0412e-05	1044	1.7143e-06	8.9285e-07	1124.6	223.44	3.7304e-06	1.752e-06	282.18	79.333	62.315	18.485	2.1042e-06	25.784	4.3973e-05	3.9583e-05	1.0207e-05	942.01	4.5839e-07	4.2621e-07	1029.3	202.89	4.5342e-07	4.2202e-07	241.97	69.838	54.952	16.495	3.9573e-07	22.507	354.769	411.527	157.305	81.005	255.662	181.922	81.029	88.896	146.054	194.010	88.559	95.242	95.905	102.328	174.913	101.921	-8191	255	
7030.996	1	1	0	0	0.17527	0.078545	0.24992	0.22303	0.31857	0.33747	0.18798	0.029153	0.3636	0.20912	0.028956	0.24685	0.26425	0.096447	0.085227	0.11535	-1.9292	-2.8292	-1.9625	-2.9646	-2.4271	-2.0563	-3.0187	-2.2458	-2.4417	-2.8354	-2.1	-2.7708	-2.4708	-2.1958	-2.8771	-2.45	316.246	127.922	258.257	349.228	341.702	180.621	314.931	390.132	309.537	179.855	142.772	414.672	403.229	207.968	229.336	148.471	0.00062841	0.00018537	2.5175e-05	1039.4	3.9847e-06	2.7183e-06	1127.7	222.9	2.6155e-06	7.1752e-07	282.55	79.942	62.436	18.445	2.8971e-06	25.647	4.4531e-05	3.7975e-05	9.8887e-06	941.05	4.5819e-07	4.1026e-07	1030	202.76	4.4725e-07	4.0672e-07	241.71	70.005	54.987	16.466	3.8611e-07	22.53	356.081	164.864	125.569	81.189	263.423	213.839	81.154	88.977	207.711	253.723	88.496	95.386	95.693	102.580	173.857	101.830	-8191	255	
7031.115	1	1	0	0	0.10737	0.1086	0.16937	0.46661	0.034005	0.30066	0.15387	0.26678	0.055241	0.3538	0.17428	0.10781	0.36007	0.1722	0.13493	0.11809	-1.8979	-2.6063	-2.2354	-2.5104	-2.4896	-2.1146	-3.0458	-2.5646	-2.4188	-2.8708	-2.2438	-2.525	-2.6875	-2.0146	-2.7771	-2.4667	330.556	195.702	380.388	334.361	336.752	180.458	271.698	266.281	296.877	164.904	164.352	270.459	145.862	91.751	75.960	344.562	0.00071846	0.00022569	2.4651e-05	1038.5	5.571e-07	1.6419e-06	1123.8	222.94	2.3108e-06	1.5143e-06	280.89	79.216	62.1	18.499	1.596e-06	25.531	4.3727e-05	3.5952e-05	9.8158e-06	941.13	4.4124e-07	4.0258e-07	1028.7	203.38	4.3371e-07	3.9854e-07	241.43	69.948	54.807	16.446	3.8599e-07	22.517	366.663	147.815	228.232	81.382	176.193	172.632	81.177	88.798	129.030	235.250	88.291	95.330	95.742	102.779	315.992	102.261	-8191	255	
7031.189	1	1	0	0	0.21997	0.15826	0.068528	0.27096	0.091558	0.090444	0.26011	0.1363	0.06597	0.071849	0.13647	0.25778	0.20473	0.14622	0.15354	0.16763	-1.8312	-2.8937	-2.3125	-2.5604	-2.5375	-2.2562	-2.9354	-2.4979	-2.3458	-2.8187	-2.3312	-2.4313	-2.8479	-2.1792	-2.7125	-2.5854	241.665	165.636	131.963	329.218	333.905	87.956	348.331	121.075	292.481	287.694	160.066	342.547	381.512	97.183	179.995	72.683	0.00059942	0.00012598	3.0035e-05	1040.3	1.2206e-06	3.012e-07	1131.4	223	1.0968e-06	3.6295e-07	283.33	79.96	62.291	18.454	3.4573e-06	25.786	4.1383e-05	3.5852e-05	1.0078e-05	941.67	4.2263e-07	3.8478e-07	1031.9	202.91	4.3143e-07	3.7824e-07	242.33	70.026	54.908	16.452	4.0951e-07	22.629	354.327	81.557	197.167	80.999	178.875	265.328	80.952	88.983	248.122	251.731	88.318	95.481	95.689	102.743	177.334	101.782	-8191	255	
7031.285	1	1	0	0	0.086692	0.18191	0.084768	0.21682	0.23037	0.060509	0.16001	0.33327	0.064059	0.3329	0.092546	0.12085	0.25866	0.1911	0.26302	0.20261	-1.9562	-2.7729	-2.3958	-2.4292	-2.8792	-2.1083	-2.8146	-2.4479	-2.2854	-2.85	-2.4667	-2.3292	-3.0667	-2.0646	-2.675	-2.65	282.139	278.896	430.118	369.147	330.653	407.637	387.483	355.513	251.405	210.192	88.084	109.098	426.384	76.362	221.303	243.558	0.00065272	0.00027645	4.6296e-05	1044	9.0411e-07	2.0059e-06	1129.1	223.46	2.0138e-06	1.4719e-06	283.33	80.081	62.364	18.581	3.2348e-06	25.885	4.0313e-05	3.4585e-05	1.0625e-05	943.5	4.0357e-07	3.8352e-07	1031.8	203	4.1237e-07	3.716e-07	242.33	70.048	54.845	16.478	4.3939e-07	22.581	361.588	136.857	124.936	80.977	175.045	211.525	81.078	89.098	182.629	195.772	88.129	95.199	95.325	102.567	215.075	102.211	-8191	255	
7031.404	1	1	0	0	0.13292	0.2303	0.12101	0.13699	0.15621	0.23722	0.2833	0.046707	0.073726	0.19413	0.21555	0.1206	0.15836	0.25712	0.17419	0.14696	-1.6375	-2.8208	-2.6208	-2.3104	-2.825	-2.2917	-2.7687	-2.7625	-2.1896	-2.5833	-2.5146	-2.1479	-2.7542	-2.0417	-2.4604	-2.7021	293.971	212.956	96.453	87.371	266.794	204.500	414.651	79.380	114.912	256.604	337.122	399.477	371.139	242.438	297.519	264.963	0.00070786	0.00015713	2.2452e-05	1040.9	2.0756e-06	1.099e-06	1125.4	224.02	2.3989e-06	1.469e-06	281.5	79.728	61.909	18.529	2.2393e-06	25.702	3.9692e-05	3.4134e-05	1.1252e-05	943.23	3.9238e-07	3.902e-07	1030.2	203.3	4.0169e-07	3.9049e-07	242.63	70.232	54.742	16.488	4.5131e-07	22.522	350.185	135.441	425.435	81.135	167.298	173.978	81.258	88.493	215.996	170.583	88.652	95.146	95.727	102.179	154.373	101.936	-8191	255	
7031.500	1	1	0	0	0.043243	0.18448	0.19416	0.15585	0.1505	0.18958	0.2256	0.049555	0.14391	0.39585	0.041698	0.23768	0.1586	0.15499	0.12471	0.20001	-1.6375	-2.6979	-2.6458	-2.1896	-2.8729	-2.2708	-2.5396	-2.7687	-2.025	-2.7917	-2.5021	-2.3604	-2.9021	-2.3104	-2.4938	-2.9896	346.896	373.596	298.809	410.751	376.956	249.563	73.070	240.904	335.118	390.047	226.143	330.488	249.337	186.588	389.149	429.110	0.00055186	0.0002805	2.9999e-05	1038.8	1.7142e-06	6.3034e-07	1127.1	224.31	2.6309e-06	1.3425e-06	283.57	80.282	62.401	18.609	2.3778e-06	25.69	3.9384e-05	3.6218e-05	1.1456e-05	942.76	3.8916e-07	4.1127e-07	1031	203.26	3.8923e-07	4.1501e-07	242.79	70.118	54.881	16.511	4.4689e-07	22.49	357.748	111.353	224.604	81.494	212.501	382.547	81.046	88.704	175.759	191.641	88.458	95.473	95.825	102.396	234.672	101.962	-8191	255	
7031.596	1	1	0	0	0.25478	0.24602	0.071744	0.13659	0.1853	0.12527	0.21634	0.16736	0.2436	0.10166	0.020455	0.14193	0.072219	0.16587	0.034899	0.19058	-1.6146	-2.4979	-2.5583	-2.0875	-2.9625	-2.2583	-2.5417	-2.7083	-2.2729	-2.6	-2.8104	-2.075	-2.8667	-2.3521	-2.2583	-2.9667	197.218	380.103	394.692	72.275	382.022	263.032	280.932	341.217	209.566	368.718	81.814	427.907	319.465	251.701	183.636	410.119	0.00061959	4.9696e-05	6.4236e-05	1037.8	1.9492e-06	9.4763e-07	1126.7	224.09	3.9735e-06	3.3153e-06	281.02	79.434	62.194	18.423	1.9975e-06	25.625	3.7858e-05	3.8997e-05	1.0858e-05	942.52	3.8102e-07	4.3286e-07	1031.2	203.18	3.8612e-07	4.3787e-07	242.35	69.892	54.886	16.494	4.2076e-07	22.487	358.963	423.888	210.473	81.341	228.473	183.320	81.040	89.013	158.476	192.612	88.575	95.431	95.367	102.654	205.237	101.859	-8191	255	
7031.717	1	1	0	0	0.089346	0.23382	0.11162	0.16313	0.078195	0.11633	0.093204	0.27898	0.15816	0.23176	0.035878	0.33938	0.15858	0.21883	0.13169	0.27387	-2.0125	-2.425	-2.7396	-2.2479	-2.7562	-2.4021	-2.5687	-2.9208	-2.3875	-2.3542	-2.9938	-2.0312	-2.7208	-2.5208	-2.2208	-2.7979	279.492	118.918	76.435	262.237	111.058	94.243	368.275	384.613	361.094	350.867	114.454	162.470	397.021	323.827	114.104	103.451	0.00069647	0.00031293	6.9915e-05	1038.4	2.4879e-06	5.2802e-07	1129.4	222.24	2.9764e-06	1.2135e-06	282.72	79.662	62.23	18.518	1.9179e-06	25.732	3.8387e-05	4.0344e-05	1.0375e-05	941.19	3.9255e-07	4.3907e-07	1031.4	202.4	4.0463e-07	4.4e-07	241.64	69.909	54.868	16.519	4.0961e-07	22.452	361.694	161.741	414.579	81.229	259.805	119.771	81.244	88.726	170.905	231.973	88.584	95.422	95.828	102.798	131.867	102.102	-8191	255	
7031.813	1	1	0	0	0.23958	0.33978	0.12289	0.14498	0.066329	0.21446	0.12156	0.14856	0.057673	0.05951	0.068999	0.037517	0.30327	0.32332	0.23571	0.15495	-1.8271	-2.3021	-2.9521	-2.2021	-2.6375	-2.6521	-2.3083	-2.7875	-2.3708	-2.3812	-2.8771	-2.05	-2.6479	-2.7313	-2.0667	-2.8312	80.462	395.856	205.090	338.094	256.699	95.221	328.237	307.752	335.215	115.474	335.032	206.509	406.603	92.626	267.040	107.229	0.00069845	4.6247e-05	1.5676e-05	1043	1.7135e-06	1.803e-06	1131.1	223.04	5.9713e-06	9.9433e-07	281.67	79.94	62.786	18.621	2.0639e-06	25.672	4.1315e-05	4.0355e-05	1.0249e-05	943.57	4.2226e-07	4.3259e-07	1032	202.38	4.3106e-07	4.3078e-07	242.32	69.967	55.077	16.535	3.9067e-07	22.446	353.481	415.608	188.755	80.992	199.444	169.512	81.275	88.744	203.468	202.505	88.188	95.355	95.934	102.793	134.751	102.052	-8191	255	
7031.884	1	1	0	0	0.11562	0.12979	0.34055	0.46869	0.20773	0.28436	0.4455	0.23887	0.056571	0.11148	0.12095	0.21431	0.20005	0.25063	0.123	0.14897	-1.9083	-2.375	-2.6188	-2.4083	-2.5938	-2.5771	-2.2292	-2.7354	-2.5583	-2.1625	-2.7979	-2.2438	-2.5917	-2.8563	-2.0479	-2.5833	300.129	184.538	426.757	423.411	103.689	290.618	374.260	357.849	278.312	142.749	104.363	381.951	107.336	349.708	305.439	393.450	0.00051956	7.4125e-05	6.868e-05	1040.9	2.3338e-06	4.9321e-07	1127.2	223.12	2.409e-06	1.6698e-06	281.73	79.278	62.311	18.595	1.7855e-06	25.772	4.2619e-05	3.8412e-05	9.8583e-06	941.64	4.418e-07	4.0963e-07	1030.4	202.52	4.4793e-07	4.0722e-07	241.49	69.751	54.999	16.557	3.857e-07	22.49	360.229	77.283	244.417	81.255	179.627	171.238	81.274	88.603	209.226	136.064	88.378	95.238	95.543	102.608	193.978	101.872	-8191	255	
7032.005	1	1	0	0	0.1509	0.09753	0.20619	0.18781	0.11599	0.073078	0.28845	0.20347	0.16167	0.10022	0.38969	0.064207	0.13473	0.075934	0.35598	0.067529	-2.1333	-1.9854	-2.975	-2.5812	-2.6271	-2.6708	-2.3625	-2.6854	-2.5458	-2.1458	-3.0542	-2.475	-2.4771	-2.775	-2.3333	-2.5917	378.733	341.261	246.718	393.709	78.268	228.711	392.682	408.114	220.224	219.751	74.750	263.558	400.957	206.538	186.813	369.136	0.00061365	8.934e-05	3.8247e-05	1036.7	2.8375e-06	2.0006e-06	1125.6	223.34	2.4902e-06	3.2214e-07	282.78	79.136	62.137	18.385	2.436e-06	25.927	4.3369e-05	3.7012e-05	9.4403e-06	940.34	4.4042e-07	3.888e-07	1028.5	202.76	4.4078e-07	3.994e-07	241.87	69.842	54.849	16.427	3.7613e-07	22.559	354.474	82.357	160.245	81.268	159.272	204.178	81.155	89.174	195.893	331.907	88.606	95.596	95.515	102.593	147.482	101.984	-8191	255	
7032.101	1	1	0	0	0.19147	0.16493	0.086134	0.27208	0.21165	0.15692	0.40644	0.21403	0.12719	0.094622	0.23117	0.23043	0.21704	0.12096	0.17682	0.073473	-2.0812	-2.0771	-2.6708	-2.6042	-2.2854	-2.9146	-2.2333	-2.8458	-2.6312	-2.2333	-2.8083	-2.6562	-2.25	-2.9979	-2.1917	-2.5187	300.636	305.321	374.936	399.257	180.295	139.772	405.064	394.768	204.539	108.653	113.281	80.495	378.305	310.471	130.102	74.161	0.00049634	0.00012185	6.9406e-05	1040.2	2.5394e-06	7.0302e-07	1126.7	222.7	1.4353e-06	1.1114e-06	283.17	79.816	61.933	18.372	3.1413e-06	25.479	4.1896e-05	3.5866e-05	9.2961e-06	942.71	4.3229e-07	3.8107e-07	1030.8	202.76	4.2405e-07	3.7921e-07	241.81	69.913	54.765	16.372	3.844e-07	22.49	365.789	144.650	123.378	81.117	240.339	192.976	81.196	88.704	147.910	203.220	88.562	95.743	95.702	102.566	191.175	102.148	-8191	255	
7032.196	1	1	0	0	0.087532	0.14219	0.17018	0.19438	0.16702	0.10759	0.14311	0.15574	0.19438	0.078285	0.071308	0.19728	0.13377	0.1553	0.14401	0.28953	-2.2958	-2.1437	-2.6188	-2.6333	-2.2104	-2.9938	-2.3979	-2.4667	-2.8854	-1.9813	-2.7313	-2.8583	-2.1875	-2.8542	-2.4375	-2.3771	373.270	414.338	77.358	423.808	289.205	354.260	86.976	225.310	375.830	261.783	100.563	312.548	113.745	268.055	233.394	426.495	0.00069166	8.765e-05	3.4331e-05	1038.6	7.4661e-07	1.5516e-06	1121.6	223	2.5848e-06	2.6844e-06	282.63	79.416	62.126	18.4	1.0465e-06	25.866	4.0422e-05	3.5136e-05	9.7231e-06	940.47	4.2129e-07	3.7084e-07	1028.5	202.72	4.11e-07	3.8046e-07	242.18	70.005	54.766	16.395	4.1363e-07	22.56	353.864	146.206	157.569	81.103	157.459	170.626	81.109	88.728	187.160	263.557	88.393	95.304	95.664	102.476	195.585	101.735	-8191	255	
#DATA ENDS
