BOXY.EXE: ISS Imagent and Oximeter Data Acquisition Program Version 0.80
Ascii Record File

#ACQ INFORMATION
2  Detector Channels 
16  External MUX Channels 
1  Auxiliary Channels 
5000  Waveform (CCF) Frequency (Hz)
1  Waveforms Skipped 
30  Waveforms Averaged 
1  Cycles Averaged 
16  Acquisitions per Waveform 
10.0806  Updata Rate (Hz) 

#FILE INFORMATION
TRUE -- External MUX Channel results are PARSED.
FALSE -- AC DC and Phase are NOT grouped.
TRUE -- Companion Program Settings File CREATED.
FALSE -- AC data not excluded
FALSE -- DC data not excluded
FALSE -- Phase data not excluded
FALSE -- Auxillary Chn. data not excluded
Tab delimiters

#CALIBRATION STATE
TRUE -- Waveform Calibration Values APPLIED.


#AUX CALIBRATION VALUES
Val Type	aux-1	

Term	1.0000e+00	
Factor	0.0000e+00	


#WF CALIBRATION VALUES
A = Detector Channel
Val Type	A-AC1	A-AC2	A-AC3	A-AC4	A-AC5	A-AC6	A-AC7	A-AC8	A-AC9	A-AC10	A-AC11	A-AC12	A-AC13	A-AC14	A-AC15	A-AC16	A-DC1	A-DC2	A-DC3	A-DC4	A-DC5	A-DC6	A-DC7	A-DC8	A-DC9	A-DC10	A-DC11	A-DC12	A-DC13	A-DC14	A-DC15	A-DC16	A-Ph1	A-Ph2	A-Ph3	A-Ph4	A-Ph5	A-Ph6	A-Ph7	A-Ph8	A-Ph9	A-Ph10	A-Ph11	A-Ph12	A-Ph13	A-Ph14	A-Ph15	A-Ph16	

Term	0.00000e+00	0.00000e+00	0.00000e+00	0.00000e+00	0.00000e+00	0.00000e+00	0.00000e+00	0.00000e+00	0.00000e+00	0.00000e+00	0.00000e+00	0.00000e+00	0.00000e+00	0.00000e+00	0.00000e+00	0.00000e+00	0.00000e+00	0.00000e+00	0.00000e+00	0.00000e+00	0.00000e+00	0.00000e+00	0.00000e+00	0.00000e+00	0.00000e+00	0.00000e+00	0.00000e+00	0.00000e+00	0.00000e+00	0.00000e+00	0.00000e+00	0.00000e+00	0.00000e+00	0.00000e+00	0.00000e+00	0.00000e+00	0.00000e+00	0.00000e+00	0.00000e+00	0.00000e+00	0.00000e+00	0.00000e+00	0.00000e+00	0.00000e+00	0.00000e+00	0.00000e+00	0.00000e+00	0.00000e+00	
Factor	1.00000e+00	1.00000e+00	1.00000e+00	1.00000e+00	1.00000e+00	1.00000e+00	1.00000e+00	1.00000e+00	1.00000e+00	1.00000e+00	1.00000e+00	1.00000e+00	1.00000e+00	1.00000e+00	1.00000e+00	1.00000e+00	1.00000e+00	1.00000e+00	1.00000e+00	1.00000e+00	1.00000e+00	1.00000e+00	1.00000e+00	1.00000e+00	1.00000e+00	1.00000e+00	1.00000e+00	1.00000e+00	1.00000e+00	1.00000e+00	1.00000e+00	1.00000e+00	X	X	X	X	X	X	X	X	X	X	X	X	X	X	X	X	

B = Detector Channel
Val Type	B-AC1	B-AC2	B-AC3	B-AC4	B-AC5	B-AC6	B-AC7	B-AC8	B-AC9	B-AC10	B-AC11	B-AC12	B-AC13	B-AC14	B-AC15	B-AC16	B-DC1	B-DC2	B-DC3	B-DC4	B-DC5	B-DC6	B-DC7	B-DC8	B-DC9	B-DC10	B-DC11	B-DC12	B-DC13	B-DC14	B-DC15	B-DC16	B-Ph1	B-Ph2	B-Ph3	B-Ph4	B-Ph5	B-Ph6	B-Ph7	B-Ph8	B-Ph9	B-Ph10	B-Ph11	B-Ph12	B-Ph13	B-Ph14	B-Ph15	B-Ph16	

Term	0.00000e+00	0.00000e+00	0.00000e+00	0.00000e+00	0.00000e+00	0.00000e+00	0.00000e+00	0.00000e+00	0.00000e+00	0.00000e+00	0.00000e+00	0.00000e+00	0.00000e+00	0.00000e+00	0.00000e+00	0.00000e+00	0.00000e+00	0.00000e+00	0.00000e+00	0.00000e+00	0.00000e+00	0.00000e+00	0.00000e+00	0.00000e+00	0.00000e+00	0.00000e+00	0.00000e+00	0.00000e+00	0.00000e+00	0.00000e+00	0.00000e+00	0.00000e+00	6.26660e+01	-1.60708e+02	-1.38034e+02	-1.81640e+02	-8.09839e+01	-1.13405e+02	-1.57973e+02	-1.62015e+02	-1.03025e+02	-8.37485e+01	-1.80409e+02	-1.70637e+02	-1.81506e+02	-1.76090e+02	-1.06331e+02	-1.49360e+02	
Factor	4.46417e-05	7.40306e-05	1.66068e-05	1.80300e-01	6.95920e-07	6.52801e-07	1.65304e-01	5.16653e-02	1.08927e-06	6.59530e-07	1.02996e-01	2.98071e-02	2.44284e-02	9.16901e-03	8.66652e-07	1.32262e-02	3.52392e-07	3.56068e-07	9.93150e-08	8.43590e-02	3.89487e-09	3.90538e-09	7.38614e-02	2.41382e-02	3.89876e-09	3.90770e-09	4.36374e-02	1.29438e-02	1.10597e-02	4.10157e-03	3.91558e-09	5.63340e-03	X	X	X	X	X	X	X	X	X	X	X	X	X	X	X	X	



#DISTANCE SETTINGS
A = Detector Channel
A-1	A-2	A-3	A-4	A-5	A-6	A-7	A-8	A-9	A-10	A-11	A-12	A-13	A-14	A-15	A-16	

2.5000e+00	3.0000e+00	2.5000e+00	3.0000e+00	2.0000e+00	3.0000e+00	1.5000e+00	3.0000e+00	3.0000e+00	3.0000e+00	3.0000e+00	3.0000e+00	3.0000e+00	3.0000e+00	1.5000e+00	3.0000e+00	

B = Detector Channel
B-1	B-2	B-3	B-4	B-5	B-6	B-7	B-8	B-9	B-10	B-11	B-12	B-13	B-14	B-15	B-16	

1.0000e+01	1.0000e+01	1.0000e+01	1.4400e+00	1.0000e+01	1.0000e+01	1.5100e+00	1.9400e+00	1.0000e+01	1.0000e+01	1.9900e+00	2.4900e+00	2.4100e+00	2.9000e+00	1.0000e+01	2.9800e+00	




#DATA BEGINS
time	group	step	mark	flag	A-AC1	A-AC2	A-AC3	A-AC4	A-AC5	A-AC6	A-AC7	A-AC8	A-AC9	A-AC10	A-AC11	A-AC12	A-AC13	A-AC14	A-AC15	A-AC16	A-DC1	A-DC2	A-DC3	A-DC4	A-DC5	A-DC6	A-DC7	A-DC8	A-DC9	A-DC10	A-DC11	A-DC12	A-DC13	A-DC14	A-DC15	A-DC16	A-Ph1	A-Ph2	A-Ph3	A-Ph4	A-Ph5	A-Ph6	A-Ph7	A-Ph8	A-Ph9	A-Ph10	A-Ph11	A-Ph12	A-Ph13	A-Ph14	A-Ph15	A-Ph16	B-AC1	B-AC2	B-AC3	B-AC4	B-AC5	B-AC6	B-AC7	B-AC8	B-AC9	B-AC10	B-AC11	B-AC12	B-AC13	B-AC14	B-AC15	B-AC16	B-DC1	B-DC2	B-DC3	B-DC4	B-DC5	B-DC6	B-DC7	B-DC8	B-DC9	B-DC10	B-DC11	B-DC12	B-DC13	B-DC14	B-DC15	B-DC16	B-Ph1	B-Ph2	B-Ph3	B-Ph4	B-Ph5	B-Ph6	B-Ph7	B-Ph8	B-Ph9	B-Ph10	B-Ph11	B-Ph12	B-Ph13	B-Ph14	B-Ph15	B-Ph16	aux-1	digaux	

6978.803	1	1	0	256	0.13646	0.088931	0.3054	0.38093	0.18993	0.010259	0.13235	0.16741	0.14249	0.1974	0.12878	0.19414	0.22536	0.095687	0.20159	0.32552	-1.5396	-2.7375	-2.2687	-2.3937	-2.5125	-2.1625	-2.6	-2.7396	-2.1542	-2.6	-2.6521	-2.2542	-2.6813	-2.3625	-2.4271	-2.8333	204.641	393.849	108.403	419.833	214.158	80.613	94.203	338.961	124.888	83.210	149.491	143.554	333.386	383.762	230.585	372.925	0.00082135	0.00062232	6.7374e-05	1092.7	1.4686e-06	4.4967e-06	1197.1	237.21	3.0383e-06	2.4765e-06	295.39	83.61	65.55	19.654	3.4036e-06	26.862	0.0001802	0.0001781	5.77e-05	1027	1.9542e-06	2.01e-06	1126.9	225.23	1.9744e-06	2.0274e-06	276.33	79.149	62.222	19.164	2.3038e-06	25.921	369.586	154.629	120.272	81.312	211.254	152.299	81.262	88.965	279.442	185.172	88.536	95.238	95.627	102.253	187.106	101.768	-8191	255	
6978.921	1	1	0	0	0.089775	0.13779	0.12853	0.33948	0.064018	0.076087	0.20427	0.31877	0.24332	0.086172	0.045715	0.23223	0.20459	0.13903	0.22118	0.15151	-1.9208	-2.675	-2.5583	-2.1562	-2.8438	-2.2438	-2.4437	-2.7292	-2.2083	-2.6958	-2.5917	-2.1562	-2.8146	-2.4396	-2.2333	-2.9417	101.658	327.039	215.056	334.212	93.073	86.283	320.505	341.825	154.836	350.736	80.141	390.560	84.036	411.921	206.573	292.376	0.00035904	0.00024211	3.1227e-05	1096.2	1.9854e-06	4.1827e-06	1190.2	234.91	5.5278e-06	2.6982e-06	296.66	83.577	65.056	19.582	1.8989e-06	26.948	0.00017938	0.00019247	5.7274e-05	1027.1	1.9045e-06	2.1309e-06	1123.4	223.48	1.8513e-06	2.082e-06	273.83	78.424	61.592	19.056	2.0473e-06	25.568	359.848	102.075	242.184	80.911	148.221	212.079	81.176	88.838	179.813	165.037	88.678	95.164	95.529	102.093	254.808	101.555	-8191	255	
6979.018	1	1	0	0	0.31235	0.14629	0.059002	0.18423	0.087127	0.40422	0.13929	0.049312	0.19186	0.073301	0.25857	0.26691	0.18674	0.074478	0.23371	0.26109	-1.7125	-2.5396	-2.7562	-2.1333	-2.675	-2.4229	-2.2062	-2.9	-2.1542	-2.6708	-2.6854	-2.0438	-2.6854	-2.4833	-2.4354	-2.6729	320.375	169.716	165.128	307.515	343.809	249.302	272.871	125.679	378.475	263.064	407.122	401.075	318.823	308.979	269.613	402.773	0.00086523	0.00034975	6.9636e-05	1092.7	3.6766e-06	2.2344e-06	1190.3	235.49	2.5249e-06	2.5135e-06	295.49	83.513	65.502	19.347	1.4472e-06	26.527	0.00016779	0.00019004	5.1912e-05	1020	1.8333e-06	2.1427e-06	1118.1	222.6	1.8829e-06	2.1585e-06	271.71	78.14	61.824	19.136	2.0267e-06	25.443	350.452	154.555	166.077	81.306	267.468	178.194	81.086	88.716	154.494	216.600	88.334	94.971	95.772	102.291	127.683	101.752	-8191	255	
6979.114	1	1	0	0	0.05597	0.23278	0.20803	0.37508	0.17128	0.086968	0.24889	0.091848	0.20174	0.14292	0.18063	0.21254	0.13331	0.14223	0.26052	0.13196	-1.8125	-2.3229	-2.8187	-2.0875	-2.9146	-2.6333	-2.3937	-2.7333	-2.3792	-2.2729	-2.8625	-2.1396	-2.8854	-2.5083	-2.2687	-2.8187	112.431	316.583	211.281	392.856	407.045	406.659	96.952	299.418	207.525	120.852	358.823	104.119	348.955	119.170	404.074	398.084	0.00070496	0.00018459	3.2188e-05	1090.1	3.3914e-06	1.1716e-06	1187.9	233.8	1.3979e-06	4.8255e-06	294.78	83.035	65.225	19.335	1.5941e-06	26.928	0.00017843	0.00019697	4.9931e-05	1018.5	1.9518e-06	2.1356e-06	1114.7	221.78	1.9851e-06	2.1176e-06	270.25	77.645	61.939	18.957	1.9241e-06	25.432	365.590	317.934	297.051	81.331	174.167	210.833	81.107	88.557	150.716	297.183	88.522	95.003	95.540	102.197	273.106	101.539	-8191	255	
6979.210	1	1	0	0	0.27365	0.091413	0.14562	0.21227	0.20289	0.29591	0.12336	0.28562	0.24975	0.16061	0.34847	0.07585	0.20358	0.098567	0.055118	0.056538	-2.0979	-2.3708	-2.7417	-2.4583	-2.4979	-2.7146	-2.3354	-2.8458	-2.7083	-2.3812	-2.9938	-2.4313	-2.3917	-2.7833	-2.25	-2.7646	77.287	372.146	350.385	96.077	230.881	133.903	425.835	391.092	196.132	327.034	79.209	76.388	77.892	386.157	387.423	357.119	0.00074995	0.00011315	4.6999e-05	1087.2	3.537e-06	2.6528e-06	1190	234.63	3.1044e-06	1.6542e-06	296.04	82.772	65.036	19.181	3.7175e-06	26.825	0.00018895	0.00018774	4.7976e-05	1015.5	2.0659e-06	2.0402e-06	1111.5	221.71	2.0834e-06	1.9898e-06	268.9	77.5	61.983	18.794	1.8511e-06	25.423	360.633	336.549	244.905	81.207	253.154	364.241	81.063	88.863	196.586	85.678	88.677	95.142	95.707	102.355	317.317	101.749	-8191	255	
6979.306	1	1	0	0	0.11786	0.1137	0.18884	0.28296	0.099238	0.15116	0.29471	0.06652	0.14667	0.27985	0.19666	0.03708	0.19588	0.077173	0.20779	0.1215	-2.1562	-2.2583	-2.9771	-2.3625	-2.375	-2.9188	-2.2375	-2.8708	-2.5604	-2.1604	-2.8312	-2.2521	-2.3521	-2.8271	-2.1063	-2.6396	123.572	301.386	97.195	350.720	219.779	256.314	333.581	290.484	97.268	148.493	79.027	320.560	103.567	381.870	337.350	245.264	0.00065769	0.00042886	6.0413e-05	1086.9	3.1316e-06	2.1574e-06	1181.9	233.4	2.6531e-06	4.0726e-06	293.01	82.977	64.892	19.128	1.3863e-06	26.684	0.00019545	0.00018055	4.7218e-05	1015	2.1471e-06	1.9807e-06	1109.4	221.48	2.1589e-06	1.958e-06	268.36	77.871	62.1	18.657	1.8367e-06	25.575	349.170	210.856	374.993	81.069	222.266	223.112	81.091	89.067	209.993	180.094	88.416	95.270	95.653	102.564	346.445	102.179	-8191	255	
6979.402	1	1	0	0	0.10989	0.19561	0.25787	0.10304	0.22152	0.1048	0.31678	0.13619	0.068723	0.13591	0.085682	0.33075	0.04728	0.13991	0.11371	0.20211	-2.2146	-2.0708	-2.6896	-2.6437	-2.3208	-2.8271	-2.2438	-2.6562	-2.5229	-1.8438	-2.9896	-2.2646	-2.3771	-2.8396	-2.3812	-2.5625	96.151	400.833	218.621	283.925	210.848	116.381	369.115	409.172	345.814	313.156	115.954	394.428	265.528	380.890	130.374	418.114	0.00071969	0.00032882	3.4999e-05	1090.8	1.3929e-06	2.8825e-06	1179.5	234.13	1.7784e-06	1.4574e-06	294.72	82.241	64.626	19.046	3.6881e-06	26.467	0.00019581	0.00017653	4.6425e-05	1021.2	2.1154e-06	1.9241e-06	1106	221.82	2.1028e-06	1.9142e-06	267.7	78.17	61.682	18.593	1.8627e-06	25.57	352.350	332.337	314.396	80.941	394.870	331.657	81.235	88.966	270.136	390.214	88.862	95.413	96.029	102.471	176.014	102.137	-8191	255	
6979.498	1	1	0	0	0.10389	0.162	0.095729	0.1601	0.11342	0.2803	0.23834	0.26131	0.14031	0.050708	0.21056	0.23367	0.17066	0.070262	0.21244	0.28276	-2.2771	-1.95	-2.8396	-2.425	-2.1375	-2.7042	-2.375	-2.4792	-2.7125	-2.3271	-2.5958	-2.4333	-2.3979	-2.6875	-2.3958	-2.4396	143.850	423.397	410.668	393.777	320.165	291.465	77.517	341.215	361.469	178.640	124.128	426.895	348.956	333.814	152.539	89.394	0.00033873	0.00049266	7.3659e-05	1075.7	2.0526e-06	1.9288e-06	1179	232.44	4.4598e-07	4.7755e-07	293.33	82.527	64.374	19.007	5.3998e-06	26.179	0.00018939	0.00017266	4.679e-05	1015.6	2.0322e-06	1.8895e-06	1106.2	222.31	2.0542e-06	1.9209e-06	268.67	78.655	61.647	18.604	2.0835e-06	25.827	342.569	163.248	144.001	81.387	266.836	312.579	81.113	88.802	236.976	112.919	88.531	95.431	95.518	102.345	149.107	101.719	-8191	255	
6979.594	1	1	0	0	0.034671	0.028809	0.10002	0.21653	0.15732	0.31969	0.19759	0.15974	0.050326	0.052597	0.23995	0.15035	0.064199	0.020215	0.28018	0.11827	-2.0875	-2.0312	-2.5708	-2.7208	-2.0917	-2.8958	-2.2	-2.425	-2.6208	-2.2938	-2.6479	-2.5708	-2.3208	-2.7938	-2.4625	-2.2833	92.461	379.025	332.334	165.669	329.658	96.239	352.432	287.353	396.080	205.253	127.433	374.319	345.452	99.775	142.078	360.480	0.00056233	0.00012938	9.2001e-05	1080.5	1.7156e-06	1.0409e-06	1177.3	232.81	2.6273e-06	5.1874e-06	292.09	82.103	64.346	18.977	7.5738e-06	26.21	0.00019701	0.00018483	5.5053e-05	1022.9	2.1862e-06	2.0597e-06	1110.3	223.45	2.2137e-06	2.0828e-06	272.41	78.706	61.613	18.59	2.3294e-06	25.79	364.459	263.123	155.667	81.396	361.018	353.883	81.049	88.725	121.106	174.669	88.472	95.261	95.995	102.628	146.962	102.188	-8191	255	
6979.713	1	1	0	0	0.097161	0.12879	0.20173	0.25076	0.4563	0.24821	0.087702	0.28369	0.20618	0.057062	0.075864	0.027441	0.38368	0.1421	0.13589	0.38013	-2.4729	-2.0104	-2.5896	-2.7333	-2.175	-2.8979	-2.5187	-2.3792	-2.7375	-2.2875	-2.4667	-2.7854	-2.3417	-2.7042	-2.6021	-2.2479	262.225	111.007	169.484	394.618	293.722	81.494	401.763	255.596	363.522	88.914	126.441	413.323	403.625	343.587	215.754	391.107	0.00034003	0.00010869	9.5461e-05	1074	2.8328e-06	2.0402e-06	1177.1	230.44	2.9165e-06	1.7614e-06	290.25	81.157	63.678	18.882	6.8272e-06	26.181	0.00019705	0.00018629	5.905e-05	1016.3	2.1019e-06	2.0024e-06	1108.6	220.46	2.023e-06	1.9688e-06	270.07	77.07	60.404	18.28	2.2346e-06	25.259	332.661	192.793	112.432	81.375	190.877	212.093	81.149	88.853	109.914	250.673	88.330	95.479	95.881	103.044	221.675	101.743	-8191	255	
6979.785	1	1	0	0	0.2784	0.15641	0.11871	0.2022	0.22358	0.31082	0.030398	0.077953	0.19014	0.14979	0.035935	0.28441	0.16676	0.22028	0.23105	0.23981	-2.4229	-2.0146	-2.5646	-2.7542	-2.0729	-2.7583	-2.7083	-2.2646	-2.9229	-2.3917	-2.5354	-2.85	-2.1896	-2.5979	-2.5687	-2.0167	129.483	337.916	331.344	187.837	234.014	267.487	267.881	309.519	163.979	160.174	158.393	81.996	82.958	424.524	386.335	316.823	0.00076735	0.00061122	5.7094e-05	1071.6	2.1039e-06	9.7405e-07	1164.9	228.94	2.1773e-06	4.1576e-06	285.77	81.412	63.5	18.721	4.5864e-06	25.986	0.00017601	0.0001788	5.5924e-05	1006.1	1.8755e-06	1.9319e-06	1099.5	217.31	1.8138e-06	1.9202e-06	266	76.157	59.506	18.177	2.0296e-06	24.737	346.888	153.661	156.839	81.033	259.799	431.038	81.092	89.058	278.338	182.540	88.597	95.355	95.717	102.879	217.554	102.290	-8191	255	
6979.883	1	1	0	0	0.29166	0.19796	0.12852	0.12758	0.26306	0.16767	0.40028	0.23722	0.25892	0.18435	0.10536	0.30304	0.021022	0.29694	0.17805	0.28831	-2.5333	-2.175	-2.4708	-2.7687	-2.1542	-2.6146	-2.8167	-2.2625	-2.925	-2.5104	-2.4167	-3.05	-2.4146	-2.5521	-2.6063	-2.0271	191.952	289.361	311.966	89.975	186.115	100.651	366.499	394.836	169.847	161.284	138.111	363.067	260.619	359.229	86.639	402.187	0.00061118	0.00017457	3.9545e-05	1068.5	5.0169e-07	2.1664e-06	1159.3	226.83	5.549e-06	4.5662e-06	286.27	80.934	63.164	18.495	3.5972e-06	25.808	0.0001541	0.00017004	4.9145e-05	994.39	1.6448e-06	1.8358e-06	1089.5	213.65	1.5878e-06	1.8337e-06	261.43	74.816	58.658	17.925	1.7556e-06	24.377	341.389	130.974	385.769	81.514	386.090	157.713	81.326	88.895	202.271	168.792	88.136	95.719	95.556	102.690	366.541	102.270	-8191	255	
6980.002	1	1	0	0	0.17457	0.244	0.26952	0.14607	0.098677	0.2892	0.20433	0.36812	0.20303	0.16145	0.099191	0.03473	0.034273	0.22194	0.30039	0.25138	-2.2167	-2.2854	-2.2812	-2.8021	-2.25	-2.4104	-2.9375	-2.2958	-2.6333	-2.4021	-2.35	-2.8604	-2.3438	-2.4708	-2.6729	-2.1146	219.480	375.658	288.195	376.907	124.984	352.678	411.819	258.944	169.065	311.850	359.563	336.834	154.136	243.996	314.042	338.011	0.00077567	0.00021461	1.3108e-05	1058.3	8.8277e-07	2.6797e-06	1150.5	224.96	8.4071e-06	3.9417e-06	282.93	79.786	62.711	18.5	6.0289e-06	25.8	0.00014371	0.0001673	4.404e-05	985.24	1.614e-06	1.8549e-06	1079.8	212.2	1.622e-06	1.8471e-06	258.74	74.292	58.736	17.938	1.6605e-06	24.2	363.820	377.487	348.339	81.029	302.844	166.486	81.389	88.765	201.247	408.175	88.544	95.359	96.132	103.008	160.243	102.152	-8191	255	
6980.098	1	1	0	0	0.23697	0.18067	0.16724	0.18023	0.043941	0.054075	0.16587	0.12777	0.3485	0.022798	0.11204	0.23476	0.13412	0.11887	0.09991	0.13032	-2.1396	-2.55	-1.9792	-2.975	-2.3042	-2.5333	-2.8333	-2.0042	-2.5708	-2.6792	-2.1625	-2.7208	-2.3521	-2.3812	-2.8063	-2.2333	103.845	138.353	277.065	341.853	77.429	278.731	382.509	298.188	305.047	245.659	227.474	94.687	103.854	123.142	241.575	349.666	0.00057169	0.00036486	7.6576e-05	1053.7	2.8551e-06	3.6584e-06	1157.5	225.65	3.0176e-06	1.5391e-06	282.58	80.217	62.626	18.503	5.6025e-07	25.704	0.0001518	0.00016392	4.1176e-05	980.54	1.6749e-06	1.7515e-06	1076.9	211.22	1.6759e-06	1.7604e-06	257.88	73.889	58.93	17.827	1.5892e-06	24.178	342.171	152.737	110.068	81.240	241.192	331.216	81.208	89.156	149.856	368.535	88.700	95.578	95.696	102.680	120.260	101.702	-8191	255	
6980.194	1	1	0	0	0.060785	0.22114	0.10462	0.092079	0.18217	0.055385	0.38617	0.12961	0.1329	0.18058	0.046744	0.12376	0.11115	0.17208	0.23616	0.14579	-1.9458	-2.6729	-2.0083	-2.8542	-2.475	-2.25	-2.9396	-1.9958	-2.4833	-2.7021	-2.2	-2.9375	-2.5229	-2.35	-2.9146	-2.3646	324.832	171.875	281.629	325.176	205.086	117.934	397.828	428.629	101.301	393.286	323.100	371.115	333.680	94.136	306.330	293.355	0.0006262	0.00050997	3.4927e-05	1055	1.8272e-06	2.5297e-06	1151.5	224.21	7.9997e-06	4.0658e-06	284.35	80.546	62.745	18.45	4.7699e-06	26.103	0.0001599	0.00015706	4.0507e-05	981.69	1.7932e-06	1.7283e-06	1077	211.49	1.8326e-06	1.7382e-06	258.16	74.518	59.421	17.848	1.6291e-06	24.452	365.756	306.072	411.291	81.371	270.190	212.490	81.358	89.099	246.344	406.723	88.765	95.543	96.116	102.955	132.604	101.912	-8191	255	
6980.315	1	1	0	0	0.25669	0.11821	0.16412	0.12221	0.14204	0.21972	0.21907	0.25204	0.25121	0.1296	0.18261	0.09708	0.032613	0.061901	0.17222	0.18929	-2.075	-2.7458	-2.1875	-2.7729	-2.4083	-2.1833	-3.1896	-2.5187	-2.4229	-2.9208	-2.2687	-2.5958	-2.7958	-2.2917	-2.8438	-2.3125	247.800	309.618	199.958	337.734	191.658	357.161	311.328	71.488	157.972	221.059	378.865	316.202	189.069	94.362	280.669	289.241	0.00062109	0.0003637	5.115e-05	1060.6	4.9668e-06	3.0075e-06	1152.3	225.28	6.1971e-06	4.3143e-06	285.86	80.019	62.935	18.58	3.6782e-06	25.804	0.00017322	0.00015601	4.1664e-05	986.54	1.8846e-06	1.7173e-06	1077.8	212.92	1.8539e-06	1.6943e-06	258.87	74.929	59.53	17.857	1.5835e-06	24.598	353.794	193.876	180.224	81.205	253.717	260.931	81.262	89.128	232.227	251.128	88.598	95.371	95.647	102.831	204.392	102.312	-8191	255	
6980.386	1	1	0	0	0.18178	0.17108	0.1417	0.24998	0.24154	0.32892	0.40875	0.10862	0.24075	0.35697	0.1698	0.26128	0.12063	0.11408	0.18323	0.074074	-1.8167	-2.7833	-2.1312	-2.6667	-2.6333	-2.0125	-2.95	-2.2062	-2.4667	-2.9708	-2.225	-2.4646	-2.6083	-2.2375	-2.8563	-2.6063	261.114	307.964	192.457	421.629	283.202	299.441	345.340	424.929	255.683	153.867	382.198	149.892	363.868	386.479	320.821	396.427	0.00048797	0.00033805	8.1577e-05	1063.5	2.0647e-06	2.0326e-06	1157.1	226.23	3.4949e-06	6.3383e-07	285.28	80.181	62.869	18.604	3.9448e-06	25.832	0.00017074	0.00015382	4.0095e-05	991.44	1.8349e-06	1.6697e-06	1080.4	214.07	1.8361e-06	1.6673e-06	258.7	75.405	59.361	17.851	1.6224e-06	24.827	357.736	148.066	110.719	81.335	132.447	123.744	81.074	88.907	148.799	161.556	88.413	95.871	95.858	102.867	253.982	102.294	-8191	255	
6980.483	1	1	0	0	0.10055	0.31988	0.27186	0.34526	0.0069867	0.095141	0.34872	0.24468	0.10797	0.29702	0.11399	0.40311	0.061817	0.076558	0.16287	0.27396	-1.5771	-2.8208	-2.1958	-2.6771	-2.8021	-2.2792	-2.9313	-2.5875	-2.1375	-2.8458	-2.375	-2.4979	-2.8604	-2.075	-2.6354	-2.6146	220.090	109.066	194.651	387.251	295.131	366.579	361.485	346.745	128.483	312.551	148.326	315.755	94.063	235.968	368.818	420.954	0.00049467	0.00016463	8.6927e-05	1064.8	5.9561e-06	2.7948e-06	1158.4	226.02	1.8839e-06	1.364e-06	285.76	80.661	62.884	18.675	6.4901e-06	25.917	0.00016578	0.00015235	4.2794e-05	994.57	1.7993e-06	1.6813e-06	1082	215.12	1.7985e-06	1.6658e-06	260.89	75.864	59.36	17.88	1.759e-06	24.869	356.230	376.642	136.283	81.246	210.185	298.539	81.114	88.937	157.571	316.920	88.409	95.550	95.945	103.122	165.624	101.994	-8191	255	
6980.603	1	1	0	0	0.062514	0.05311	0.19459	0.15572	0.052763	0.21454	0.33842	0.12474	0.10875	0.19721	0.28266	0.11664	0.20323	0.19579	0.13951	0.36347	-1.7479	-2.8146	-2.3812	-2.3271	-2.9125	-2.1437	-2.9375	-2.675	-2.1375	-2.8646	-2.4375	-2.3792	-2.7646	-2.1813	-2.3875	-2.6792	273.239	237.846	315.661	402.638	175.798	114.090	371.188	326.284	256.875	112.547	184.513	361.035	425.477	335.191	149.592	109.819	0.000647	0.00033377	0.00011899	1061.2	2.2878e-06	2.8687e-06	1159.9	226.52	3.6859e-06	2.3346e-06	287.94	80.018	63.167	18.578	1.9423e-06	26.147	0.00015917	0.00014662	4.4888e-05	993.62	1.6834e-06	1.5895e-06	1084.1	214.11	1.64e-06	1.5512e-06	261.41	75.26	58.936	17.723	1.7639e-06	24.667	345.504	136.371	177.431	81.344	250.003	166.480	81.258	88.932	132.315	257.831	88.806	95.388	96.046	102.902	168.100	102.128	-8191	255	
6980.698	1	1	0	0	0.25012	0.34524	0.18787	0.061351	0.17158	0.020521	0.23949	0.23848	0.22633	0.039548	0.11229	0.1254	0.19593	0.12827	0.18645	0.065707	-1.7687	-2.6604	-2.4354	-2.2167	-2.7646	-2.0042	-2.8542	-2.7292	-2.1312	-2.7521	-2.5583	-2.4708	-2.8396	-2.1792	-2.4	-2.7604	121.539	247.028	355.660	361.190	121.174	127.405	388.099	82.865	360.504	369.319	72.874	286.883	83.131	100.155	119.733	316.968	0.00048624	0.0001918	7.4631e-05	1059.9	3.3956e-06	1.9797e-06	1157.5	226.03	3.4421e-06	2.8833e-06	286.97	80.989	62.756	18.641	3.8731e-06	25.812	0.00014707	0.00013902	4.5229e-05	986.67	1.5739e-06	1.545e-06	1082.9	213.13	1.5654e-06	1.5618e-06	261.5	75.014	58.646	17.771	1.7916e-06	24.454	373.043	102.812	126.075	81.122	205.606	190.409	81.346	89.057	152.882	149.026	88.718	95.607	96.095	102.616	168.064	102.441	-8191	255	
6980.794	1	1	0	0	0.14496	0.17061	0.25268	0.29215	0.18687	0.1986	0.038026	0.20246	0.11273	0.21574	0.020971	0.16565	0.21204	0.14894	0.045521	0.25803	-1.7708	-2.7	-2.4562	-2.4833	-2.8229	-2.425	-2.7188	-2.9437	-2.2167	-2.7958	-2.5542	-2.0979	-2.8229	-2.1458	-2.2625	-2.7646	144.820	156.227	374.798	320.222	202.050	398.537	101.533	253.582	202.853	378.291	299.901	412.284	288.459	80.988	317.181	368.914	0.00066785	0.00021553	8.8295e-05	1056.6	8.0639e-07	3.2483e-06	1153.6	224.84	4.3794e-06	2.7901e-06	286.72	80.958	62.906	18.411	7.5177e-07	25.943	0.00014309	0.00014486	4.5854e-05	983.6	1.5166e-06	1.6215e-06	1080.5	212.46	1.4974e-06	1.6397e-06	260.61	74.83	58.558	17.8	1.7161e-06	24.301	355.846	158.492	243.148	81.217	198.596	164.633	81.234	88.850	211.006	152.936	88.588	95.453	95.968	103.112	168.644	102.207	-8191	255	
6980.914	1	1	0	0	0.33785	0.18831	0.065674	0.14886	0.28931	0.15502	0.11764	0.21153	0.22457	0.15322	0.28072	0.086081	0.35592	0.12395	0.22421	0.30552	-1.5167	-2.55	-2.3875	-2.1958	-2.7229	-2.3	-2.4646	-2.8479	-2.1312	-2.6937	-2.5833	-2.1458	-2.8063	-2.3708	-2.3917	-2.8417	358.582	367.511	287.327	332.004	117.767	144.379	409.392	365.546	346.823	229.716	165.069	392.098	398.021	289.865	210.807	263.892	0.00078334	0.00053037	4.2795e-05	1060.7	1.8452e-06	6.1909e-06	1152.7	226.17	7.0822e-07	3.8411e-06	284.38	80.574	63.392	18.48	7.0438e-07	25.936	0.00013615	0.00015274	4.3231e-05	983.43	1.4378e-06	1.6888e-06	1077.6	211.97	1.4634e-06	1.6829e-06	258.49	74.307	58.498	17.874	1.5979e-06	24.197	356.020	136.604	259.499	80.870	274.451	202.265	81.240	88.938	95.853	257.424	88.671	95.836	95.421	102.820	291.705	101.492	-8191	255	
6981.011	1	1	0	0	0.32507	0.22234	0.26763	0.23953	0.16722	0.31883	0.1391	0.10357	0.17343	0.20579	0.10786	0.21997	0.32162	0.28516	0.15757	0.15553	-1.7958	-2.4354	-2.4646	-2.1542	-2.6646	-2.4604	-2.2229	-3.1271	-2.1042	-2.4458	-2.8563	-2.0438	-2.6896	-2.7896	-2.2	-2.7125	380.057	143.610	385.798	383.446	124.312	118.977	331.795	111.217	322.555	289.713	311.315	299.899	363.908	282.542	299.239	415.375	0.00068356	4.5346e-05	1.5448e-05	1057	3.1549e-06	5.4601e-06	1148.5	225.91	3.6027e-06	2.2937e-06	285.35	80.119	62.953	18.663	2.5004e-06	25.881	0.0001361	0.00015417	3.9919e-05	979.17	1.4708e-06	1.6879e-06	1072.7	211.26	1.5163e-06	1.6762e-06	258.13	73.902	58.667	17.948	1.5238e-06	24.199	353.513	187.385	110.342	81.332	225.839	211.082	81.261	88.815	179.326	237.298	88.383	95.444	95.965	102.978	130.830	102.269	-8191	255	
6981.082	1	1	0	0	0.21963	0.24944	0.022893	0.2246	0.31491	0.16797	0.13725	0.20453	0.20407	0.17618	0.11924	0.09906	0.17729	0.1425	0.17547	0.018694	-2.05	-2.6208	-2.6521	-2.0938	-2.7521	-2.6729	-2.2771	-2.95	-2.3438	-2.5187	-2.7167	-2.2188	-2.4583	-2.7229	-2.0333	-2.9854	267.396	292.392	299.103	430.216	224.975	173.392	253.611	402.164	427.400	301.119	369.315	197.615	82.935	411.982	427.647	351.372	0.00083887	0.00025362	4.0052e-05	1059.4	2.9372e-06	8.1238e-07	1152	225.72	9.5462e-06	1.372e-06	286.54	80.403	62.919	18.519	2.9751e-06	26.059	0.00014538	0.00015134	3.9135e-05	980.01	1.6098e-06	1.6704e-06	1075.5	211.64	1.6552e-06	1.6574e-06	257.81	74.4	59.088	17.852	1.5172e-06	24.194	361.490	244.045	427.292	81.373	203.912	144.945	81.328	89.026	248.752	339.226	88.644	95.452	95.606	102.952	108.785	102.046	-8191	255	
6981.178	1	1	0	0	0.065302	0.10305	0.168	0.19982	0.11644	0.19894	0.21056	0.11289	0.11241	0.14981	0.10185	0.19713	0.17266	0.36167	0.33672	0.18102	-2.0896	-2.025	-2.8438	-2.3312	-2.4979	-2.8271	-2.3271	-2.6729	-2.6833	-2.1292	-3.0125	-2.3792	-2.5563	-2.85	-2.0729	-2.6896	153.570	75.575	196.242	366.692	150.243	413.618	429.629	339.176	78.847	246.423	78.236	191.061	103.356	355.967	83.526	130.573	0.00067143	0.0001926	5.7851e-05	1062.2	5.4636e-06	1.0858e-06	1155.4	226.84	4.0265e-06	3.7227e-06	286.63	80.947	62.73	18.643	4.0609e-06	26.177	0.00015534	0.0001482	3.7827e-05	982.31	1.6905e-06	1.591e-06	1075.3	212.11	1.7298e-06	1.5917e-06	257.99	74.604	59.134	17.796	1.4884e-06	24.367	362.576	384.881	176.043	81.103	209.792	376.967	81.129	89.026	195.805	353.416	88.885	95.667	95.995	102.662	148.565	101.700	-8191	255	
6981.274	1	1	0	0	0.1942	0.099564	0.33413	0.3606	0.17842	0.085704	0.089256	0.13243	0.12009	0.17718	0.1165	0.22792	0.33904	0.13255	0.26338	0.077301	-1.975	-2.1875	-2.9521	-2.2396	-2.5083	-2.825	-2.3312	-2.6771	-2.525	-2.0563	-2.8438	-2.2479	-2.575	-2.9813	-2.2792	-2.5938	265.584	228.624	385.343	357.758	361.626	128.213	394.153	293.823	84.804	265.821	298.954	410.760	142.653	259.921	86.062	427.498	0.00048743	0.00029921	5.6836e-05	1062	1.0687e-06	7.72e-07	1157.8	226.99	1.914e-06	1.0897e-06	286.02	80.331	63.128	18.549	2.0946e-06	25.933	0.00016125	0.00014358	3.7308e-05	985.27	1.7206e-06	1.5678e-06	1075.9	213.19	1.7022e-06	1.5229e-06	257.63	75.026	59.345	17.774	1.4856e-06	24.647	360.241	372.456	98.484	81.358	75.556	192.312	81.096	89.244	420.787	374.837	88.770	95.429	95.628	102.810	179.728	102.476	-8191	255	
6981.395	1	1	0	0	0.089028	0.21893	0.17522	0.20167	0.041674	0.21295	0.17706	0.23746	0.06227	0.18758	0.072104	0.23436	0.050795	0.10825	0.25759	0.067083	-2.0563	-2.2812	-2.7521	-2.5146	-2.4104	-2.7875	-2.3604	-2.5333	-2.7542	-1.9146	-2.7854	-2.5625	-2.3042	-2.9958	-2.0146	-2.6417	348.289	388.642	155.669	390.456	116.610	417.582	76.140	378.285	120.812	214.222	362.613	141.343	406.475	338.837	298.261	347.787	0.0005611	0.00024126	5.6888e-05	1063.9	2.057e-06	7.3929e-07	1160.9	227.5	4.1948e-06	1.2972e-07	288.2	80.529	63.01	18.587	4.1514e-06	26.239	0.00015763	0.00014357	3.7784e-05	990.41	1.705e-06	1.5709e-06	1079.4	214.69	1.6875e-06	1.5575e-06	259.27	75.478	59.321	17.807	1.5832e-06	24.8	371.920	418.902	91.563	81.241	311.197	265.232	81.347	88.829	165.379	164.068	88.382	95.764	95.785	102.436	201.308	102.711	-8191	255	
6981.491	1	1	0	0	0.27019	0.25006	0.13724	0.080758	0.2605	0.030929	0.26101	0.20867	0.075406	0.22063	0.15366	0.025368	0.16942	0.11785	0.18929	0.14546	-2.1479	-2.1458	-2.5208	-2.8104	-2.35	-3.0292	-2.4021	-2.5604	-2.8354	-2.0083	-2.7875	-2.4104	-2.2208	-2.8667	-2.4292	-2.3729	97.901	257.741	403.228	84.051	178.288	135.939	326.078	290.000	200.791	195.956	306.292	231.337	390.291	181.735	284.654	363.421	0.00066739	6.05e-05	9.5519e-05	1060.1	2.3652e-06	2.4438e-06	1159.6	227.11	5.4298e-06	1.0042e-06	287.78	80.255	63.508	18.705	4.2646e-06	25.974	0.00015626	0.00014356	4.0732e-05	994.01	1.7137e-06	1.5825e-06	1083.8	215.24	1.698e-06	1.5957e-06	261.31	75.739	59.309	17.877	1.7559e-06	24.828	379.546	389.857	107.729	81.177	347.906	209.323	81.233	88.845	230.961	144.103	88.553	95.483	95.927	102.692	177.933	101.433	-8191	255	
6981.587	1	1	0	0	0.068587	0.011492	0.034644	0.2882	0.052759	0.19645	0.21067	0.13518	0.16485	0.12237	0.39835	0.22702	0.38282	0.13706	0.06508	0.11391	-2.3875	-2.0375	-2.4958	-2.6854	-2.1375	-2.7292	-2.5167	-2.3125	-2.8125	-2.0458	-2.6958	-2.5312	-2.2	-2.7812	-2.325	-2.3646	202.522	288.183	182.671	73.694	370.901	342.419	415.418	111.689	200.767	404.052	424.582	179.983	304.687	287.028	93.338	320.995	0.00058963	0.00033577	5.5544e-05	1062.7	1.5824e-06	3.7246e-06	1159.8	227.85	2.0075e-06	4.34e-06	287.02	81.001	63.001	18.589	8.0892e-06	25.902	0.00015621	0.00014556	4.5476e-05	994.91	1.7022e-06	1.6131e-06	1088.1	215.65	1.7143e-06	1.6253e-06	263.5	75.935	59.551	17.883	1.9352e-06	24.825	363.895	240.089	373.180	80.897	183.750	160.248	81.213	88.707	205.155	119.685	88.414	95.204	95.805	102.715	176.364	102.001	-8191	255	
6981.684	1	1	0	0	0.13664	0.095931	0.17686	0.11092	0.28988	0.0902	0.39687	0.078326	0.062862	0.16926	0.21685	0.19527	0.16321	0.2311	0.057055	0.22954	-2.2396	-2.2167	-2.3896	-2.7062	-2.0396	-2.7792	-2.4625	-2.4167	-2.9688	-2.1417	-2.4375	-2.7771	-2.0667	-2.7333	-2.4854	-2.1042	121.854	199.428	388.893	195.291	403.433	250.589	401.299	238.002	107.268	179.721	191.934	192.482	353.759	233.038	152.986	376.872	0.00049877	0.00048774	9.3845e-05	1065.4	2.8392e-06	1.6499e-06	1163.2	227.81	2.7965e-06	5.2538e-06	287.89	81.136	63.582	18.578	2.5287e-06	26.159	0.00015569	0.00015253	4.9114e-05	995.08	1.6833e-06	1.6755e-06	1092.3	215.77	1.6933e-06	1.756e-06	264.55	75.728	59.521	18.089	2.0129e-06	24.914	368.186	76.603	91.208	81.451	304.724	164.750	81.364	89.086	314.063	176.807	88.733	95.464	95.505	102.689	135.809	102.147	-8191	255	
6981.778	1	1	0	0	0.088144	0.14788	0.086591	0.2976	0.19007	0.19074	0.25388	0.083892	0.20119	0.087464	0.18871	0.11887	0.32739	0.031443	0.17375	0.32297	-2.2875	-2.2625	-2.25	-3.0104	-2.0958	-2.575	-2.8896	-2.05	-2.9625	-2.3354	-2.3396	-2.6854	-2.15	-2.5042	-2.6896	-2.0875	276.623	110.124	305.348	151.959	155.009	337.482	406.828	343.207	188.461	221.850	117.366	209.328	401.938	130.662	194.211	74.805	0.00064576	7.1749e-05	7.7526e-05	1072.2	7.2412e-06	8.4877e-07	1167.5	228.49	6.1133e-06	4.0239e-06	288.27	81.161	63.302	18.685	3.4839e-06	26.09	0.00015776	0.00016727	5.1181e-05	998.69	1.715e-06	1.8683e-06	1094.3	215.73	1.6791e-06	1.9094e-06	264.7	75.838	59.567	18.273	1.9656e-06	24.803	356.629	320.753	277.537	81.123	205.645	346.507	80.928	88.799	212.921	246.226	88.562	95.242	96.065	102.718	261.376	101.643	-8191	255	
6981.876	1	1	0	0	0.046547	0.14557	0.081557	0.13172	0.17586	0.18644	0.35178	0.36144	0.14772	0.11576	0.30274	0.17313	0.24961	0.31693	0.12639	0.13118	-2.2938	-2.4062	-2.4292	-2.9083	-2.0917	-2.5771	-3.0187	-1.925	-2.8583	-2.3021	-2.4021	-2.7417	-2.1042	-2.3417	-2.5938	-2.0125	183.647	227.579	340.714	137.624	216.161	283.542	383.046	289.341	196.394	405.473	373.307	246.685	77.950	429.391	102.965	90.665	0.00051708	0.00022748	4.6646e-05	1068.2	4.5307e-06	4.6282e-06	1165.2	228.91	6.1476e-06	2.8125e-06	287.73	81.434	63.295	18.511	7.9491e-07	26.412	0.00015821	0.00018052	4.9543e-05	996.53	1.7225e-06	1.9734e-06	1093.2	215.97	1.7239e-06	2.0327e-06	264.37	75.57	59.696	18.33	1.8701e-06	24.833	355.533	407.448	202.010	81.165	234.546	149.131	81.364	88.723	77.434	255.546	88.414	95.493	95.919	102.875	204.639	102.301	-8191	255	
6981.995	1	1	0	0	0.10832	0.13332	0.10813	0.1416	0.1007	0.27426	0.19516	0.35284	0.11395	0.024732	0.34867	0.37888	0.33244	0.17585	0.19604	0.17312	-2.2479	-2.3646	-2.2313	-2.7646	-2.0833	-2.5292	-2.9542	-2.2271	-2.5083	-2.675	-2.1021	-2.8083	-2.3583	-2.5146	-2.9208	-2.1979	255.495	86.815	255.986	340.983	369.027	262.845	297.234	403.991	277.725	147.510	324.520	398.196	120.258	213.799	153.760	284.704	0.00076524	0.00055892	1.5827e-05	1065.9	2.7515e-06	3.0123e-06	1166.2	227.76	7.2683e-06	1.0196e-06	287.28	80.252	63.507	18.748	2.4066e-06	26.02	0.00016303	0.00018537	4.7024e-05	995.23	1.8382e-06	2.031e-06	1092.1	215.72	1.8698e-06	2.0368e-06	263.67	75.44	60.277	18.423	1.8319e-06	24.647	349.780	127.680	250.499	81.402	189.018	307.009	81.074	89.236	154.480	157.163	88.670	95.544	95.648	102.831	317.348	102.054	-8191	255	
6982.091	1	1	0	0	0.07509	0.062386	0.10651	0.24849	0.14983	0.13073	0.28272	0.30779	0.38676	0.22847	0.2355	0.041324	0.14091	0.20395	0.11932	0.056174	-1.9625	-2.725	-1.9104	-2.8729	-2.1917	-2.4729	-2.9062	-2.1583	-2.3625	-2.5417	-2.0583	-2.775	-2.3104	-2.3146	-2.7729	-2.1083	406.322	248.366	218.519	414.024	130.227	242.270	385.917	351.200	316.231	299.195	367.767	290.642	125.207	227.200	80.735	289.965	0.00096204	0.00012258	3.1034e-05	1067.6	7.5737e-07	1.7875e-06	1162.1	228.13	8.5462e-06	1.1166e-06	289.09	81.1	63.057	18.822	2.8509e-06	26.205	0.00017513	0.00017827	4.493e-05	993.87	1.9212e-06	1.9364e-06	1090.1	215.44	1.9376e-06	1.9148e-06	262.63	75.537	60.239	18.291	1.7371e-06	24.723	360.404	186.960	323.507	81.403	239.160	280.584	81.379	89.047	146.723	386.029	88.452	95.753	95.629	102.936	403.099	102.025	-8191	255	
6982.187	1	1	0	0	0.048897	0.22644	0.083388	0.34787	0.30478	0.34068	0.094734	0.12403	0.13262	0.15379	0.21864	0.032149	0.23815	0.030123	0.34852	0.14481	-2.1542	-2.6729	-2.0875	-2.7396	-2.5125	-2.125	-3.0646	-2.1292	-2.4542	-2.6333	-2.3917	-2.8063	-2.5833	-2.1417	-2.7792	-2.275	232.312	91.441	301.144	427.223	84.504	278.949	355.459	145.435	97.755	139.935	352.532	161.647	429.650	134.129	378.326	412.108	0.000835	0.00036749	4.3418e-05	1065.3	2.0843e-06	1.4417e-06	1163.7	227.25	9.7346e-06	1.8463e-06	287.51	81.109	63.426	18.56	2.4952e-06	26.012	0.00018058	0.00016903	4.3175e-05	993.83	1.9562e-06	1.8029e-06	1086.1	214.69	1.9189e-06	1.7808e-06	261.59	75.6	60.315	18.142	1.6775e-06	24.811	346.305	296.444	164.977	81.282	187.694	330.064	81.337	89.120	187.133	355.187	88.503	94.766	95.887	102.605	211.315	101.903	-8191	255	
6982.283	1	1	0	0	0.059618	0.17713	0.29145	0.18869	0.16443	0.19334	0.092818	0.39784	0.097204	0.064273	0.18744	0.082985	0.12019	0.20926	0.1076	0.32295	-2.1354	-2.5167	-2.1	-2.625	-2.6229	-2.2646	-2.925	-2.4479	-2.4229	-2.7938	-2.2771	-2.5833	-2.8438	-2.0792	-2.9062	-2.3833	102.571	209.151	117.295	393.209	127.913	224.721	171.702	376.051	201.954	124.658	224.229	414.786	80.266	241.494	230.777	87.942	0.00061013	0.00028216	4.305e-05	1067.4	3.3256e-06	8.8928e-07	1161.9	227.98	3.7188e-06	1.8468e-06	289.2	81.153	63.566	18.775	2.8208e-06	26	0.00018144	0.00016404	4.2735e-05	998.01	1.9719e-06	1.8006e-06	1087	216.03	1.9621e-06	1.796e-06	262.17	76.293	60.345	18.144	1.6807e-06	24.957	369.136	378.504	263.794	81.316	213.245	174.130	81.049	89.003	296.110	95.773	88.381	95.587	95.689	102.452	137.098	101.811	-8191	255	
6982.379	1	1	0	0	0.22243	0.15805	0.04177	0.10794	0.17376	0.14229	0.11805	0.049411	0.11811	0.034534	0.13225	0.30754	0.13299	0.058454	0.17538	0.17087	-1.9667	-2.7812	-2.2562	-2.7062	-2.6771	-2.1604	-2.8125	-2.6229	-2.2292	-2.9667	-2.2375	-2.4875	-2.8125	-2.0125	-2.5708	-2.3667	103.092	400.205	277.714	296.296	144.003	245.997	324.761	343.647	386.854	159.320	116.624	133.495	248.388	336.934	256.421	105.248	0.00068445	0.00017908	6.6254e-05	1071.9	5.1089e-06	2.8499e-06	1160.5	228.36	1.6145e-06	2.27e-06	287.09	80.553	63.179	18.626	4.3138e-06	26.057	0.00016994	0.00015335	4.1228e-05	997.79	1.7851e-06	1.6415e-06	1083.2	215.95	1.7466e-06	1.6254e-06	260.39	75.77	59.742	17.954	1.642e-06	24.972	363.619	169.031	145.577	81.104	282.294	189.007	81.033	88.668	375.774	261.222	88.647	95.284	95.744	102.983	179.986	101.916	-8191	255	
6982.475	1	1	0	0	0.2819	0.092815	0.29773	0.12778	0.063666	0.1528	0.17516	0.16696	0.18489	0.15744	0.04574	0.2812	0.25056	0.1332	0.10318	0.089025	-1.8062	-2.6146	-2.0687	-2.5812	-2.7167	-2.0062	-2.5938	-2.5375	-2.2562	-2.9021	-2.35	-2.4542	-2.7687	-2.3125	-2.5563	-2.4875	177.142	273.622	180.337	373.443	186.770	260.867	353.720	241.268	326.307	268.067	332.404	94.237	105.150	179.952	289.709	86.551	0.00081399	0.00028028	0.00012534	1070.3	1.3158e-06	1.5108e-06	1160.5	227.1	2.8692e-06	2.6181e-06	287.4	80.875	63.694	18.774	2.453e-06	26.042	0.00015798	0.00014555	4.3057e-05	999.11	1.6841e-06	1.5902e-06	1087.2	215.56	1.6754e-06	1.5662e-06	261.93	75.959	59.493	17.932	1.7536e-06	24.855	368.934	145.704	156.827	81.435	404.975	74.337	81.329	88.872	155.820	158.004	88.573	95.581	95.534	102.757	80.835	102.303	-8191	255	
6982.572	1	1	0	0	0.097536	0.067571	0.14738	0.1692	0.16278	0.2383	0.16325	0.39374	0.19633	0.10807	0.25141	0.098131	0.13659	0.25428	0.070153	0.15783	-1.6583	-2.8083	-2.2833	-2.1396	-2.7875	-2.2771	-2.5167	-2.7375	-1.9438	-2.8354	-2.275	-2.4583	-2.725	-2.2833	-2.5208	-2.775	259.832	137.189	389.230	396.144	286.246	331.282	132.123	354.424	356.013	372.717	313.697	188.489	124.535	189.384	156.000	308.047	0.00059776	0.00027927	0.00012398	1067	8.1046e-07	2.4564e-06	1162	227.88	2.524e-06	3.4437e-06	289.6	80.637	63.125	18.693	5.7842e-06	25.88	0.00015127	0.00013993	4.5388e-05	995.92	1.6165e-06	1.5516e-06	1086.2	215.27	1.6168e-06	1.5492e-06	263.32	75.473	59.075	17.904	1.8464e-06	24.675	366.767	198.399	126.951	81.345	321.858	126.090	81.180	88.975	349.743	127.010	88.555	95.069	95.558	103.010	126.569	101.828	-8191	255	
6982.691	1	1	0	0	0.035426	0.1538	0.14827	0.10892	0.1603	0.092761	0.39017	0.16801	0.080286	0.1669	0.21279	0.23015	0.15862	0.21064	0.13164	0.082576	-1.6437	-2.7062	-2.2958	-2.4354	-2.8729	-2.1167	-2.7646	-2.7458	-2.25	-2.6042	-2.7146	-2.125	-2.8958	-2.2375	-2.3312	-2.7604	225.059	342.374	270.326	239.419	260.439	88.066	335.636	85.612	219.988	231.166	362.960	324.601	331.922	335.934	379.313	141.291	0.00045766	0.00015953	0.00010468	1060.2	6.9218e-07	3.0923e-06	1156.6	226.2	4.085e-06	3.2402e-06	287	80.687	63.195	18.62	2.1174e-06	25.994	0.00015051	0.00014709	4.7781e-05	991.52	1.6175e-06	1.6776e-06	1088.4	214.74	1.6273e-06	1.6798e-06	263.06	75.398	59.111	17.992	1.8991e-06	24.68	362.698	208.871	398.787	81.240	326.803	146.320	80.980	89.161	238.990	183.808	88.484	95.701	95.701	102.688	198.841	101.727	-8191	255	
6982.787	1	1	0	0	0.13602	0.22969	0.069262	0.19014	0.068079	0.069132	0.28907	0.1954	0.11055	0.097746	0.15972	0.043065	0.29337	0.14891	0.29152	0.27702	-1.5875	-2.5667	-2.6	-2.3833	-2.7687	-2.175	-2.4854	-2.9354	-2.2354	-2.6875	-2.5146	-1.9646	-2.75	-2.4854	-2.2938	-2.8125	365.851	408.415	283.887	411.785	283.792	119.318	272.981	235.361	210.393	131.694	402.327	396.646	73.938	263.244	314.206	388.890	0.0005557	0.00057834	0.00012016	1065.2	7.959e-07	1.2604e-06	1159.7	227.6	3.7855e-06	2.2359e-06	288.03	81.196	63.166	18.551	5.4039e-06	25.804	0.00015254	0.00016378	4.9125e-05	994.39	1.6439e-06	1.8584e-06	1090.2	215.32	1.6638e-06	1.8608e-06	263.05	75.372	59.051	18.077	1.7958e-06	24.443	356.241	142.441	241.445	81.238	234.507	218.245	81.311	88.932	219.335	94.721	88.453	95.311	95.782	103.005	218.172	101.779	-8191	255	
6982.883	1	1	0	0	0.16856	0.23999	0.11985	0.16539	0.21893	0.12703	0.27623	0.2149	0.21412	0.0652	0.23088	0.16355	0.43284	0.12804	0.04541	0.25763	-1.7667	-2.5208	-2.7604	-1.9896	-2.8479	-2.3375	-2.3104	-2.8354	-2.125	-2.5792	-2.7875	-2.1521	-2.8083	-2.7292	-1.9958	-2.825	229.151	156.590	289.748	347.015	356.331	210.366	341.794	110.113	379.952	236.672	350.313	339.395	388.965	262.614	239.111	316.776	0.00065861	0.00060849	4.2221e-05	1065.3	4.9291e-06	1.1339e-06	1156.4	226.48	4.0845e-06	3.8435e-06	285.98	80.287	63.205	18.525	4.3584e-06	25.906	0.00014402	0.00016296	4.3432e-05	988.93	1.4981e-06	1.7683e-06	1081.7	212.95	1.5367e-06	1.7583e-06	259.76	74.3	58.778	17.98	1.6513e-06	24.3	351.579	93.690	208.803	81.281	197.677	210.440	81.141	88.779	233.015	281.962	88.852	95.759	95.561	103.070	70.927	102.061	-8191	255	
6982.956	1	1	0	0	0.33367	0.19742	0.13141	0.11349	0.15979	0.20418	0.20682	0.073992	0.0141	0.24977	0.1207	0.28726	0.11416	0.21721	0.1852	0.14942	-1.6896	-2.4583	-2.6667	-2.1813	-2.5812	-2.6667	-2.3833	-2.925	-2.3646	-2.4042	-2.8646	-2.1437	-2.7542	-2.6375	-2.1937	-2.55	418.374	376.626	254.129	288.030	271.213	176.594	385.985	359.664	410.633	134.152	290.378	380.728	131.614	299.486	352.262	153.496	0.00067293	0.00041271	8.9433e-05	1060.8	6.8175e-06	2.4019e-06	1156.4	227.01	4.8073e-06	1.5691e-06	286.35	80.136	63.574	18.354	3.1589e-06	25.967	0.00015246	0.00016576	4.2487e-05	985.9	1.671e-06	1.8363e-06	1079.6	212.84	1.7331e-06	1.8199e-06	259.49	74.538	59.367	17.967	1.634e-06	24.27	350.120	140.020	234.559	81.346	220.627	160.596	81.458	88.941	177.995	425.298	88.204	95.442	95.665	102.840	135.763	101.832	-8191	255	
6983.075	1	1	0	0	0.14433	0.058849	0.023018	0.29998	0.1393	0.175	0.25602	0.22793	0.075322	0.088064	0.14031	0.24514	0.12732	0.043665	0.082027	0.0795	-1.8625	-2.225	-2.5667	-2.3063	-2.7375	-2.7417	-2.4	-2.6729	-2.3271	-2.3729	-2.7833	-2.2833	-2.5	-2.7875	-2.0458	-2.6104	369.864	336.252	403.576	372.583	332.924	428.173	370.535	413.046	405.376	221.088	429.284	377.174	420.666	304.068	157.099	339.846	0.0006802	0.00046793	3.3562e-05	1061.4	3.0772e-06	1.3827e-06	1151.4	225.52	5.6693e-06	4.9347e-07	284.96	80.568	63.255	18.534	2.1079e-06	25.819	0.00016239	0.00016086	4.0684e-05	984.8	1.7681e-06	1.7304e-06	1078	212.33	1.7794e-06	1.7028e-06	258.59	74.445	59.281	17.901	1.5804e-06	24.28	355.535	184.057	168.771	81.045	210.145	419.189	81.395	89.043	244.142	388.505	88.718	96.254	95.715	102.800	172.933	102.000	-8191	255	
6983.171	1	1	0	0	0.10102	0.085996	0.32202	0.10167	0.039968	0.019399	0.11405	0.021697	0.18077	0.16625	0.31	0.22024	0.16065	0.24805	0.12271	0.12163	-2.0812	-2.3083	-2.7875	-2.2021	-2.6875	-2.6583	-2.25	-2.7729	-2.725	-1.9417	-2.8604	-2.3854	-2.4	-2.8083	-2.2146	-2.6396	332.150	71.645	247.840	396.120	103.267	229.347	400.159	299.955	192.460	259.831	144.145	391.971	137.116	369.371	101.091	332.020	0.00058359	0.00034296	4.5052e-05	1061.9	2.6533e-06	4.3355e-06	1152.6	227.07	4.7402e-06	1.8791e-06	287.81	80.381	62.503	18.33	1.0197e-06	25.956	0.00016834	0.00015472	3.961e-05	986.97	1.825e-06	1.6633e-06	1076.5	213.34	1.8063e-06	1.6276e-06	258.59	74.807	59.228	17.747	1.5172e-06	24.437	346.851	307.888	166.071	81.253	307.885	295.717	81.293	88.662	224.080	345.935	88.326	95.451	95.863	103.049	407.114	101.605	-8191	255	
6983.267	1	1	0	0	0.15651	0.28519	0.01625	0.14515	0.19329	0.076292	0.12792	0.18663	0.10765	0.13367	0.18006	0.14566	0.10353	0.16432	0.22075	0.18958	-2.1792	-2.0042	-2.8021	-2.4625	-2.4729	-2.9479	-2.1729	-2.5729	-2.7521	-2.1396	-3.0104	-2.4229	-2.4437	-2.8854	-2.1688	-2.7083	249.912	79.908	259.203	126.504	375.336	238.901	221.754	408.626	256.998	394.577	105.121	303.021	375.197	386.484	366.774	113.684	0.00064814	0.00034917	7.6066e-05	1057.7	4.2204e-06	3.5299e-06	1158.5	226.6	1.6742e-06	1.212e-06	288.18	80.632	62.58	18.626	3.019e-07	26.167	0.00016067	0.00014422	3.6959e-05	986.53	1.6936e-06	1.5174e-06	1076.4	213.05	1.6481e-06	1.4896e-06	257.3	74.799	58.638	17.61	1.4234e-06	24.43	378.077	112.266	187.442	81.291	269.310	175.434	81.234	89.040	425.439	102.792	88.589	95.428	95.546	103.031	138.681	101.892	-8191	255	
6983.364	1	1	0	0	0.27665	0.32819	0.17104	0.078233	0.083935	0.14395	0.41189	0.39058	0.069544	0.15148	0.18032	0.22444	0.15402	0.30908	0.38944	0.30574	-2.1771	-2.1875	-2.8646	-2.5396	-2.2667	-2.8083	-2.5333	-2.4125	-2.6479	-2.0542	-2.9146	-2.5792	-2.1729	-2.7313	-2.2458	-2.4604	330.594	396.805	331.779	73.046	186.380	92.364	361.520	301.386	112.516	143.032	89.220	396.604	419.743	83.324	280.160	417.799	0.00058636	3.749e-05	9.2216e-05	1055	1.0838e-06	4.7344e-08	1148.1	225.82	2.9534e-06	1.814e-06	287.7	80.085	62.676	18.405	3.5304e-06	25.775	0.00014311	0.00013109	3.5303e-05	983.04	1.5495e-06	1.4065e-06	1070.7	212.49	1.5244e-06	1.4281e-06	256.93	74.607	58.358	17.523	1.4896e-06	24.325	333.455	272.103	152.317	81.343	348.684	391.612	81.543	88.859	289.475	119.522	88.114	95.489	95.628	102.810	113.651	102.137	-8191	255	
6983.484	1	1	0	0	0.12508	0.18392	0.049166	0.12132	0.13201	0.071821	0.14551	0.059291	0.096077	0.25548	0.25737	0.14396	0.053738	0.32527	0.10975	0.14402	-2.5479	-2.1604	-2.3979	-2.8167	-2.0083	-2.8208	-2.7208	-2.45	-2.7438	-2.1562	-2.6375	-2.4667	-2.1167	-2.8063	-2.4458	-2.5229	181.790	249.403	394.901	244.630	192.108	161.599	375.363	93.570	211.801	72.868	333.978	398.227	302.943	260.851	77.190	188.368	0.00041613	0.00025435	8.4016e-05	1059.8	5.8392e-07	9.7106e-07	1150.3	224.45	2.404e-06	2.5934e-06	285.06	80.097	62.818	18.694	5.0015e-06	25.756	0.00013803	0.00012769	3.8224e-05	982.35	1.4972e-06	1.3859e-06	1074.7	212.5	1.4871e-06	1.407e-06	258.03	74.572	58.428	17.562	1.6292e-06	24.379	366.870	80.983	172.217	81.141	153.941	324.294	81.098	88.990	289.922	218.974	88.839	95.224	95.935	102.762	144.375	102.450	-8191	255	
6983.556	1	1	0	0	0.15901	0.11526	0.11337	0.19053	0.093897	0.2048	0.13548	0.13748	0.21686	0.19581	0.19145	0.14081	0.24946	0.17078	0.42301	0.050718	-2.2979	-2.1813	-2.4375	-2.6771	-1.8687	-2.7146	-2.6396	-2.1688	-2.9208	-2.1979	-2.6167	-2.7646	-2.0958	-2.6542	-2.7292	-2.2979	249.289	346.711	290.395	384.728	122.077	139.390	390.412	390.969	343.483	286.502	368.335	192.454	176.062	189.431	116.911	203.714	0.00046321	5.8506e-05	8.3626e-05	1051.2	2.522e-06	1.2234e-06	1145.3	224.8	5.2869e-07	1.2787e-06	284.98	79.344	61.946	18.495	4.727e-06	25.89	0.00013501	0.00012944	4.0873e-05	978.67	1.4604e-06	1.38e-06	1069.6	211.1	1.3988e-06	1.3901e-06	257.18	73.75	57.661	17.458	1.6868e-06	24.278	350.226	408.885	148.474	81.126	327.814	153.014	81.291	89.085	370.094	152.493	88.350	95.422	95.500	102.602	114.810	102.293	-8191	255	
6983.677	1	1	0	0	0.17078	0.096962	0.10498	0.18589	0.086381	0.15207	0.24755	0.093757	0.039301	0.1071	0.14199	0.17643	0.15886	0.052288	0.058225	0.15525	-2.5271	-2.1813	-2.3563	-2.8312	-1.9125	-2.8104	-2.5583	-2.2896	-2.8417	-2.3875	-2.5396	-2.95	-2.1417	-2.8083	-2.4104	-2.2542	196.315	411.004	328.037	375.912	335.164	216.432	335.393	357.411	319.249	294.205	372.618	111.945	295.785	418.251	86.042	386.879	0.00063987	0.00048753	8.9048e-05	1049.4	9.8588e-07	1.4383e-06	1144.5	223.69	4.0588e-06	3.2792e-06	285.58	80.375	62.717	18.462	3.2597e-06	25.87	0.00013609	0.00013896	4.4608e-05	976.62	1.5152e-06	1.5821e-06	1073.3	211.23	1.5027e-06	1.6412e-06	260.05	74.324	58.413	17.762	1.7762e-06	24.336	362.655	104.897	161.277	81.256	87.409	147.298	81.340	88.741	300.451	165.714	88.478	95.616	95.632	102.992	292.600	102.008	-8191	255	
6983.771	1	1	0	0	0.30737	0.16341	0.14785	0.16234	0.12725	0.3643	0.2879	0.050737	0.15874	0.025247	0.077107	0.11709	0.2027	0.020198	0.046509	0.089564	-2.3104	-2.2812	-2.3521	-2.9583	-2.1333	-2.6333	-2.6063	-2.1792	-2.8229	-2.3771	-2.2958	-2.9125	-2.2167	-2.4479	-2.5062	-2.2792	274.503	220.503	153.201	403.079	195.166	270.420	349.929	265.864	257.142	100.549	112.484	420.526	125.275	318.465	359.379	74.414	0.00057376	0.00041108	4.5301e-05	1060.4	4.737e-06	4.2756e-06	1154	225.73	4.597e-06	1.8884e-06	283.96	79.994	63.348	18.589	1.537e-06	25.787	0.0001392	0.00015555	4.4042e-05	984.4	1.4993e-06	1.6908e-06	1080.2	211.87	1.4679e-06	1.7144e-06	259.09	74.28	58.582	17.873	1.6451e-06	24.247	363.086	75.755	296.421	81.381	215.045	121.207	81.211	88.801	208.357	176.056	88.550	95.649	95.568	102.592	409.445	102.141	-8191	255	
6983.867	1	1	0	0	0.114	0.035532	0.24075	0.22133	0.14986	0.091234	0.38183	0.15348	0.19656	0.14313	0.15169	0.2191	0.17113	0.16327	0.1451	0.21607	-2.2333	-2.5438	-2.1167	-2.9062	-2.2375	-2.4833	-2.7979	-2.1708	-2.7812	-2.5083	-2.3021	-3.0708	-2.3708	-2.3937	-2.7958	-2.0583	403.180	317.895	403.656	336.893	172.806	313.993	364.469	120.659	284.120	291.365	345.111	322.197	141.307	72.371	287.300	419.407	0.00076826	0.00036557	4.8622e-05	1059.2	2.7681e-06	3.7304e-06	1153.6	225.65	8.4526e-07	2.4958e-06	285.6	80.371	62.351	18.519	1.3898e-06	26.032	0.00013719	0.00015708	4.1514e-05	982.19	1.5438e-06	1.7555e-06	1078	211.89	1.5451e-06	1.7863e-06	258.51	74.199	58.513	17.926	1.5845e-06	24.243	370.272	407.586	170.610	81.445	199.866	180.499	81.148	88.981	365.522	80.070	88.725	95.295	95.600	102.544	169.573	102.216	-8191	255	
6983.963	1	1	0	0	0.10803	0.17093	0.13355	0.23769	0.20159	0.2253	0.15642	0.028868	0.26754	0.12705	0.1752	0.13623	0.127	0.048463	0.1812	0.05366	-2.3396	-2.2062	-2.2125	-2.9083	-2.4437	-2.3688	-3.0208	-2.0896	-2.7146	-2.5771	-2.2562	-2.8833	-2.3979	-2.2667	-2.8333	-2.1667	210.729	77.194	368.305	337.702	331.114	305.767	352.998	272.864	197.217	222.266	391.501	374.092	245.273	87.635	185.731	203.078	0.0006055	0.00031356	0.00012064	1057.7	4.6235e-06	5.807e-07	1154.2	225.02	2.3983e-06	2.6719e-06	286.01	80.263	62.537	18.431	2.7407e-06	25.968	0.00014682	0.00015694	3.9716e-05	980.53	1.627e-06	1.7201e-06	1074.5	211.15	1.6456e-06	1.7008e-06	258.3	73.929	58.821	17.858	1.54e-06	24.25	349.933	358.844	247.407	81.392	225.006	209.074	81.164	89.025	147.104	425.527	88.773	95.248	95.844	102.862	405.332	102.364	-8191	255	
6984.084	1	1	0	0	0.13212	0.044662	0.12647	0.071455	0.29505	0.11665	0.23933	0.063728	0.18581	0.20871	0.11559	0.14169	0.21135	0.056069	0.21706	0.23586	-2.2	-2.5333	-1.9937	-2.7521	-2.5604	-2.1542	-3.175	-2.3333	-2.5083	-2.7687	-2.2083	-2.8458	-2.6104	-2.2917	-2.8292	-2.2208	270.474	315.437	78.789	371.726	408.424	430.853	339.422	326.926	222.603	115.084	368.264	164.444	118.011	250.675	263.832	401.817	0.0004818	0.0001935	7.0066e-05	1055.5	4.6513e-06	1.3394e-06	1149.4	225.6	5.1928e-06	2.127e-06	284.45	80.284	62.919	18.522	2.2027e-06	25.897	0.00015625	0.0001525	3.9043e-05	979.06	1.713e-06	1.633e-06	1072.7	211.52	1.7079e-06	1.6023e-06	256.93	73.906	59.048	17.731	1.4503e-06	24.167	345.085	134.230	311.632	81.313	211.234	381.135	81.294	88.846	192.088	248.627	88.616	95.251	95.666	102.593	244.306	102.180	-8191	255	
6984.180	1	1	0	0	0.060128	0.31189	0.26401	0.21346	0.12912	0.097426	0.28634	0.07058	0.20007	0.11924	0.23938	0.19245	0.085905	0.098353	0.1929	0.082638	-2.1104	-2.6396	-2.1396	-2.725	-2.6792	-2.2396	-3.1875	-2.3354	-2.4417	-2.7208	-2.0979	-2.7062	-2.4896	-2.1063	-2.8646	-2.1437	287.288	313.345	109.989	406.543	391.850	106.541	384.820	130.234	299.133	391.993	102.873	202.135	164.977	101.743	101.848	189.647	0.0006487	0.00049861	1.7462e-05	1060.4	1.5242e-06	1.8062e-06	1153	225.68	2.457e-06	2.0207e-06	286.5	80.029	62.785	18.658	1.4621e-06	25.87	0.00015721	0.0001418	3.7433e-05	983.24	1.7021e-06	1.555e-06	1073.9	212.09	1.7143e-06	1.5301e-06	256.9	74.519	59.064	17.733	1.4344e-06	24.444	349.356	187.490	240.284	81.365	205.014	304.202	81.080	88.902	110.486	110.337	88.741	95.562	95.930	102.477	254.745	102.186	-8191	255	
6984.252	1	1	0	0	0.11223	0.048563	0.2668	0.051907	0.12325	0.36011	0.29031	0.18768	0.22501	0.10064	0.11859	0.19275	0.08697	0.079578	0.1832	0.076328	-1.9208	-2.7292	-2.0833	-2.6854	-2.7104	-1.95	-3.0042	-2.4333	-2.2604	-2.7854	-2.3208	-2.5958	-2.6771	-2.0167	-2.7687	-2.475	320.907	314.118	256.766	140.835	151.673	109.684	318.846	124.478	171.865	212.078	408.885	346.003	370.464	148.464	379.461	425.679	0.00047246	0.00041649	8.3783e-05	1059.3	2.0701e-06	2.3831e-06	1154.8	225.69	5.9774e-06	2.6005e-06	282.81	79.847	62.671	18.715	3.5663e-06	25.679	0.0001564	0.00013783	3.6876e-05	985.41	1.6475e-06	1.5204e-06	1073.6	212.64	1.6231e-06	1.4787e-06	256.28	74.545	58.517	17.691	1.4626e-06	24.412	359.523	101.691	123.265	81.253	307.337	151.340	81.273	88.895	112.560	218.043	88.560	95.539	95.933	102.659	237.574	101.993	-8191	255	
6984.372	1	1	0	0	0.17126	0.11005	0.24859	0.056841	0.078152	0.025268	0.15484	0.2233	0.24902	0.24564	0.45192	0.1146	0.077293	0.38239	0.11914	0.30099	-1.8167	-2.9188	-2.1521	-2.5521	-2.9188	-1.9729	-3.0146	-2.5375	-2.1875	-3.0271	-2.3833	-2.2708	-2.7979	-1.9146	-2.7729	-2.4729	357.658	320.408	182.537	142.236	331.726	135.225	371.559	388.785	132.017	307.984	83.492	107.585	141.245	101.283	206.009	118.390	0.00056497	0.00018314	8.1832e-05	1059.1	2.0693e-06	1.5729e-06	1151.2	225.16	2.4608e-06	2.3298e-06	285.3	80.153	62.789	18.372	2.1686e-06	25.944	0.00014772	0.0001327	3.8229e-05	986.4	1.5842e-06	1.4935e-06	1074.8	213.16	1.6043e-06	1.4737e-06	258.37	74.935	58.618	17.678	1.6261e-06	24.629	364.934	213.799	158.607	81.310	278.415	319.278	81.166	88.700	163.968	228.163	88.695	95.446	95.660	102.682	225.531	102.394	-8191	255	
6984.468	1	1	0	0	0.28794	0.11236	0.26564	0.3547	0.19445	0.37888	0.3585	0.16872	0.24741	0.065209	0.33181	0.091535	0.30462	0.27794	0.027642	0.26325	-1.6292	-2.8417	-2.3167	-2.3479	-2.8	-2.2854	-3.0375	-2.6458	-2.2542	-2.7812	-2.3542	-2.3958	-2.8229	-2.2875	-2.4896	-2.7375	203.888	108.025	282.911	375.590	106.225	416.568	362.743	425.862	194.671	400.878	415.643	245.165	236.665	277.605	371.672	94.839	0.00053322	0.00024777	4.7447e-05	1062	4.9955e-06	2.4803e-06	1153.5	224.25	2.1616e-06	2.7591e-06	284.62	80.33	62.794	18.459	1.6315e-06	25.704	0.00014986	0.00013585	4.309e-05	990.99	1.6028e-06	1.5298e-06	1079.6	213.24	1.6335e-06	1.5232e-06	259.84	74.925	58.715	17.692	1.7793e-06	24.563	358.618	421.853	188.052	81.279	218.008	157.896	81.461	88.803	195.872	177.604	88.424	95.455	95.876	102.635	410.739	102.377	-8191	255	
6984.565	1	1	0	0	0.094265	0.088122	0.15691	0.24562	0.20596	0.050661	0.20524	0.17847	0.17965	0.063492	0.16314	0.23758	0.23768	0.26847	0.39148	0.27937	-1.5979	-2.9938	-2.3958	-2.4562	-2.9188	-2.3167	-2.7333	-2.7333	-2.1083	-2.7875	-2.4333	-2.3688	-2.9042	-2.2812	-2.5292	-2.8292	397.456	301.040	375.578	342.781	235.653	265.055	349.649	356.709	168.826	345.195	419.092	393.220	142.200	401.672	292.766	118.241	0.00057467	0.00015013	8.6805e-05	1059.8	9.3043e-07	3.8068e-06	1152.9	224.95	3.2218e-06	1.6569e-06	285.92	80.134	62.895	18.574	4.5936e-06	25.801	0.00014996	0.0001402	4.6002e-05	989.58	1.5802e-06	1.5641e-06	1082.3	212.96	1.6029e-06	1.5849e-06	261.84	74.844	58.66	17.852	1.8544e-06	24.429	369.017	208.232	147.361	81.139	234.873	147.586	81.104	89.129	147.198	317.428	88.813	95.603	95.658	102.779	200.289	102.329	-8191	255	
6984.659	1	1	0	0	0.049881	0.19907	0.13825	0.23981	0.18019	0.1588	0.14955	0.27707	0.4387	0.17419	0.1222	0.27281	0.16355	0.073565	0.21047	0.22988	-1.7437	-2.65	-2.5875	-2.1583	-2.8417	-2.175	-2.6104	-2.7667	-2.2687	-2.6292	-2.7479	-2.2417	-2.9188	-2.4938	-2.1479	-2.8917	418.899	421.571	166.954	396.027	226.343	426.554	376.139	332.665	300.315	387.857	147.429	124.921	94.015	131.361	407.095	384.303	0.00054966	0.00038669	2.2371e-05	1059.6	1.6628e-06	3.5999e-06	1155.5	227.07	9.6947e-07	2.7731e-07	285.05	79.686	63.055	18.683	2.6811e-06	25.932	0.0001476	0.00014929	4.6434e-05	987.56	1.5449e-06	1.6804e-06	1083.7	213.29	1.5632e-06	1.6973e-06	261.25	74.515	58.594	17.986	1.8122e-06	24.415	360.280	171.702	97.748	81.212	251.246	200.730	81.245	88.579	419.894	101.584	88.429	95.481	95.736	102.536	251.796	101.524	-8191	255	
6984.780	1	1	0	0	0.1168	0.1048	0.23735	0.13454	0.17151	0.06943	0.38178	0.24955	0.09507	0.15351	0.15822	0.15793	0.12418	0.22319	0.28077	0.095529	-1.6313	-2.5958	-2.575	-2.2771	-2.8833	-2.3583	-2.3604	-2.9062	-2.1021	-2.6292	-2.4667	-2.1167	-2.6521	-2.525	-2.1771	-2.9958	143.700	286.093	92.710	401.352	140.124	79.488	366.620	204.811	326.224	156.331	371.847	124.991	351.530	73.546	317.470	264.452	0.00083141	5.2839e-05	7.668e-05	1062.5	4.0559e-06	4.37e-06	1149.8	226.86	6.1975e-06	1.4955e-06	283.64	79.941	62.519	18.682	2.1812e-07	25.777	0.00014745	0.00016251	4.5908e-05	987.79	1.5609e-06	1.8145e-06	1080.5	213.18	1.6066e-06	1.8228e-06	260.17	74.638	58.739	18.108	1.7821e-06	24.379	367.328	228.508	264.984	81.263	182.983	166.439	81.506	89.009	240.100	196.362	88.536	95.341	95.855	102.334	146.582	102.333	-8191	255	
6984.851	1	1	0	0	0.20961	0.086237	0.15935	0.26071	0.1592	0.10205	0.13204	0.30464	0.23446	0.18637	0.23798	0.16938	0.18716	0.11789	0.21001	0.10656	-1.7437	-2.3479	-2.7875	-2.2021	-2.5938	-2.4292	-2.2708	-2.9167	-2.2708	-2.7167	-2.6521	-2.1646	-2.6125	-2.5833	-2.1854	-2.8646	245.827	155.654	351.757	335.287	367.844	140.711	266.222	324.465	289.139	85.594	398.584	378.553	283.738	92.606	322.279	251.140	0.00070324	0.0005988	5.0757e-05	1063.1	2.2289e-06	1.1731e-06	1149.7	226.62	6.796e-06	5.4238e-06	284.59	80.523	62.982	18.558	3.8722e-06	25.737	0.00015335	0.00017008	4.4305e-05	988.74	1.6633e-06	1.9032e-06	1081.9	212.88	1.7299e-06	1.8845e-06	259.75	74.56	59.125	18.102	1.7329e-06	24.289	350.904	419.579	275.991	81.388	234.203	283.263	81.148	88.757	201.819	227.916	88.727	95.279	95.600	102.596	341.412	102.129	-8191	255	
6984.947	1	1	0	0	0.091976	0.14028	0.20813	0.073915	0.048995	0.17628	0.27831	0.1949	0.12891	0.031817	0.22538	0.16628	0.047529	0.1521	0.11967	0.28579	-1.8729	-2.4688	-2.6458	-2.2896	-2.7208	-2.6583	-2.4458	-2.7604	-2.3667	-2.4104	-3.0187	-2.2521	-2.5667	-2.6521	-2.0708	-2.8563	247.990	342.413	367.781	199.051	209.292	288.107	393.712	310.657	85.125	73.029	339.195	348.369	333.340	314.229	426.250	354.643	0.00065395	0.00037178	9.1188e-05	1061.8	4.8895e-06	3.9376e-06	1156.5	225.78	6.5692e-06	3.8329e-06	285.96	80.588	63.079	18.539	6.8956e-06	25.805	0.00016498	0.00017329	4.3036e-05	989.08	1.8066e-06	1.8716e-06	1081.7	212.66	1.8552e-06	1.8656e-06	260.06	74.794	59.567	18.04	1.7094e-06	24.408	364.184	221.232	148.577	81.307	204.376	428.825	81.289	88.983	199.819	283.720	88.832	95.627	95.934	102.798	159.218	102.019	-8191	255	
6985.044	1	1	0	0	0.15236	0.12722	0.062986	0.24823	0.083723	0.056692	0.3052	0.071889	0.20171	0.10826	0.094925	0.20261	0.11705	0.21914	0.43398	0.087145	-1.9292	-2.1458	-2.9917	-2.3542	-2.4646	-2.8708	-2.3583	-2.725	-2.5896	-2.2438	-2.8917	-2.3771	-2.4604	-2.9479	-1.8771	-2.9667	143.219	387.880	429.927	102.143	422.475	138.423	383.175	84.488	414.439	328.753	428.059	75.851	82.458	125.432	334.511	363.001	0.00056493	2.5918e-05	3.2812e-05	1064.2	5.1162e-06	1.9194e-06	1157.8	226.81	5.5517e-06	1.9435e-07	287.38	80.762	62.667	18.494	2.8499e-06	26.086	0.00017652	0.00016899	4.2612e-05	991.04	1.9213e-06	1.8094e-06	1083.3	213.49	1.9258e-06	1.801e-06	259.84	75.142	59.896	18.012	1.6698e-06	24.627	336.383	155.704	428.550	81.311	199.543	320.279	81.087	89.116	232.403	220.072	88.655	95.600	95.610	102.660	227.817	101.817	-8191	255	
6985.164	1	1	0	0	0.10975	0.17153	0.27577	0.27796	0.11999	0.092994	0.25564	0.19235	0.014977	0.19237	0.1868	0.14165	0.20941	0.13288	0.10058	0.036974	-2.1167	-2.2354	-2.9208	-2.3563	-2.4625	-2.7687	-2.2354	-2.6167	-2.625	-2.3	-2.9479	-2.4313	-2.3292	-2.9208	-2.0812	-2.6521	244.676	378.240	302.593	427.560	395.956	327.055	411.170	203.899	333.672	192.742	139.172	312.681	414.216	412.787	287.283	378.587	0.00072894	0.00014316	4.0752e-05	1063.3	2.1034e-06	4.7408e-06	1156.4	227.69	7.0618e-06	7.3773e-07	285.19	80.537	63.003	18.577	3.4099e-06	25.914	0.00017671	0.0001593	4.0772e-05	992.67	1.8872e-06	1.6912e-06	1080.5	214.32	1.847e-06	1.7012e-06	258.56	75.436	59.597	17.885	1.634e-06	24.733	347.858	360.091	392.483	81.324	118.199	369.466	81.057	89.174	204.329	198.537	88.377	95.442	95.661	102.555	226.054	102.063	-8191	255	
6985.260	1	1	0	0	0.1288	0.078327	0.22918	0.10775	0.19251	0.10886	0.34329	0.3616	0.43301	0.16521	0.16537	0.17035	0.17961	0.3131	0.087953	0.064604	-2.0563	-2.1479	-2.5625	-2.7396	-2.2438	-3.0563	-2.2396	-2.6937	-2.5625	-2.3417	-2.7458	-2.3646	-2.2729	-2.8187	-2.0521	-2.5958	401.643	97.345	184.241	352.616	269.936	176.797	344.649	271.805	372.336	391.140	199.211	75.655	118.859	398.253	285.106	93.351	0.0006134	0.00021482	3.3293e-05	1061.2	2.9179e-06	3.3974e-06	1162.2	227.35	2.7697e-06	2.6443e-06	284.71	80.921	62.719	18.561	2.0946e-06	26.009	0.00017063	0.0001555	4.0888e-05	993.68	1.8408e-06	1.6738e-06	1083.3	215.34	1.8215e-06	1.6868e-06	258.84	75.778	59.505	17.854	1.6873e-06	24.872	371.329	173.561	350.760	81.119	153.839	149.969	81.088	89.097	114.052	385.811	88.384	95.533	95.688	102.570	265.127	101.814	-8191	255	
6985.357	1	1	0	0	0.32904	0.11951	0.2496	0.20542	0.044649	0.28915	0.25311	0.19736	0.064484	0.29201	0.20655	0.15617	0.18003	0.11045	0.040595	0.25954	-2.175	-2.0271	-2.7104	-2.6042	-2.1896	-3.0458	-2.3417	-2.3542	-3.05	-2.1625	-2.7167	-2.6646	-2.175	-2.9229	-2.3542	-2.4583	376.732	92.302	252.176	397.905	408.676	136.819	353.337	130.791	104.390	76.682	146.915	360.800	288.504	371.477	175.328	387.740	0.00043948	0.00042124	7.2982e-05	1065.3	3.4565e-06	2.7211e-06	1156.9	226.72	6.4718e-06	1.1793e-06	286.48	80.544	62.86	18.691	6.8613e-06	25.807	0.00016336	0.00015152	4.3011e-05	995.62	1.7718e-06	1.6156e-06	1084.3	215.39	1.7393e-06	1.6568e-06	261.23	75.679	59.342	17.863	1.8214e-06	24.876	371.764	416.225	200.555	81.353	165.980	176.995	81.426	88.760	263.638	351.191	88.617	95.355	95.830	102.696	162.947	101.695	-8191	255	
6985.477	1	1	0	0	0.1211	0.26474	0.34236	0.16411	0.26873	0.095785	0.24274	0.16953	0.12014	0.13299	0.13681	0.29395	0.22326	0.28137	0.21053	0.38254	-2.5625	-2.2146	-2.675	-2.7313	-2.2917	-2.9521	-2.5979	-2.55	-2.9917	-2.0854	-2.7958	-2.6104	-2.3104	-2.9188	-2.65	-2.2687	420.867	356.923	409.805	85.705	215.445	219.231	386.971	96.869	156.648	284.974	410.987	81.006	380.507	166.111	100.439	359.436	0.00074599	0.00062128	8.0144e-05	1063.7	5.7709e-06	2.0503e-06	1159.2	226.97	7.4433e-07	2.5119e-06	285.65	80.432	63.007	18.705	3.0153e-06	26.114	0.00015932	0.00015008	4.6447e-05	995.87	1.7505e-06	1.6243e-06	1088.3	215.98	1.7538e-06	1.6962e-06	263.42	75.801	59.476	17.941	1.9632e-06	24.873	353.558	131.110	106.444	81.256	356.806	355.923	81.315	89.305	374.365	190.436	88.551	95.488	95.603	102.523	405.069	101.535	-8191	255	
6985.549	1	1	0	0	0.14332	0.25812	0.21351	0.17741	0.1831	0.14336	0.15774	0.223	0.12409	0.076419	0.16242	0.27251	0.23737	0.17526	0.20368	0.074696	-2.5875	-2.3333	-2.6167	-2.7604	-2.375	-2.7979	-2.7604	-2.3021	-2.8521	-2.2104	-2.4583	-2.5458	-2.1083	-2.7771	-2.5854	-2.0458	308.402	110.670	110.853	402.764	294.201	281.936	352.553	101.623	309.354	330.706	94.787	104.169	71.174	290.943	207.977	347.059	0.00074229	0.000294	5.1883e-05	1066.8	3.0955e-06	2.502e-06	1159.9	226.98	5.1994e-06	3.857e-06	287.43	80.708	62.868	18.597	2.972e-06	26.186	0.00015655	0.00015516	4.9584e-05	995.52	1.6888e-06	1.6524e-06	1089.6	214.76	1.5597e-06	1.6193e-06	262.11	74.877	58.69	17.759	1.7331e-06	24.437	355.234	81.692	104.466	81.432	162.596	325.239	81.133	89.045	331.592	182.291	88.444	95.098	95.647	102.477	291.452	101.877	-8191	255	
6985.645	1	1	0	0	0.14885	0.32087	0.045291	0.19881	0.073778	0.082309	0.17795	0.18873	0.12046	0.21212	0.22299	0.15517	0.20662	0.29718	0.12186	0.21409	-2.2396	-2.2021	-2.5333	-2.9313	-2.2354	-2.6813	-2.7792	-2.2042	-3.0354	-2.2292	-2.4813	-2.8521	-2.475	-2.4771	-2.7125	-2.1083	109.245	237.723	277.807	142.448	188.472	289.145	364.649	330.712	160.254	369.294	425.258	356.972	120.799	77.035	127.243	104.769	0.0005873	0.00022897	0.00013342	1064.5	2.717e-06	5.1316e-06	1152.3	226.11	2.1178e-06	3.7316e-06	286.63	80.572	63.012	18.572	1.7407e-08	26.059	0.00013326	0.00014445	4.3324e-05	986.82	1.4676e-06	1.5914e-06	1081.7	212.45	1.4346e-06	1.6432e-06	260.66	74.248	58.552	17.895	1.7009e-06	24.392	353.628	166.973	242.735	81.301	259.498	201.941	81.209	88.804	428.423	183.273	88.368	95.765	95.872	103.051	403.620	102.593	-8191	255	
6985.764	1	1	0	0	0.17285	0.39086	0.32418	0.15406	0.35717	0.12289	0.2512	0.013154	0.17163	0.12472	0.46491	0.2854	0.13075	0.074509	0.13896	0.38844	-2.5792	-2.3521	-2.2729	-2.9625	-2.1833	-2.4958	-3.1854	-2.0417	-2.7979	-2.3854	-2.3667	-2.875	-2.2979	-2.4437	-2.8354	-2.0583	152.821	200.279	274.929	372.367	210.492	124.399	389.202	159.683	319.848	167.827	359.254	364.482	96.967	308.142	231.232	400.375	0.00058945	0.00054282	2.1709e-05	1061	3.9277e-06	3.9356e-06	1159.4	227.03	7.429e-06	1.6842e-06	285.71	80.097	63.013	18.743	2.8397e-06	25.8	0.0001386	0.00016018	4.4175e-05	987.12	1.5765e-06	1.7926e-06	1082.2	213.57	1.5743e-06	1.8271e-06	260.16	74.477	58.903	18.116	1.6992e-06	24.434	357.839	106.517	274.862	81.369	243.263	166.572	80.993	88.680	180.069	174.096	88.226	95.651	95.989	102.711	233.860	102.048	-8191	255	
6985.860	1	1	0	0	0.061019	0.21063	0.10037	0.050891	0.072203	0.044886	0.29243	0.32575	0.36379	0.17567	0.010245	0.1726	0.034645	0.21644	0.11327	0.18178	-2.2562	-2.4854	-2.1667	-3.0646	-2.1333	-2.5417	-2.9208	-2.1979	-2.4938	-2.7146	-2.3583	-2.7562	-2.3438	-2.6	-2.8271	-2.2146	267.715	292.598	213.008	380.178	82.836	418.965	358.667	101.374	370.949	269.263	295.846	156.651	229.031	246.916	394.731	73.082	0.00077532	0.0001073	3.7735e-05	1065.7	5.2904e-06	3.1277e-06	1163.1	227.72	5.5133e-06	5.4711e-06	285.25	80.423	63.309	18.573	8.4039e-07	25.949	0.00014965	0.0001681	4.2266e-05	987.87	1.6371e-06	1.786e-06	1083.2	212.85	1.63e-06	1.7639e-06	259.72	74.219	59.205	17.97	1.5891e-06	24.297	354.876	223.956	228.214	81.118	200.033	237.772	81.310	89.043	180.988	233.121	88.617	95.416	95.759	102.830	193.808	102.010	-8191	255	
6985.956	1	1	0	0	0.25353	0.35866	0.26497	0.30628	0.15549	0.30957	0.14362	0.22712	0.070781	0.27779	0.10917	0.26674	0.17762	0.17421	0.21439	0.12783	-2.1917	-2.5208	-2.0792	-3.0917	-2.575	-2.2021	-3.125	-2.3667	-2.5375	-2.8271	-2.4313	-2.8625	-2.4875	-2.3375	-2.9208	-2.2771	398.471	72.511	306.400	413.390	371.057	115.282	75.366	398.617	81.790	175.924	153.392	353.505	368.944	409.184	354.464	81.361	0.00076869	0.00016655	6.7013e-05	1064.1	1.6862e-06	1.0879e-06	1155.5	227.05	6.214e-06	1.067e-06	285.95	80.517	62.999	18.547	3.3042e-06	26.117	0.00015373	0.00015716	3.9798e-05	986.21	1.6968e-06	1.6916e-06	1079.3	212.81	1.6953e-06	1.6692e-06	258.71	74.235	59.231	17.905	1.5204e-06	24.32	345.614	80.014	147.171	81.241	182.115	420.690	81.047	88.880	165.661	394.933	88.253	95.498	95.887	102.894	268.641	102.055	-8191	255	
6986.077	1	1	0	0	0.17346	0.035413	0.10827	0.12753	0.1146	0.019043	0.14507	0.15352	0.046056	0.13446	0.11048	0.21904	0.1652	0.18079	0.16012	0.0824	-2.2062	-2.8333	-2.125	-2.7687	-2.5521	-2.1583	-3.1146	-2.4375	-2.5583	-2.8563	-2.2604	-2.8854	-2.6104	-2.3542	-2.7521	-2.5604	283.389	351.978	340.346	425.873	187.576	399.925	309.875	359.275	409.811	347.892	369.182	388.545	418.260	132.208	318.432	357.008	0.00060528	0.00024526	8.0814e-05	1062.5	5.3862e-07	4.3442e-06	1156.1	226.66	3.6322e-06	1.1443e-06	286.77	80.393	62.785	18.462	2.7572e-06	26.102	0.00015773	0.00014688	3.7901e-05	985.29	1.6916e-06	1.5521e-06	1076.1	212.22	1.6417e-06	1.4907e-06	256.1	73.99	58.854	17.681	1.3686e-06	24.348	356.081	338.629	110.959	81.119	135.510	96.191	81.355	88.958	133.250	157.744	88.569	95.275	95.724	102.982	101.305	102.348	-8191	255	
6986.148	1	1	0	0	0.35097	0.2915	0.18651	0.18446	0.16296	0.14421	0.13087	0.092569	0.18478	0.077649	0.073698	0.30707	0.33961	0.044899	0.12093	0.10045	-1.8438	-2.9167	-2.0271	-2.9271	-2.4958	-2.2375	-2.9833	-2.375	-2.3875	-2.7729	-2.2125	-2.5958	-2.7438	-1.95	-2.6625	-2.4896	87.287	175.755	402.280	385.581	154.323	278.631	385.514	293.605	88.663	241.234	164.676	72.141	329.304	259.420	181.196	121.751	0.00061075	0.0001724	2.116e-05	1060.2	2.4828e-06	2.9291e-06	1158.2	226.52	5.3451e-06	4.0046e-07	285.56	80.577	62.996	18.585	4.5588e-06	25.86	0.00015112	0.0001334	3.5891e-05	984.49	1.6102e-06	1.4674e-06	1075	212.83	1.6087e-06	1.4372e-06	256.06	74.677	58.748	17.667	1.4076e-06	24.432	354.011	415.566	160.893	81.291	407.885	152.523	81.249	88.978	162.482	297.768	88.581	95.646	95.747	102.635	168.475	102.350	-8191	255	
6986.245	1	1	0	0	0.064814	0.12002	0.18985	0.058585	0.22342	0.015813	0.11849	0.21897	0.32248	0.13082	0.22455	0.17657	0.18549	0.096766	0.023055	0.084005	-1.7021	-2.8563	-2.1354	-2.75	-2.6021	-2.2521	-3.1458	-2.5854	-2.3542	-2.9729	-2.4146	-2.5812	-2.8396	-2.2458	-3.0396	-2.4604	359.080	334.216	133.196	177.277	360.744	149.050	90.153	221.939	329.660	206.613	81.371	417.586	275.088	331.795	203.102	357.224	0.00062739	0.00011017	5.2271e-05	1062.6	1.7386e-06	1.806e-06	1153.9	225.87	2.7843e-06	5.2882e-07	286.15	80.497	62.963	18.609	2.6844e-06	25.766	0.00014823	0.00013174	3.6532e-05	988.34	1.5644e-06	1.4416e-06	1075.9	213	1.5599e-06	1.4178e-06	256.98	74.897	58.586	17.706	1.4831e-06	24.501	361.204	269.396	168.303	81.252	311.521	347.275	81.157	89.141	181.723	380.187	88.662	95.212	95.623	102.672	186.481	102.254	-8191	255	
6986.341	1	1	0	0	0.1179	0.34151	0.30003	0.33928	0.13943	0.37137	0.39775	0.091738	0.19527	0.082237	0.069791	0.18484	0.27489	0.17522	0.17847	0.078041	-1.9292	-2.8417	-2.425	-2.85	-2.8187	-2.3042	-2.9521	-2.6604	-2.3125	-2.8812	-2.4313	-2.4979	-2.9854	-2.0875	-2.5167	-2.7354	113.644	183.321	155.865	350.005	237.833	139.513	352.476	253.965	80.432	241.791	151.707	346.574	282.593	167.983	162.223	392.315	0.00070772	0.00012231	3.8549e-05	1062.5	4.6189e-06	1.6799e-06	1155.4	226.06	2.7257e-06	6.5556e-07	286.23	80.43	63.438	18.635	2.9647e-06	26.169	0.00014056	0.00012769	3.8157e-05	987.78	1.4695e-06	1.4036e-06	1076.7	212.57	1.4829e-06	1.3594e-06	258.16	74.489	58.471	17.631	1.5505e-06	24.46	357.481	373.674	189.895	81.130	196.977	315.280	81.262	88.669	300.199	239.641	88.657	95.795	95.884	102.515	163.306	102.321	-8191	255	
6986.461	1	1	0	0	0.30347	0.051068	0.033767	0.34947	0.18621	0.015705	0.22037	0.085821	0.21698	0.15459	0.3036	0.13602	0.19702	0.17074	0.12963	0.27246	-1.5958	-2.8	-2.3688	-2.5542	-2.6646	-2.3104	-2.7979	-2.7687	-2.0062	-2.7625	-2.5083	-2.3375	-2.8229	-2.2646	-2.5646	-3.1	256.345	131.647	226.477	388.022	399.296	136.696	413.917	84.764	351.740	372.504	430.068	369.628	400.572	95.027	318.913	252.374	0.00061497	8.9772e-05	0.0001002	1065.6	1.0967e-06	3.5071e-06	1153	225.88	4.0724e-06	5.4987e-06	286.55	80.643	63.21	18.589	3.9096e-06	25.893	0.00013482	0.00012492	3.9702e-05	986.86	1.4059e-06	1.3655e-06	1076.7	211.86	1.4065e-06	1.3563e-06	259.3	74.434	58.192	17.619	1.6162e-06	24.32	358.527	86.735	140.757	81.323	307.485	197.515	81.175	88.987	142.060	206.367	88.903	95.317	96.297	102.793	213.203	102.402	-8191	255	
6986.556	1	1	0	0	0.17548	0.37987	0.17719	0.24138	0.17813	0.30492	0.088892	0.18144	0.10034	0.20115	0.066053	0.20559	0.41686	0.21409	0.11635	0.088841	-1.7583	-2.7479	-2.4437	-2.4583	-2.7375	-2.2562	-2.6437	-2.9375	-2.1979	-2.7771	-2.7	-2.3187	-2.9542	-2.3854	-2.4562	-2.8458	256.281	306.332	231.379	411.755	181.543	106.408	401.490	305.925	374.274	116.267	341.728	204.857	413.812	389.404	426.782	141.442	0.00074009	0.00019567	8.3199e-05	1064.1	4.0152e-06	4.0704e-06	1158.2	226.58	3.6483e-06	3.9613e-06	286.08	80.656	62.665	18.679	4.7607e-06	25.978	0.00013089	0.00012847	4.1248e-05	985.63	1.3883e-06	1.4505e-06	1081.2	212.45	1.4114e-06	1.4593e-06	259.74	74.488	58.135	17.739	1.6318e-06	24.257	373.407	175.396	157.138	81.023	233.643	138.486	81.361	88.976	171.952	171.622	88.562	95.033	95.661	102.597	279.067	102.077	-8191	255	
6986.652	1	1	0	0	0.12318	0.19861	0.20901	0.18465	0.23071	0.06932	0.45068	0.10472	0.094047	0.071705	0.051832	0.084237	0.14323	0.24576	0.20089	0.14842	-1.7812	-2.4833	-2.5312	-2.2562	-2.8917	-2.2729	-2.5354	-2.9292	-2.1688	-2.3708	-2.7083	-2.1417	-2.9146	-2.625	-2.3563	-3.0396	185.339	208.323	421.712	397.129	145.964	423.826	397.316	350.187	262.453	178.912	364.651	360.610	373.288	393.527	408.994	305.768	0.00057684	0.00016406	6.4544e-05	1063.6	1.1904e-06	2.7275e-06	1157.3	226.11	3.5019e-06	4.0456e-06	284.92	80.553	62.938	18.705	1.6452e-06	25.857	0.00012967	0.00014086	4.1135e-05	986.2	1.3739e-06	1.5934e-06	1081	212.12	1.4259e-06	1.6226e-06	258.88	74.522	58.332	17.841	1.609e-06	24.149	357.511	137.120	82.076	81.151	275.961	137.316	81.357	88.747	77.729	183.619	88.988	95.551	95.735	102.996	398.272	101.802	-8191	255	
6986.725	1	1	0	0	0.12263	0.15338	0.14131	0.29149	0.1114	0.12972	0.22079	0.1706	0.22625	0.11654	0.258	0.26999	0.11006	0.062464	0.14601	0.23303	-1.7417	-2.4771	-2.5938	-2.0458	-2.7	-2.5542	-2.3542	-2.9375	-2.1562	-2.5625	-3.0229	-2.1479	-2.6646	-2.725	-2.2396	-2.8542	324.172	397.543	257.984	76.199	406.214	183.344	400.438	410.660	313.960	261.753	255.897	268.247	361.200	359.301	339.425	261.195	0.00047783	8.4601e-05	4.2777e-05	1057.7	5.4518e-06	1.5432e-06	1158.1	225.06	4.1612e-06	2.1396e-06	286.57	80.78	62.91	18.599	4.845e-06	26.078	0.0001323	0.00014946	3.9859e-05	981.75	1.4212e-06	1.6768e-06	1078.7	211.37	1.4773e-06	1.6561e-06	258.1	74.058	58.552	17.886	1.5245e-06	24.124	340.655	197.093	160.741	81.233	249.318	282.015	81.440	88.813	229.942	292.511	88.470	95.390	96.283	102.890	105.083	102.299	-8191	255	
6986.844	1	1	0	0	0.087698	0.19675	0.24462	0.061877	0.15591	0.14514	0.10557	0.094055	0.046593	0.062118	0.086446	0.24927	0.045967	0.19587	0.21177	0.12385	-1.8813	-2.5042	-2.6729	-2.3125	-2.6521	-2.4229	-2.4229	-2.8833	-2.375	-2.4792	-3.1146	-2.2521	-2.6333	-2.7687	-2.1354	-2.9583	257.025	144.460	119.128	131.250	337.518	340.239	299.549	317.256	238.687	225.916	370.268	104.195	225.168	249.026	370.703	419.047	0.00060818	0.00011154	0.00012704	1059.4	5.5937e-06	2.0764e-06	1152	225.43	5.6855e-06	1.8789e-06	286.42	80.495	62.989	18.468	2.5707e-06	26.081	0.00013946	0.00015097	3.8334e-05	981.37	1.5289e-06	1.6575e-06	1074.9	210.89	1.5692e-06	1.6427e-06	257.75	73.88	58.732	17.828	1.4859e-06	24.15	352.583	291.370	155.308	81.383	180.885	279.520	81.148	89.038	206.633	405.083	88.727	95.715	95.616	102.977	310.577	101.799	-8191	255	
6986.940	1	1	0	0	0.047041	0.20051	0.13153	0.32514	0.18713	0.087904	0.15177	0.14844	0.14005	0.033098	0.23993	0.18792	0.3037	0.37006	0.29441	0.15795	-1.6833	-2.2333	-2.8167	-2.2562	-2.6458	-2.675	-2.4667	-2.8771	-2.6	-2.5021	-2.9625	-2.0208	-2.6771	-2.7167	-2.0646	-2.7042	281.421	118.895	317.971	372.494	129.701	268.747	383.343	415.793	182.664	119.862	77.981	365.887	384.206	94.696	210.287	100.564	0.00083551	0.00040953	6.8276e-05	1060.4	2.1546e-06	1.9109e-06	1152.9	226.16	3.2031e-06	1.2369e-06	284.04	79.94	63.365	18.576	3.4962e-06	25.825	0.00015044	0.00014667	3.7183e-05	982.23	1.6385e-06	1.6237e-06	1074.6	211.63	1.6985e-06	1.6097e-06	257.21	74.096	59.226	17.797	1.5156e-06	24.278	346.632	87.558	249.643	81.206	237.324	78.464	81.160	89.054	230.268	78.619	88.585	95.649	95.853	102.978	232.297	101.816	-8191	255	
6987.037	1	1	0	0	0.18835	0.11466	0.20678	0.045037	0.075274	0.151	0.11178	0.1694	0.020037	0.20659	0.046229	0.1039	0.14491	0.19142	0.26135	0.1478	-2.1729	-2.2604	-2.9354	-2.3896	-2.675	-2.9437	-2.2708	-2.8187	-2.4396	-2.1604	-2.8854	-2.3438	-2.4979	-2.8042	-2.1646	-2.7854	399.497	305.185	211.603	270.772	259.974	240.997	339.457	304.041	345.789	320.851	86.419	85.405	115.066	133.382	325.009	368.367	0.00052509	0.00017049	2.9619e-05	1063	2.6811e-06	3.2696e-06	1153.6	227.39	4.7114e-07	3.4189e-06	287.27	81.02	63.349	18.551	3.1636e-06	25.801	0.00016103	0.00014475	3.7535e-05	983.82	1.7229e-06	1.5627e-06	1075.8	212.81	1.7273e-06	1.5761e-06	257.32	74.709	59.282	17.781	1.4695e-06	24.399	348.409	227.010	174.313	81.257	232.346	393.176	81.540	88.795	388.366	306.227	88.523	95.122	95.957	103.114	153.729	102.041	-8191	255	
6987.157	1	1	0	0	0.16099	0.11661	0.17251	0.12504	0.096209	0.24167	0.29731	0.18435	0.26954	0.26318	0.14002	0.12991	0.3022	0.12054	0.089209	0.072755	-2.0979	-2.1437	-2.75	-2.2875	-2.3229	-2.7646	-2.2875	-2.7208	-2.4625	-2.1333	-2.8583	-2.6229	-2.2625	-3	-2.1625	-2.5375	175.794	261.401	287.462	112.695	192.909	215.608	339.101	313.946	103.790	264.283	371.157	406.768	95.119	415.073	253.468	107.733	0.00041473	0.00043345	1.6053e-05	1060.2	2.6169e-06	2.226e-06	1153.2	225.96	3.0005e-06	1.2983e-06	285.66	80.023	63.067	18.644	8.4535e-06	25.903	0.00015797	0.0001431	3.6962e-05	987.75	1.6896e-06	1.5346e-06	1076.2	213.24	1.6729e-06	1.5349e-06	256.86	74.94	59.119	17.718	1.4896e-06	24.582	369.246	158.490	371.522	81.399	210.444	124.599	81.050	88.993	227.993	341.990	88.746	95.562	96.141	102.669	234.521	101.716	-8191	255	
6987.253	1	1	0	0	0.1101	0.18395	0.1047	0.095609	0.23332	0.16571	0.03405	0.41316	0.13293	0.18836	0.26493	0.085436	0.077923	0.28173	0.14532	0.054158	-2.3021	-2.1083	-2.7083	-2.5	-2.2687	-2.8375	-2.3896	-2.6604	-2.8021	-2.1292	-2.6146	-2.6312	-2.0958	-2.9021	-2.3146	-2.4313	126.591	194.272	203.347	424.565	240.960	393.110	368.062	404.053	270.643	349.815	190.379	139.777	321.541	420.963	184.483	371.089	0.00057951	0.00022894	1.3734e-05	1057.7	1.3347e-06	2.6569e-06	1157	225.64	4.6683e-06	3.5704e-06	288.77	80.59	62.977	18.767	6.155e-06	25.919	0.00015006	0.00013831	3.7377e-05	988.36	1.6015e-06	1.4803e-06	1076.5	213.69	1.5877e-06	1.4949e-06	258.79	75.129	58.958	17.708	1.58e-06	24.601	363.215	73.036	92.227	81.150	227.743	179.017	81.417	89.000	184.711	268.721	88.671	95.735	95.982	102.245	163.938	102.193	-8191	255	
6987.349	1	1	0	0	0.095361	0.1822	0.082632	0.098401	0.1638	0.14152	0.16555	0.27999	0.20949	0.10611	0.1093	0.43832	0.17894	0.17879	0.1335	0.26272	-2.3667	-1.9312	-2.6875	-2.7938	-2.1875	-2.9104	-2.575	-2.5125	-2.8583	-2.0458	-2.7083	-2.6167	-2.1542	-2.8063	-2.575	-2.3104	145.050	240.545	216.360	83.262	114.090	134.375	94.223	383.874	155.376	154.600	299.058	409.072	119.049	365.828	212.459	345.508	0.00057821	0.00011172	4.517e-05	1054.3	2.5683e-06	1.7866e-06	1159.6	226.77	2.0109e-06	5.359e-07	286.81	80.28	63.209	18.6	1.5896e-06	26.013	0.00014514	0.0001361	4.062e-05	987.05	1.548e-06	1.4516e-06	1079.7	213.84	1.5425e-06	1.4666e-06	259.88	74.914	58.985	17.7	1.6877e-06	24.53	357.792	378.162	147.117	81.233	413.831	189.573	81.200	88.997	115.641	256.337	88.604	95.462	95.881	102.750	238.433	102.231	-8191	255	
6987.446	1	1	0	0	0.10745	0.095615	0.19605	0.16505	0.20859	0.24519	0.18965	0.15052	0.29453	0.14854	0.15845	0.20482	0.19689	0.10541	0.043956	0.34513	-2.5833	-2.2583	-2.575	-2.7396	-2.0458	-2.8729	-2.4396	-2.3083	-2.8375	-2.2542	-2.6729	-2.8812	-2.1708	-2.7687	-2.6042	-2.2458	75.186	231.035	335.594	418.302	215.971	207.884	362.863	308.445	148.959	105.318	178.410	75.704	206.238	350.224	100.134	194.230	0.00058888	0.00029441	0.0001311	1060.2	3.6486e-06	3.1502e-06	1152.1	226.04	3.7703e-06	4.2016e-06	287.17	80.655	63.021	18.572	2.291e-06	25.805	0.00014197	0.00013603	4.3548e-05	987.6	1.5337e-06	1.4725e-06	1081.4	213.15	1.4986e-06	1.5064e-06	261.08	74.709	58.559	17.721	1.7152e-06	24.392	344.068	410.884	118.270	81.069	237.234	133.696	81.357	89.139	175.661	218.507	88.577	95.343	95.662	102.482	141.562	102.030	-8191	255	
6987.542	1	1	0	0	0.24823	0.15905	0.11498	0.19582	0.040471	0.18736	0.23033	0.4184	0.14344	0.064158	0.20442	0.050463	0.1501	0.12006	0.12826	0.032508	-2.4729	-2.3625	-2.3146	-3.0167	-2.2229	-2.675	-2.825	-2.2417	-2.7375	-2.3292	-2.6083	-2.7771	-2.2479	-2.8729	-2.6646	-2.2958	152.291	291.972	138.324	398.566	404.008	230.994	380.835	325.251	403.996	151.426	428.151	243.599	371.164	113.917	258.267	222.771	0.00060711	0.00018169	4.9331e-05	1061.7	3.3422e-06	3.9229e-06	1153.8	225.02	3.1831e-06	1.3014e-06	286.59	80.456	62.77	18.753	2.4354e-06	26.063	0.00013527	0.0001404	4.3649e-05	986.49	1.4696e-06	1.5548e-06	1079.7	212.5	1.4593e-06	1.6161e-06	260.67	74.503	58.348	17.872	1.6958e-06	24.354	370.393	102.094	154.446	81.149	239.011	172.939	81.034	89.196	279.059	189.002	88.734	95.333	95.949	102.938	411.328	102.059	-8191	255	
6987.638	1	1	0	0	0.11005	0.19955	0.079522	0.24911	0.12578	0.11033	0.15695	0.045377	0.11068	0.28766	0.17496	0.095255	0.17006	0.055268	0.098837	0.11991	-2.2667	-2.4417	-2.2875	-2.7958	-2.4021	-2.5125	-2.8271	-2.1937	-2.9313	-2.3104	-2.3896	-2.7625	-2.2854	-2.5417	-2.55	-2.3104	327.014	364.467	282.927	397.310	133.759	250.017	349.062	396.652	246.584	358.798	426.446	256.464	142.230	91.912	191.841	298.674	0.00051669	0.00039276	2.2891e-05	1057.7	1.047e-06	3.0617e-06	1150.3	226.96	4.5823e-06	2.5906e-06	283.76	80.46	63.197	18.652	2.3182e-06	26.118	0.0001329	0.00014985	4.2137e-05	982.09	1.4547e-06	1.6501e-06	1078.7	212.59	1.4302e-06	1.6893e-06	259.23	74.333	58.473	17.923	1.6032e-06	24.347	360.471	171.420	289.987	81.302	386.640	243.641	81.210	89.078	183.446	106.076	88.489	95.856	95.833	102.681	327.976	101.524	-8191	255	
6987.734	1	1	0	0	0.15251	0.28584	0.17948	0.25199	0.16271	0.16046	0.075704	0.021087	0.19006	0.24319	0.14836	0.20421	0.31202	0.20204	0.13257	0.21308	-2.1458	-2.5458	-2.1104	-2.7	-2.3042	-2.3563	-2.7438	-2.375	-2.6229	-2.5958	-2.2417	-2.8312	-2.425	-2.5042	-2.6729	-2.2021	90.335	120.695	84.583	399.942	203.514	82.053	240.396	304.162	297.366	131.549	240.877	80.719	377.762	429.747	152.357	382.158	0.00075449	0.0004646	2.9386e-05	1062.1	1.738e-06	3.883e-06	1154.2	225.97	5.0192e-06	3.4364e-06	287.03	80.338	63.029	18.526	5.5778e-07	25.919	0.00013443	0.00015516	3.9806e-05	983.38	1.4887e-06	1.6938e-06	1075.2	211.9	1.484e-06	1.6925e-06	258.2	74.056	58.744	17.897	1.5318e-06	24.218	352.271	96.917	98.393	81.466	87.618	146.788	81.000	89.343	207.535	241.196	88.736	95.854	95.757	102.967	263.169	101.617	-8191	255	
6987.853	1	1	0	0	0.14081	0.23574	0.33746	0.12355	0.2301	0.096448	0.31558	0.23486	0.1131	0.22691	0.32899	0.083241	0.090096	0.25624	0.27267	0.047589	-2.2604	-2.4896	-2.3396	-2.9479	-2.0521	-2.375	-2.9458	-2.1479	-2.5833	-2.5563	-2.1833	-2.975	-2.6	-2.1396	-3.0333	-2.3396	87.098	211.513	170.685	105.914	169.952	403.295	370.977	409.742	243.524	273.901	403.047	186.947	413.250	78.749	210.466	242.961	0.00064083	0.00017459	3.847e-05	1056.8	3.8579e-06	2.7184e-06	1152.1	226.27	6.4425e-06	1.9422e-06	286.14	80.686	62.842	18.581	1.6834e-06	25.875	0.00014357	0.00015337	3.8727e-05	980.6	1.5896e-06	1.6523e-06	1074.5	211.62	1.6068e-06	1.6492e-06	257.71	74.058	58.859	17.867	1.5002e-06	24.158	352.624	376.673	160.929	81.198	242.339	280.346	81.224	89.045	165.542	143.673	88.527	95.249	95.656	102.740	144.242	101.884	-8191	255	
6987.949	1	1	0	0	0.19762	0.09106	0.2314	0.31097	0.25035	0.13732	0.14436	0.072251	0.097971	0.083466	0.42152	0.20034	0.11155	0.066669	0.059225	0.13667	-2.1167	-2.7542	-2.2542	-2.6896	-2.5667	-2.2708	-3.1792	-2.1792	-2.4792	-2.8146	-1.9208	-2.9042	-2.5958	-2.3542	-2.8833	-2.3708	215.085	158.085	79.302	379.167	137.192	292.822	361.336	368.406	145.904	246.698	319.796	310.339	86.615	319.702	312.811	368.429	0.00066045	0.00029092	6.1032e-05	1059.9	5.2407e-06	2.5133e-07	1151.8	225.7	6.0764e-06	8.1176e-07	287.34	80.545	62.824	18.607	3.0352e-06	26.042	0.00015322	0.00014753	3.8397e-05	981.65	1.6881e-06	1.591e-06	1073	211.83	1.6678e-06	1.5539e-06	257.79	74.236	59.2	17.775	1.4407e-06	24.294	350.855	99.102	147.438	81.082	172.849	343.430	81.152	88.791	185.810	122.604	88.586	95.315	95.796	102.536	125.943	102.191	-8191	255	
6988.021	1	1	0	0	0.055653	0.095947	0.1031	0.33475	0.15471	0.0093485	0.33668	0.32386	0.13015	0.097372	0.16645	0.29041	0.21169	0.18573	0.12451	0.14975	-2.2062	-2.7125	-2.2125	-2.8438	-2.575	-2.2812	-3.0333	-2.225	-2.3521	-2.9458	-2.0667	-2.5896	-2.5625	-2.2188	-2.9229	-2.45	105.032	353.717	249.185	399.634	357.652	155.414	325.010	382.047	419.152	147.213	149.183	99.713	336.842	403.873	407.585	226.811	0.00068869	0.00022042	2.8442e-05	1058.8	9.1109e-07	2.3813e-06	1156.6	226.2	2.4878e-06	4.6819e-06	285.72	80.259	62.976	18.654	3.3738e-06	26.196	0.00015695	0.00014129	3.6854e-05	983.65	1.6989e-06	1.5452e-06	1075.7	212.51	1.6936e-06	1.5259e-06	257.36	74.603	59.003	17.752	1.4453e-06	24.556	363.085	162.630	110.175	81.275	390.764	144.830	81.144	88.956	260.449	124.431	88.249	95.254	96.043	102.956	227.052	102.218	-8191	255	
6988.117	1	1	0	0	0.29378	0.19116	0.17167	0.21854	0.035864	0.16015	0.29436	0.31495	0.18858	0.052578	0.18021	0.3079	0.1442	0.11782	0.30192	0.22572	-1.7354	-2.6521	-2.1667	-2.7958	-2.7479	-2.0354	-2.9167	-2.4479	-2.225	-3.0708	-2.175	-2.6708	-2.6958	-2.0792	-2.9542	-2.4729	238.714	344.221	340.028	412.932	215.470	418.544	377.494	384.120	387.484	239.301	399.949	385.272	204.528	343.353	405.950	307.985	0.00059837	0.00013264	0.00014653	1061.2	1.8725e-07	1.7116e-06	1154.5	226.98	5.6163e-06	3.5465e-06	285.66	80.938	62.679	18.609	4.9955e-06	25.983	0.00015658	0.00014071	3.7646e-05	986.96	1.6866e-06	1.5545e-06	1075.6	214.41	1.6787e-06	1.5418e-06	258.24	75.308	58.903	17.768	1.5197e-06	24.675	367.068	149.521	122.243	81.198	397.573	258.626	81.338	88.978	164.197	102.460	88.521	95.451	95.905	102.689	224.387	101.954	-8191	255	
6988.238	1	1	0	0	0.1666	0.24656	0.026827	0.23712	0.068996	0.11309	0.28759	0.098895	0.29458	0.24031	0.25207	0.18265	0.05937	0.076584	0.20543	0.05838	-2.0438	-2.8167	-2.0167	-2.5729	-2.6375	-2.2167	-2.8021	-2.5583	-2.5312	-2.7958	-2.2271	-2.4625	-2.6042	-2.1104	-2.8792	-2.3979	336.532	322.527	412.342	394.684	158.625	347.902	350.168	78.657	242.270	103.080	360.516	329.777	354.669	87.744	264.243	94.159	0.00067134	7.9667e-05	8.9805e-05	1061.8	1.7912e-06	2.88e-06	1155.8	226.38	3.939e-06	3.4418e-06	286.08	80.733	63.327	18.687	1.7902e-06	26.054	0.00015112	0.00013791	3.9443e-05	990.45	1.6191e-06	1.5335e-06	1076.9	214.14	1.5997e-06	1.481e-06	258.87	75.264	58.832	17.745	1.625e-06	24.623	358.396	214.568	158.335	81.279	219.587	197.070	81.195	88.767	306.293	317.624	88.634	95.611	95.596	102.427	149.725	102.146	-8191	255	
6988.334	1	1	0	0	0.14429	0.11958	0.034046	0.21857	0.089415	0.11273	0.10395	0.31411	0.24588	0.12	0.19047	0.1226	0.13298	0.14012	0.24733	0.13068	-1.8375	-2.8583	-2.3063	-2.6312	-2.9354	-2.1208	-2.9333	-2.7667	-2.1875	-3.0083	-2.4979	-2.4667	-2.7792	-2.2458	-2.5792	-2.5583	106.241	256.162	248.232	384.530	337.509	345.911	187.992	358.402	276.752	172.125	324.792	194.598	174.860	102.139	242.686	167.325	0.00077025	0.00028886	6.3525e-05	1058.1	7.488e-07	1.8033e-06	1153.8	226.08	2.1076e-06	3.8411e-06	287.14	80.239	63.225	18.688	3.0952e-06	26.048	0.0001469	0.00013397	4.2146e-05	988.01	1.5661e-06	1.4772e-06	1079.9	213.58	1.5621e-06	1.4574e-06	260.48	74.855	58.575	17.699	1.7221e-06	24.582	362.839	386.051	227.415	81.294	151.289	342.551	81.396	89.156	422.867	93.944	88.412	95.595	95.492	102.775	189.123	102.155	-8191	255	
6988.430	1	1	0	0	0.042208	0.21228	0.10336	0.15102	0.14012	0.060474	0.17233	0.1272	0.11576	0.39957	0.085603	0.2488	0.1079	0.14573	0.14154	0.056965	-1.5917	-2.675	-2.4667	-2.3	-3.0938	-2.0417	-2.6333	-2.7687	-2.0167	-2.725	-2.5146	-2.4458	-2.9833	-2.2	-2.5167	-2.8104	77.275	299.899	121.293	111.565	282.239	90.385	395.553	246.017	309.507	375.578	415.859	417.287	89.062	134.887	212.165	146.005	0.00057072	0.00033569	0.00014029	1063.2	2.9278e-06	4.3376e-06	1151.7	227.04	1.0031e-06	2.7051e-06	287.94	80.624	62.913	18.629	2.3109e-06	25.886	0.00014299	0.0001374	4.5059e-05	988.56	1.5319e-06	1.5391e-06	1082.6	213.67	1.5245e-06	1.5333e-06	261.58	74.752	58.636	17.81	1.7762e-06	24.396	372.173	131.962	160.915	81.112	153.684	181.639	81.228	88.796	361.246	132.613	88.592	95.361	95.357	102.638	227.488	101.768	-8191	255	
6988.526	1	1	0	0	0.12364	0.21882	0.14591	0.21592	0.18671	0.13659	0.041427	0.2694	0.20774	0.046853	0.16527	0.13932	0.20309	0.10012	0.23795	0.11828	-1.5604	-2.6708	-2.5667	-2.1896	-2.9188	-2.3333	-2.5146	-2.85	-1.9708	-2.7396	-2.7938	-2.3292	-2.8875	-2.4333	-2.4313	-2.9333	185.256	95.077	111.726	370.255	112.621	173.111	331.595	376.661	245.656	181.847	404.777	324.538	313.867	74.309	185.351	400.398	0.00066	0.000226	2.9336e-05	1060.9	1.4033e-06	2.4427e-06	1162.6	227.79	3.4572e-06	3.4741e-06	287.31	80.926	62.848	18.594	4.0407e-06	25.94	0.00014094	0.00014699	4.4731e-05	985.88	1.5027e-06	1.6402e-06	1085.1	213.43	1.4873e-06	1.6344e-06	261.08	74.748	58.559	17.934	1.6887e-06	24.41	367.504	135.599	86.522	81.020	139.646	206.190	81.104	88.921	269.083	194.797	88.287	95.111	95.458	102.317	160.082	101.593	-8191	255	
6988.645	1	1	0	0	0.06387	0.19206	0.19443	0.28277	0.23046	0.091522	0.28284	0.19109	0.048481	0.19136	0.12657	0.34275	0.2099	0.27784	0.24316	0.048269	-1.6437	-2.7854	-2.6625	-2.1271	-2.7896	-2.6604	-2.4396	-2.7562	-2.2083	-2.4813	-2.7375	-2.1542	-2.7146	-2.3833	-2.275	-2.9667	122.923	185.618	362.240	388.430	117.108	378.960	419.846	351.258	129.769	265.514	85.750	387.095	135.454	146.148	327.526	360.038	0.0006458	8.3724e-05	4.9701e-05	1066	3.5491e-06	1.7122e-06	1160.8	227.41	3.6995e-06	4.8212e-06	286.82	80.256	63.024	18.669	5.6285e-06	25.943	0.00013586	0.00015217	4.2069e-05	986.64	1.4432e-06	1.7096e-06	1082.9	212.75	1.4927e-06	1.7051e-06	258.98	74.498	58.405	17.998	1.6109e-06	24.263	357.343	260.111	254.107	81.089	188.503	273.105	81.104	88.699	217.088	178.168	88.328	95.323	95.774	103.094	278.207	102.194	-8191	255	
#DATA ENDS
