BOXY.EXE: ISS Imagent and Oximeter Data Acquisition Program Version 0.80
Ascii Record File

#ACQ INFORMATION
2  Detector Channels 
16  External MUX Channels 
1  Auxiliary Channels 
5000  Waveform (CCF) Frequency (Hz)
1  Waveforms Skipped 
30  Waveforms Averaged 
1  Cycles Averaged 
16  Acquisitions per Waveform 
10.0806  Updata Rate (Hz) 

#FILE INFORMATION
TRUE -- External MUX Channel results are PARSED.
FALSE -- AC DC and Phase are NOT grouped.
TRUE -- Companion Program Settings File CREATED.
FALSE -- AC data not excluded
FALSE -- DC data not excluded
FALSE -- Phase data not excluded
FALSE -- Auxillary Chn. data not excluded
Tab delimiters

#CALIBRATION STATE
TRUE -- Waveform Calibration Values APPLIED.


#AUX CALIBRATION VALUES
Val Type	aux-1	

Term	1.0000e+00	
Factor	0.0000e+00	


#WF CALIBRATION VALUES
A = Detector Channel
Val Type	A-AC1	A-AC2	A-AC3	A-AC4	A-AC5	A-AC6	A-AC7	A-AC8	A-AC9	A-AC10	A-AC11	A-AC12	A-AC13	A-AC14	A-AC15	A-AC16	A-DC1	A-DC2	A-DC3	A-DC4	A-DC5	A-DC6	A-DC7	A-DC8	A-DC9	A-DC10	A-DC11	A-DC12	A-DC13	A-DC14	A-DC15	A-DC16	A-Ph1	A-Ph2	A-Ph3	A-Ph4	A-Ph5	A-Ph6	A-Ph7	A-Ph8	A-Ph9	A-Ph10	A-Ph11	A-Ph12	A-Ph13	A-Ph14	A-Ph15	A-Ph16	

Term	0.00000e+00	0.00000e+00	0.00000e+00	0.00000e+00	0.00000e+00	0.00000e+00	0.00000e+00	0.00000e+00	0.00000e+00	0.00000e+00	0.00000e+00	0.00000e+00	0.00000e+00	0.00000e+00	0.00000e+00	0.00000e+00	0.00000e+00	0.00000e+00	0.00000e+00	0.00000e+00	0.00000e+00	0.00000e+00	0.00000e+00	0.00000e+00	0.00000e+00	0.00000e+00	0.00000e+00	0.00000e+00	0.00000e+00	0.00000e+00	0.00000e+00	0.00000e+00	0.00000e+00	0.00000e+00	0.00000e+00	0.00000e+00	0.00000e+00	0.00000e+00	0.00000e+00	0.00000e+00	0.00000e+00	0.00000e+00	0.00000e+00	0.00000e+00	0.00000e+00	0.00000e+00	0.00000e+00	0.00000e+00	
Factor	1.00000e+00	1.00000e+00	1.00000e+00	1.00000e+00	1.00000e+00	1.00000e+00	1.00000e+00	1.00000e+00	1.00000e+00	1.00000e+00	1.00000e+00	1.00000e+00	1.00000e+00	1.00000e+00	1.00000e+00	1.00000e+00	1.00000e+00	1.00000e+00	1.00000e+00	1.00000e+00	1.00000e+00	1.00000e+00	1.00000e+00	1.00000e+00	1.00000e+00	1.00000e+00	1.00000e+00	1.00000e+00	1.00000e+00	1.00000e+00	1.00000e+00	1.00000e+00	X	X	X	X	X	X	X	X	X	X	X	X	X	X	X	X	

B = Detector Channel
Val Type	B-AC1	B-AC2	B-AC3	B-AC4	B-AC5	B-AC6	B-AC7	B-AC8	B-AC9	B-AC10	B-AC11	B-AC12	B-AC13	B-AC14	B-AC15	B-AC16	B-DC1	B-DC2	B-DC3	B-DC4	B-DC5	B-DC6	B-DC7	B-DC8	B-DC9	B-DC10	B-DC11	B-DC12	B-DC13	B-DC14	B-DC15	B-DC16	B-Ph1	B-Ph2	B-Ph3	B-Ph4	B-Ph5	B-Ph6	B-Ph7	B-Ph8	B-Ph9	B-Ph10	B-Ph11	B-Ph12	B-Ph13	B-Ph14	B-Ph15	B-Ph16	

Term	0.00000e+00	0.00000e+00	0.00000e+00	0.00000e+00	0.00000e+00	0.00000e+00	0.00000e+00	0.00000e+00	0.00000e+00	0.00000e+00	0.00000e+00	0.00000e+00	0.00000e+00	0.00000e+00	0.00000e+00	0.00000e+00	0.00000e+00	0.00000e+00	0.00000e+00	0.00000e+00	0.00000e+00	0.00000e+00	0.00000e+00	0.00000e+00	0.00000e+00	0.00000e+00	0.00000e+00	0.00000e+00	0.00000e+00	0.00000e+00	0.00000e+00	0.00000e+00	-6.21754e+01	-1.29907e+02	-1.24308e+02	-1.80762e+02	-5.26411e+01	-6.17388e+01	-1.54848e+02	-1.62015e+02	-4.22166e+01	-7.04166e+01	-1.70366e+02	-1.69164e+02	-1.78724e+02	-1.75805e+02	-5.78430e+01	-1.48156e+02	
Factor	1.71954e-05	1.67617e-04	4.33893e-05	1.54313e-01	1.43465e-06	1.59009e-06	1.64624e-01	6.03797e-02	1.16268e-06	1.56915e-06	8.76266e-02	2.82588e-02	2.37562e-02	8.66378e-03	1.59200e-06	1.25101e-02	5.98073e-06	7.73180e-06	2.16888e-06	7.96205e-02	8.16941e-08	8.55453e-08	7.98241e-02	3.12165e-02	8.23015e-08	8.55736e-08	4.39271e-02	1.42219e-02	1.24740e-02	4.52282e-03	8.38410e-08	6.30525e-03	X	X	X	X	X	X	X	X	X	X	X	X	X	X	X	X	



#DISTANCE SETTINGS
A = Detector Channel
A-1	A-2	A-3	A-4	A-5	A-6	A-7	A-8	A-9	A-10	A-11	A-12	A-13	A-14	A-15	A-16	

2.5000e+00	3.0000e+00	2.5000e+00	3.0000e+00	2.0000e+00	3.0000e+00	1.5000e+00	3.0000e+00	3.0000e+00	3.0000e+00	3.0000e+00	3.0000e+00	3.0000e+00	3.0000e+00	1.5000e+00	3.0000e+00	

B = Detector Channel
B-1	B-2	B-3	B-4	B-5	B-6	B-7	B-8	B-9	B-10	B-11	B-12	B-13	B-14	B-15	B-16	

1.0000e+01	1.0000e+01	1.0000e+01	1.4400e+00	1.0000e+01	1.0000e+01	1.5100e+00	1.9400e+00	1.0000e+01	1.0000e+01	1.9900e+00	2.4900e+00	2.4100e+00	2.9000e+00	1.0000e+01	2.9800e+00	




#DATA BEGINS
time	group	step	mark	flag	A-AC1	A-AC2	A-AC3	A-AC4	A-AC5	A-AC6	A-AC7	A-AC8	A-AC9	A-AC10	A-AC11	A-AC12	A-AC13	A-AC14	A-AC15	A-AC16	A-DC1	A-DC2	A-DC3	A-DC4	A-DC5	A-DC6	A-DC7	A-DC8	A-DC9	A-DC10	A-DC11	A-DC12	A-DC13	A-DC14	A-DC15	A-DC16	A-Ph1	A-Ph2	A-Ph3	A-Ph4	A-Ph5	A-Ph6	A-Ph7	A-Ph8	A-Ph9	A-Ph10	A-Ph11	A-Ph12	A-Ph13	A-Ph14	A-Ph15	A-Ph16	B-AC1	B-AC2	B-AC3	B-AC4	B-AC5	B-AC6	B-AC7	B-AC8	B-AC9	B-AC10	B-AC11	B-AC12	B-AC13	B-AC14	B-AC15	B-AC16	B-DC1	B-DC2	B-DC3	B-DC4	B-DC5	B-DC6	B-DC7	B-DC8	B-DC9	B-DC10	B-DC11	B-DC12	B-DC13	B-DC14	B-DC15	B-DC16	B-Ph1	B-Ph2	B-Ph3	B-Ph4	B-Ph5	B-Ph6	B-Ph7	B-Ph8	B-Ph9	B-Ph10	B-Ph11	B-Ph12	B-Ph13	B-Ph14	B-Ph15	B-Ph16	aux-1	digaux	

1022.596	1	1	0	768	0.090971	0.056021	0.12921	0.41799	0.22689	0.10988	0.18323	0.37061	0.20919	0.092177	0.32501	0.22241	0.31675	0.099608	0.052831	0.32247	-1.5771	-2.2125	-2.5812	-2.2604	-2.5479	-2.3875	-2.4667	-2.6167	-2.3604	-2.2958	-2.6792	-2.2938	-2.4875	-2.7417	-2.0917	-2.7729	238.514	170.941	327.578	347.274	371.943	105.402	96.479	360.401	101.650	107.980	379.625	77.979	386.786	393.741	271.171	379.898	0.00066023	0.0011567	0.00042092	1140.4	1.5157e-05	5.9151e-06	1390.4	421.17	1.874e-05	8.3837e-06	543.95	215.95	159.86	75.232	2.0615e-05	107.91	0.0065055	0.0082001	0.0023117	1155.2	8.7217e-05	9.3742e-05	1382.6	430.03	8.9899e-05	9.0574e-05	560.63	218.88	165.02	77.106	8.786e-05	109.12	215.553	373.071	124.875	63.295	161.326	159.780	62.523	69.473	226.749	125.897	67.157	72.558	75.665	79.883	199.375	75.916	-8191	255	
1022.692	1	1	0	0	0.11423	0.1966	0.097061	0.33485	0.14739	0.13476	0.14928	0.14356	0.23309	0.054282	0.22418	0.19356	0.27029	0.36896	0.2298	0.20359	-1.9229	-2.2125	-2.6875	-2.4229	-2.4208	-2.5542	-2.3896	-2.8542	-2.2917	-2.2896	-2.6979	-2.5417	-2.6646	-2.7167	-2.175	-2.8021	299.859	291.978	89.052	370.891	147.301	266.188	345.444	403.539	247.617	118.621	385.592	366.118	52.915	409.766	153.915	372.267	0.00079327	0.00056299	0.00046722	1139.4	1.7229e-05	1.3131e-05	1390	422.22	8.7624e-06	8.9379e-06	549.99	218.09	160.68	75.792	1.0225e-05	108.84	0.0066198	0.0081568	0.0023014	1154.5	8.611e-05	9.2089e-05	1383.2	430.98	8.8639e-05	8.9796e-05	562.45	220.34	165.86	77.527	8.75e-05	109.78	223.849	119.512	103.148	63.478	230.090	181.977	62.584	69.636	192.792	178.555	67.359	72.382	75.749	79.625	247.402	76.028	-8191	255	
1022.789	1	1	0	0	0.0721	0.11361	0.20658	0.10463	0.10862	0.069986	0.27581	0.083266	0.45019	0.23542	0.29056	0.18073	0.15454	0.28676	0.26822	0.40564	-1.7542	-2.1604	-2.5417	-2.2083	-2.3271	-2.5042	-2.6063	-2.7104	-2.4479	-2.2687	-2.8875	-2.3521	-2.4417	-2.7646	-2.1771	-2.6167	236.982	333.763	232.835	398.494	152.955	220.796	317.903	364.742	95.530	316.382	377.857	387.462	398.570	80.451	292.176	391.717	0.00065409	0.00069518	0.00041511	1142.2	2.2154e-05	1.3723e-05	1395.7	422.75	1.1266e-05	1.3857e-05	548	216.69	160.09	75.593	2.552e-05	108.22	0.0065438	0.0080359	0.0022613	1157.6	8.4734e-05	9.0793e-05	1386.6	431.72	8.8214e-05	8.7723e-05	559.88	219.4	165.4	77.2	8.7633e-05	109.23	238.095	123.210	204.813	63.622	185.581	237.125	62.550	69.639	192.213	102.462	67.382	72.715	75.723	79.657	214.587	76.258	-8191	255	
1022.885	1	1	0	0	0.35721	0.40367	0.09327	0.2889	0.087699	0.1206	0.16778	0.16479	0.15816	0.25029	0.2701	0.23701	0.15015	0.40563	0.2235	0.14267	-2.0229	-2.3083	-2.5854	-2.5375	-2.3042	-2.5771	-2.3667	-2.4396	-2.6479	-2.2125	-2.7375	-2.5	-2.1917	-2.875	-2.2083	-2.7208	69.831	346.414	350.770	379.954	106.061	253.920	354.239	392.253	218.642	120.902	55.477	310.357	352.108	342.308	188.907	372.489	0.00079915	0.0010166	9.2181e-05	1139.4	6.3738e-06	5.9555e-06	1387.2	423.48	9.9201e-06	1.4319e-05	544.1	216.01	159.77	75.226	2.4126e-05	107.88	0.0066061	0.0079922	0.0022712	1156.3	8.5081e-05	9.0578e-05	1381.9	431.2	8.8809e-05	8.894e-05	559.34	219.01	165.06	76.963	8.9346e-05	108.96	233.406	142.475	241.742	63.415	241.938	391.365	62.615	69.608	151.244	204.264	67.116	72.070	75.597	79.803	210.727	76.016	-8191	255	
1022.981	1	1	0	0	0.14388	0.022231	0.16952	0.29568	0.19801	0.17662	0.28728	0.26826	0.088139	0.29978	0.19207	0.11106	0.38423	0.23689	0.12873	0.15308	-2.1021	-2.025	-2.4542	-2.5375	-2.3438	-2.7271	-2.3667	-2.4667	-2.5167	-2.1208	-2.6771	-2.4292	-2.1104	-2.8979	-2.1083	-2.5167	121.608	337.693	314.307	395.363	139.760	386.241	92.280	277.707	364.863	120.106	368.956	389.379	366.756	370.611	389.898	322.987	0.0010029	0.00053344	0.00051918	1136.9	1.3781e-05	1.2243e-05	1383.3	420.09	7.8064e-06	1.0222e-05	541.53	215.05	158.76	74.906	1.3501e-05	107.09	0.0067094	0.0081964	0.002336	1156.7	8.7286e-05	9.1806e-05	1380.6	429.7	8.9902e-05	9.1186e-05	557.69	218.65	164.72	76.695	9.1174e-05	108.7	226.180	109.085	142.100	63.549	148.154	199.952	62.591	69.615	240.747	227.501	67.492	72.464	75.647	79.932	213.754	76.082	-8191	255	
1023.077	1	1	0	0	0.12788	0.10774	0.16277	0.097106	0.02342	0.13492	0.60798	0.11911	0.17717	0.33201	0.056398	0.10557	0.11927	0.33565	0.2655	0.42093	-2.0646	-1.8813	-2.3917	-2.5479	-2.2333	-2.5354	-2.4188	-2.2729	-2.6479	-2.2938	-2.5146	-2.7229	-2.1437	-2.6271	-2.3021	-2.3354	278.393	176.841	237.881	314.769	353.005	60.500	358.188	364.440	278.311	99.074	150.372	239.742	262.870	341.321	70.402	357.648	0.0007875	0.0010604	0.00040997	1145.9	6.8339e-06	2.8427e-06	1391.4	423.43	1.068e-06	7.619e-06	546.52	215.25	159.84	75.103	1.8998e-05	107.6	0.0066624	0.0082098	0.0023076	1160.1	8.5492e-05	9.1758e-05	1385.1	431.21	8.7899e-05	9.0407e-05	561.13	219.56	165.14	77.009	9.1302e-05	108.81	224.033	406.225	103.460	63.385	262.356	155.010	62.801	69.441	122.273	336.881	67.426	72.452	75.655	79.966	206.885	76.129	-8191	255	
1023.198	1	1	0	0	0.051947	0.063868	0.27663	0.3812	0.011211	0.28567	0.2104	0.30009	0.25938	0.11028	0.28455	0.079737	0.26087	0.39823	0.12337	0.06981	-2.1146	-2.2417	-2.3563	-2.7062	-2.0917	-2.6417	-2.6312	-2.3563	-2.675	-2.3604	-2.3438	-2.7958	-1.9646	-2.7479	-2.4875	-2.3333	286.998	385.046	300.085	344.257	387.369	354.984	327.079	393.306	262.341	251.568	91.160	379.128	58.813	367.305	110.665	341.528	0.00062947	0.0025926	0.00048543	1135.3	1.9538e-05	2.5236e-05	1386.3	419.84	1.3453e-05	1.3192e-05	545.01	215.73	159.56	74.71	9.4131e-06	107.5	0.0066538	0.0082145	0.0023551	1157.1	8.7634e-05	9.208e-05	1387.5	429.52	8.8525e-05	9.2853e-05	559.11	219.15	164.76	76.7	9.1286e-05	108.46	224.094	196.570	65.048	63.595	173.258	222.747	62.518	69.398	254.865	335.564	67.652	72.306	75.440	79.834	260.565	76.096	-8191	255	
1023.292	1	1	0	0	0.10943	0.093187	0.48726	0.13269	0.18104	0.25752	0.30691	0.18634	0.42928	0.22563	0.19053	0.048585	0.2728	0.27201	0.2681	0.15595	-2.3375	-2.2146	-2.4208	-2.7188	-2.2083	-2.3917	-2.7	-2.3937	-2.625	-2.0958	-2.4208	-2.8458	-2.3542	-2.6896	-2.475	-2.3625	68.360	219.233	215.031	366.522	249.482	321.303	351.047	358.354	131.162	139.319	338.640	59.087	104.214	382.560	404.639	92.713	0.0006077	0.0020808	5.7699e-05	1136	1.285e-05	1.4278e-05	1386.7	420.02	3.4384e-06	1.2577e-05	540.06	215.51	160.71	74.972	8.3759e-06	107.62	0.0065285	0.0082842	0.0023036	1156.3	8.6944e-05	9.0525e-05	1382.1	428.66	8.6683e-05	9.1267e-05	557.51	218.65	165.4	76.843	9.052e-05	108.65	204.194	133.305	273.196	63.427	187.597	301.849	62.671	69.649	383.055	235.017	67.438	72.181	75.606	79.800	270.213	75.957	-8191	255	
1023.388	1	1	0	0	0.33583	0.066082	0.074768	0.23657	0.23056	0.13381	0.14849	0.15414	0.18383	0.097775	0.21492	0.28747	0.40839	0.19054	0.14794	0.40727	-2.1604	-2.2104	-2.0354	-2.6937	-2.1854	-2.2479	-2.6937	-2.2396	-2.5625	-2.2938	-2.2854	-2.6104	-2.2354	-2.7542	-2.4375	-2.3896	63.098	317.537	121.878	342.210	410.252	296.777	55.081	375.003	145.991	401.915	385.011	387.627	401.585	370.245	286.245	381.417	0.0006912	0.00011061	0.00069795	1142.1	6.5708e-06	1.1864e-05	1394	417.58	1.416e-05	9.5536e-06	541.78	215.21	159.54	75.074	1.7203e-05	107.3	0.0065107	0.0082556	0.0022997	1154.6	8.6524e-05	9.04e-05	1384.7	428.01	8.7337e-05	9.3289e-05	556.36	218.41	164.62	76.71	9.1046e-05	108.42	217.479	270.013	113.729	63.272	120.783	198.144	62.516	69.588	248.733	214.680	67.445	72.324	75.705	79.779	244.164	75.915	-8191	255	
1023.484	1	1	0	0	0.060472	0.13625	0.37098	0.074854	0.020304	0.031474	0.31661	0.073255	0.18221	0.22921	0.096908	0.22319	0.13228	0.24533	0.10353	0.19445	-2.1104	-2.4583	-2.2958	-2.6708	-2.3	-2.3896	-2.7917	-2.3187	-2.5	-2.3833	-2.4354	-2.7625	-2.2188	-2.7917	-2.6125	-2.3021	245.756	212.963	69.533	299.377	148.130	356.963	334.291	394.936	115.044	283.581	306.570	389.734	398.512	347.162	345.615	64.782	0.0006401	0.00024989	0.00026108	1141.5	7.9785e-06	3.9451e-06	1379.7	417.16	4.0506e-06	1.7023e-06	542.6	214.37	158.82	75.109	4.2923e-06	107.2	0.0066016	0.0085003	0.002342	1152.8	8.8919e-05	9.1981e-05	1384.3	426.91	8.8802e-05	9.4388e-05	558.17	218.38	164.64	76.799	9.1353e-05	108.57	225.343	152.834	324.873	63.499	184.275	377.679	62.814	69.582	141.552	175.890	67.708	72.317	75.504	79.693	395.796	76.005	-8191	255	
1023.580	1	1	0	0	0.13576	0.09671	0.19461	0.055971	0.032335	0.18126	0.41485	0.28837	0.12203	0.25695	0.19485	0.30161	0.55318	0.080074	0.29021	0.048986	-2.0187	-2.6417	-2.0563	-2.6937	-2.2271	-2.4729	-2.6542	-2.2438	-2.3896	-2.3917	-2.3583	-2.7604	-2.6625	-2.5417	-2.5812	-2.3187	105.653	402.952	277.110	369.772	328.504	169.396	306.687	389.750	119.463	232.552	402.592	370.887	65.695	405.959	368.565	141.631	0.00072352	0.0015888	0.00073464	1141	1.9828e-05	2.7551e-05	1390.5	419.33	1.6765e-05	8.0684e-06	548.82	215.47	159.6	74.622	1.0084e-05	107.32	0.0066686	0.0085656	0.0023469	1154.4	8.9963e-05	9.1831e-05	1384.1	428.33	9.0017e-05	9.4609e-05	559.39	218.96	164.94	76.721	9.0851e-05	108.79	231.394	283.445	163.108	63.521	251.161	182.833	62.604	69.417	187.512	167.010	67.471	72.587	75.456	79.848	180.748	76.052	-8191	255	
1023.677	1	1	0	0	0.19915	0.10858	0.18339	0.16841	0.067469	0.053901	0.1621	0.037728	0.14575	0.18707	0.25289	0.23108	0.20446	0.14216	0.16175	0.099168	-1.9875	-2.3812	-2.0583	-2.675	-2.4	-2.2104	-2.8208	-2.3729	-2.5167	-2.4458	-2.3937	-2.6854	-2.6083	-2.4437	-2.7604	-2.4313	243.769	312.866	63.881	60.009	147.945	191.157	319.492	355.400	84.553	92.537	375.921	288.816	361.190	125.952	240.343	341.549	0.00071118	0.0011245	0.00037404	1139.5	1.6037e-05	2.1795e-05	1378.1	417.48	1.1179e-05	8.5598e-06	544.64	214.38	159.24	74.677	1.6471e-05	106.98	0.0066451	0.008584	0.0023393	1155.1	9.0894e-05	9.2228e-05	1379.6	427.71	8.9701e-05	9.436e-05	557.65	218.08	164.9	76.528	9.0532e-05	108.42	228.281	118.170	180.260	63.618	385.544	199.633	62.533	69.591	349.244	108.623	67.518	72.460	75.509	79.826	194.495	76.217	-8191	255	
1023.797	1	1	0	0	0.23551	0.213	0.45973	0.41632	0.11606	0.097482	0.37279	0.16943	0.10623	0.076408	0.14444	0.2173	0.12347	0.30032	0.1734	0.1913	-1.7083	-2.4729	-2.0354	-2.475	-2.4646	-2.2542	-2.7771	-2.3458	-2.2021	-2.5917	-2.3583	-2.4062	-2.5479	-2.4583	-2.5729	-2.5292	202.794	58.668	58.814	382.023	213.661	339.313	328.143	401.475	292.249	179.078	364.173	391.738	321.486	361.216	269.648	332.212	0.000781	0.0022435	7.2848e-05	1137.3	1.0946e-05	2.4591e-05	1387.7	417.41	1.2565e-05	5.2432e-06	544.98	216.01	159.74	75.112	7.5164e-06	107.09	0.006595	0.0085556	0.0023236	1152.1	9.0445e-05	9.2651e-05	1380.2	428.35	8.9372e-05	9.395e-05	558.61	218.42	165.43	76.778	9.0104e-05	108.81	229.612	133.161	279.116	63.651	226.829	176.034	62.478	69.741	281.392	222.472	67.345	72.575	75.763	79.720	140.307	75.999	-8191	255	
1023.893	1	1	0	0	0.20619	0.18231	0.073993	0.14307	0.14622	0.19869	0.13692	0.63095	0.37193	0.25088	0.32421	0.29768	0.076615	0.34996	0.13369	0.31863	-1.6812	-2.3458	-2.1562	-2.7313	-2.5146	-2.2271	-2.6146	-2.5625	-2.2125	-2.4417	-2.2667	-2.4688	-2.7313	-2.1708	-2.6146	-2.625	318.012	325.813	262.727	78.553	74.491	87.722	212.640	341.566	65.595	321.705	366.778	354.001	56.980	354.021	196.229	323.583	0.00073163	0.0006915	0.00061021	1137.3	1.1191e-05	5.235e-06	1388.9	421.28	1.2757e-05	8.2767e-06	546.45	217.19	160.27	75.095	1.4521e-05	107.73	0.0065869	0.0083945	0.0023268	1154.9	8.9103e-05	9.0992e-05	1382.6	430.05	8.7991e-05	9.202e-05	560.09	219.06	165.57	76.87	9.03e-05	109.15	225.991	185.393	172.047	63.385	242.933	152.594	62.736	69.486	198.032	265.483	67.323	72.436	75.457	79.650	215.261	76.145	-8191	255	
1023.990	1	1	0	0	0.068668	0.10124	0.20436	0.11492	0.11468	0.22843	0.2037	0.12248	0.11796	0.11945	0.21583	0.37589	0.26572	0.21693	0.229	0.19698	-1.5375	-2.6604	-2.2125	-2.5292	-2.5687	-2.15	-2.6813	-2.4458	-2.2417	-2.5833	-2.325	-2.5792	-2.5563	-2.4521	-2.4562	-2.6562	172.172	352.449	154.833	303.660	388.664	100.907	332.271	404.776	369.355	410.360	366.043	323.976	356.328	357.376	117.595	350.203	0.00075825	0.00051548	0.00044214	1137.2	7.3148e-06	1.2421e-05	1389.2	418.34	1.4083e-05	1.3786e-05	547.02	214.99	159.96	74.945	1.8929e-05	108.21	0.0066421	0.0083926	0.002343	1155.4	8.9399e-05	9.1664e-05	1384.3	430.1	8.9165e-05	9.2749e-05	560.97	219.02	165.7	76.887	9.2177e-05	109.55	209.874	378.976	135.899	63.680	230.621	188.140	62.560	69.665	244.321	361.663	67.332	72.258	75.515	79.696	213.933	76.145	-8191	255	
1024.086	1	1	0	0	0.25982	0.13251	0.12872	0.16131	0.10468	0.087663	0.35802	0.39298	0.27157	0.02501	0.36584	0.20552	0.18068	0.22636	0.20183	0.26564	-1.675	-2.4521	-2.1875	-2.5771	-2.6188	-2.1562	-2.5	-2.6708	-2.0333	-2.5708	-2.4271	-2.3708	-2.5958	-2.3771	-2.4188	-2.6146	209.525	63.574	226.578	364.365	175.595	198.289	351.354	367.968	287.635	289.127	364.389	395.337	79.393	351.120	333.488	351.363	0.00073738	0.00068067	0.00045564	1141.4	3.0887e-06	9.2005e-06	1390.5	418.11	1.3719e-05	5.7924e-06	546.31	214.32	158.66	74.42	1.2329e-05	106.88	0.0066994	0.0083563	0.0023954	1156.8	8.9721e-05	9.3367e-05	1387.2	429.69	8.9872e-05	9.3186e-05	560.73	218.37	164.44	76.327	9.2854e-05	108.42	207.542	81.553	176.991	63.613	161.800	103.597	62.654	69.469	264.733	342.298	67.460	72.434	75.576	79.538	234.740	76.029	-8191	255	
1024.157	1	1	0	0	0.16635	0.3236	0.040746	0.055154	0.23734	0.23307	0.37331	0.19757	0.044337	0.045624	0.088454	0.24525	0.21676	0.12872	0.11187	0.13289	-1.6708	-2.525	-2.0208	-2.2562	-2.725	-2.2083	-2.6208	-2.6729	-2.1354	-2.3625	-2.3792	-2.3271	-2.7833	-2.4479	-2.2875	-2.6562	258.046	55.772	190.372	358.333	232.220	207.659	391.030	325.207	408.710	184.156	354.769	357.551	374.409	359.067	191.865	290.522	0.00081697	0.0015312	2.3319e-05	1134.4	1.1174e-05	1.9398e-05	1376.6	415.79	5.9564e-06	1.7203e-05	539.66	213.66	158.38	74.346	9.0099e-06	106.18	0.0068295	0.0085306	0.0024287	1153.5	9.0241e-05	9.5611e-05	1379.3	427.68	9.0236e-05	9.4033e-05	555.78	217.28	163.98	76.22	9.3328e-05	107.91	220.971	106.596	359.542	63.320	240.441	262.901	62.468	69.382	135.638	169.754	67.423	72.249	75.719	79.867	162.319	76.268	-8191	255	
1024.276	1	1	0	0	0.22291	0.071961	0.053146	0.25584	0.18651	0.148	0.14491	0.12046	0.11974	0.29	0.35208	0.17348	0.10386	0.12351	0.2489	0.20179	-1.6729	-2.3812	-2.2771	-2.2771	-2.6229	-2.2896	-2.5229	-2.7	-2.2958	-2.4479	-2.5104	-2.4354	-2.6896	-2.45	-2.3	-2.8187	243.812	115.184	302.172	380.389	86.093	394.827	355.183	304.193	338.014	381.503	391.747	372.700	406.656	328.388	109.943	354.695	0.00066609	0.0013668	0.00010677	1134.2	9.7374e-06	5.2867e-06	1385.1	415.24	7.0853e-06	1.5935e-05	540.43	213.28	158.78	74.259	1.6552e-05	106.72	0.0067894	0.0084883	0.0024528	1153.6	8.9983e-05	9.5426e-05	1381.9	427.75	8.9998e-05	9.4455e-05	557.21	217.75	164.35	76.322	9.1815e-05	108.32	215.584	218.563	407.606	63.578	199.113	400.419	62.715	69.130	171.310	274.449	67.313	72.146	75.698	79.776	192.994	76.260	-8191	255	
1024.372	1	1	0	0	0.087915	0.18181	0.17152	0.37998	0.29909	0.12748	0.072758	0.24088	0.16751	0.17243	0.10463	0.26316	0.13776	0.12497	0.22617	0.16453	-1.7104	-2.4729	-2.4625	-2.1979	-2.4688	-2.275	-2.2396	-2.8063	-2.2938	-2.5042	-2.7104	-2.2417	-2.6167	-2.4062	-2.0583	-2.775	193.828	60.654	191.103	343.727	260.250	302.117	271.008	372.920	185.334	235.084	137.421	400.582	343.094	380.015	390.019	394.720	0.00065625	0.00085959	0.00038435	1137.3	3.8186e-06	7.186e-06	1384.3	415.82	4.9313e-06	1.0235e-05	541.08	213.84	158.2	74.451	2.9611e-06	106.97	0.0067793	0.0084298	0.0024286	1157	8.9099e-05	9.5772e-05	1381.3	428.18	9.0107e-05	9.4315e-05	557.59	218.09	164.09	76.331	9.1799e-05	108.2	233.084	169.373	342.281	63.518	368.356	100.369	62.443	69.382	272.401	224.583	67.436	72.557	75.928	79.601	234.927	75.860	-8191	255	
1024.469	1	1	0	0	0.25241	0.094393	0.051696	0.17954	0.037682	0.15494	0.31751	0.31579	0.15323	0.14302	0.26848	0.13321	0.18521	0.2446	0.30957	0.27895	-1.6708	-2.2792	-2.475	-2.1813	-2.3521	-2.3417	-2.4521	-2.875	-2.2479	-2.4542	-2.6792	-2.4083	-2.6625	-2.7208	-2.1896	-2.6562	158.303	395.266	228.576	374.872	56.733	116.107	57.262	396.281	146.031	337.336	366.931	74.257	362.034	383.483	70.082	349.629	0.00077899	0.0011923	0.00020368	1139.9	1.7051e-05	1.4363e-05	1387.5	420.34	2.5779e-05	5.4825e-06	543.13	216.25	159.53	75.048	3.7641e-06	107.65	0.006778	0.0085086	0.0024228	1158.8	8.8199e-05	9.5655e-05	1383.4	429.12	8.9419e-05	9.3108e-05	559.91	219.3	164.82	77.028	9.0969e-05	108.77	222.841	123.549	187.152	63.805	280.919	193.621	62.495	69.499	169.907	219.342	67.314	72.437	75.540	79.566	295.757	76.011	-8191	255	
1024.565	1	1	0	0	0.34235	0.14547	0.21325	0.16114	0.19755	0.10025	0.43563	0.10792	0.17218	0.17812	0.37243	0.097837	0.25011	0.23695	0.15082	0.18468	-1.7083	-2.4479	-2.4646	-2.1271	-2.2354	-2.3312	-2.3271	-2.5854	-2.0542	-2.1417	-2.5458	-2.3	-2.5479	-2.7146	-2.0417	-2.7438	371.091	144.182	326.825	381.836	387.111	250.189	340.249	328.954	136.762	377.806	409.381	334.254	65.384	410.542	280.977	365.410	0.00073462	0.001173	0.00040762	1139.6	6.6649e-06	7.4722e-06	1385.5	416.91	8.0125e-06	1.6791e-05	537.75	213.33	158.32	74.436	9.7599e-06	106.95	0.0067582	0.0083171	0.0024193	1155.9	8.8921e-05	9.4772e-05	1384.9	426.95	9.0971e-05	9.3382e-05	556.83	217.75	163.67	76.276	9.0753e-05	108.11	218.423	120.691	167.594	63.445	308.692	87.410	62.740	69.526	271.939	170.967	67.250	72.405	75.532	79.516	231.393	75.912	-8191	255	
1024.685	1	1	0	0	0.031595	0.1787	0.40244	0.24952	0.10337	0.2632	0.090803	0.096845	0.16786	0.2299	0.14313	0.13174	0.41939	0.17839	0.2763	0.46668	-1.7104	-2.1083	-2.5625	-2.1229	-2.3542	-2.6	-2.3083	-2.6667	-2.1375	-2.1813	-2.7333	-2.3229	-2.5333	-2.8208	-2.1604	-2.7417	347.293	59.869	156.775	389.978	401.368	383.934	81.251	403.239	160.014	103.494	331.367	308.179	57.286	237.422	314.021	361.025	0.00087041	0.0015314	0.00032272	1135.4	1.6896e-05	2.1835e-05	1390.3	416.44	1.1474e-05	5.1855e-06	541.13	213.89	159.02	74.544	5.6075e-06	107.01	0.0068018	0.0083114	0.0023679	1154.4	8.7949e-05	9.3739e-05	1384.1	427.58	9.054e-05	9.1803e-05	556.87	217.69	164.13	76.421	8.9481e-05	108.28	217.130	136.548	256.582	63.284	221.214	246.016	62.552	69.408	183.774	173.385	67.252	72.211	75.560	79.796	130.648	76.102	-8191	255	
1024.757	1	1	0	0	0.185	0.065977	0.19208	0.10031	0.11966	0.036222	0.11384	0.13857	0.27526	0.41173	0.61356	0.28072	0.1125	0.18811	0.35299	0.27343	-2.0583	-2.2062	-2.4604	-2.3542	-2.1312	-2.3979	-2.325	-2.5167	-2.6188	-2.1771	-2.5812	-2.3646	-2.3958	-2.5396	-2.0854	-2.6521	76.853	391.172	65.217	124.966	380.969	395.097	328.728	53.440	191.613	271.944	353.674	407.787	337.296	410.447	128.320	356.373	0.00069447	0.0018669	0.0001994	1143	3.0011e-05	2.103e-05	1380.7	418.53	1.0991e-05	2.4481e-08	541.43	214.85	159.02	74.502	1.1655e-05	106.93	0.0066859	0.0082434	0.0023303	1156.3	8.6693e-05	9.1382e-05	1382.3	427.96	8.9536e-05	9.1047e-05	556.26	218.12	164.06	76.422	8.8939e-05	108.28	222.536	75.456	124.225	63.597	285.383	196.158	62.657	69.383	126.031	237.514	67.451	72.470	75.504	79.535	304.231	75.994	-8191	255	
1024.878	1	1	0	0	0.19064	0.14087	0.31637	0.063446	0.24396	0.2021	0.12234	0.16222	0.16891	0.14398	0.1969	0.16668	0.11315	0.32285	0.14097	0.26188	-1.8625	-2.1312	-2.575	-2.4729	-2.3125	-2.6208	-2.3792	-2.4979	-2.5458	-2.075	-2.6979	-2.5125	-2.4708	-2.6604	-2.1833	-2.4729	146.169	332.943	256.690	390.907	397.525	311.712	317.789	367.660	106.831	405.691	339.054	83.038	224.917	111.841	234.367	336.856	0.00077444	0.001097	0.00031026	1139.3	2.0358e-06	1.5422e-05	1383.2	417.42	2.5117e-05	1.6576e-05	546.66	213.93	159.22	75.004	7.9996e-06	107.91	0.0066713	0.0082353	0.0022848	1157.1	8.6229e-05	9.142e-05	1382.8	427.08	8.8921e-05	9.088e-05	558.28	218.01	164	76.614	8.8091e-05	108.83	224.501	64.888	110.269	63.561	372.367	235.588	62.618	69.468	259.550	274.653	67.444	72.288	75.973	79.639	273.509	76.260	-8191	255	
1024.974	1	1	0	0	0.017767	0.134	0.21536	0.26581	0.2348	0.26653	0.19886	0.18144	0.49929	0.068118	0.18894	0.17498	0.26855	0.38433	0.064876	0.22129	-1.8896	-2.1521	-2.4833	-2.6	-2.425	-2.6688	-2.3937	-2.5438	-2.4083	-2.0187	-2.625	-2.5062	-2.3625	-2.6792	-2.3354	-2.3646	196.630	160.428	140.989	375.239	83.009	395.492	325.014	407.927	102.377	85.424	345.968	357.062	389.152	387.432	393.604	305.915	0.00065601	0.00099056	7.269e-05	1143.5	1.6711e-05	1.1728e-05	1393.2	419.67	1.1929e-05	1.2664e-05	542.91	213.97	159.77	75.156	3.8185e-06	107.52	0.0066166	0.0082852	0.0022669	1158.6	8.6168e-05	9.0742e-05	1387.1	428.27	8.8489e-05	9.0415e-05	557.73	218.47	164.47	76.632	8.9459e-05	108.78	222.048	215.147	145.893	63.342	274.556	166.655	62.526	69.589	245.768	290.387	67.283	72.428	75.656	79.916	170.228	75.974	-8191	255	
1025.070	1	1	0	0	0.092431	0.21202	0.22306	0.23439	0.1372	0.25748	0.3396	0.092602	0.17594	0.31494	0.108	0.23954	0.24267	0.15043	0.18043	0.27878	-2.1208	-2.0771	-2.5979	-2.5	-2.1083	-2.4375	-2.6646	-2.4146	-2.6229	-2.2229	-2.7229	-2.5	-2.175	-2.5417	-2.2167	-2.1458	238.692	295.957	323.011	338.242	405.880	242.034	332.883	153.577	116.813	376.729	134.706	380.930	372.889	361.391	272.484	109.702	0.00075754	0.00049406	1.6778e-05	1141.2	9.0785e-06	4.0538e-06	1387	420.25	9.9103e-06	1.3712e-05	541.13	215.69	159.1	75.156	1.466e-05	108.14	0.0066101	0.0082415	0.0022882	1155.8	8.6166e-05	9.0455e-05	1383	427.63	8.8526e-05	9.0324e-05	557.69	218.87	164.73	76.749	8.9376e-05	109.18	237.187	159.194	380.741	63.447	232.711	248.626	62.906	69.466	201.664	245.050	67.264	72.622	75.498	79.611	177.959	75.905	-8191	255	
1025.166	1	1	0	0	0.16927	0.061967	0.10347	0.068869	0.079166	0.04797	0.24318	0.11392	0.26785	0.074054	0.25881	0.25673	0.18126	0.29353	0.24217	0.23217	-1.9125	-2.1292	-2.4021	-2.5854	-1.8563	-2.6021	-2.3854	-2.5396	-2.6417	-2.25	-2.6875	-2.5708	-2.3458	-2.6833	-2.4208	-2.3458	227.239	334.167	369.667	394.395	197.238	301.326	230.630	145.323	378.901	213.785	370.480	344.291	190.146	64.198	84.006	389.793	0.00075859	0.0016813	0.00026808	1142.6	7.951e-06	1.5983e-05	1387.1	422.6	3.0167e-06	1.1773e-05	546.51	216.25	160.63	75.889	7.4112e-06	108.55	0.006551	0.0082329	0.0022849	1157.3	8.6462e-05	9.0323e-05	1383.9	431.06	8.6697e-05	9.0112e-05	560.12	219.7	165.91	77.341	8.9959e-05	109.65	226.716	190.344	111.779	63.428	242.205	257.465	62.607	69.259	211.187	222.695	67.351	72.253	75.506	79.855	132.953	75.888	-8191	255	
1025.287	1	1	0	0	0.15702	0.2768	0.095954	0.16949	0.090957	0.33643	0.50631	0.2573	0.095077	0.097013	0.34561	0.23448	0.26795	0.27546	0.084596	0.2242	-2.075	-2.2292	-2.2062	-2.5896	-2.0438	-2.4917	-2.725	-2.3563	-2.4083	-2.2021	-2.3563	-2.6312	-2.2542	-2.5604	-2.5396	-2.275	156.028	282.796	136.428	351.238	204.446	168.761	331.753	361.281	252.527	184.427	315.408	376.815	353.962	373.941	281.235	336.830	0.00090177	0.0013174	0.00037704	1138.9	9.3989e-06	9.2147e-06	1388.4	420.81	7.1367e-06	1.1791e-05	544.84	216.88	160.61	75.688	1.2735e-05	108.78	0.0065017	0.0082505	0.0022596	1157.8	8.5816e-05	8.9505e-05	1385.6	430.53	8.6397e-05	9.086e-05	559.07	220.01	165.51	77.237	8.9765e-05	109.82	223.492	214.659	273.510	63.478	400.821	194.923	62.492	69.637	330.941	226.371	66.901	72.379	75.685	79.754	228.664	75.947	-8191	255	
1025.381	1	1	0	0	0.11526	0.01448	0.19674	0.034364	0.11434	0.079037	0.41414	0.15233	0.17257	0.23009	0.10441	0.067152	0.27461	0.29447	0.14238	0.30183	-2.1813	-2.3104	-2.2833	-2.8417	-2.25	-2.5458	-2.5458	-2.2104	-2.5521	-2.4792	-2.4938	-2.7667	-2.2375	-2.4	-2.5187	-2.3604	380.575	152.673	75.531	378.110	85.470	148.424	372.610	98.920	75.436	403.752	299.167	96.270	364.848	389.124	296.015	324.584	0.00082469	0.00066477	0.00013933	1146.8	1.3467e-05	2.0107e-05	1398.7	420.5	4.8601e-06	3.5057e-06	544.8	216	160.04	75.182	2.2398e-05	108.07	0.0064251	0.0082389	0.0022752	1159.4	8.6849e-05	9.0838e-05	1387.3	430.75	8.6669e-05	9.3337e-05	558.49	219.32	165.19	76.872	9.1283e-05	109.25	222.611	130.542	395.787	63.415	161.476	182.223	62.590	69.673	245.682	197.917	67.217	72.091	75.634	79.808	221.680	75.827	-8191	255	
1025.477	1	1	0	0	0.11255	0.10324	0.20608	0.26988	0.13341	0.22066	0.17953	0.17641	0.14452	0.078634	0.16629	0.3035	0.20299	0.10396	0.040479	0.14134	-2.0021	-2.2729	-2.0542	-2.6917	-2.1917	-2.4146	-2.6792	-2.2562	-2.5875	-2.3333	-2.4292	-2.6688	-2.3271	-2.4437	-2.4833	-2.3438	273.791	243.701	144.394	333.554	62.214	410.143	255.509	349.030	128.768	52.381	330.973	54.725	394.128	80.446	130.239	382.311	0.00070068	0.00084554	0.00042987	1143.1	1.9728e-05	1.7409e-05	1387	416.27	8.9976e-06	5.6368e-06	543.97	213.92	158.6	75.065	7.9413e-06	107.02	0.0065489	0.0085021	0.0023355	1158.7	8.7773e-05	9.1575e-05	1383.9	427.63	8.6966e-05	9.4039e-05	556.62	217.71	164.33	76.485	9.0708e-05	108.35	217.391	96.387	133.743	63.848	234.789	209.137	62.679	69.226	169.615	119.408	67.454	72.581	75.751	79.705	313.815	76.074	-8191	255	
1025.573	1	1	0	0	0.12081	0.18919	0.19609	0.13374	0.12246	0.037404	0.18928	0.28115	0.41697	0.19225	0.28237	0.33229	0.22074	0.42491	0.19158	0.21782	-2.0938	-2.3937	-2.2458	-2.6562	-2.1604	-2.3479	-2.8438	-2.2938	-2.5812	-2.5417	-2.1937	-2.8	-2.3958	-2.3146	-2.5625	-2.1458	355.179	354.852	383.379	409.944	214.913	178.432	338.242	402.526	219.358	204.692	346.297	377.598	324.153	70.291	303.125	310.702	0.00077746	0.0012788	0.00028221	1140.1	1.0557e-05	1.0189e-05	1381.4	416.33	1.2885e-05	1.7362e-05	538.77	214.67	158.89	74.635	8.2442e-06	106.85	0.0065633	0.0084443	0.002338	1155.1	8.8951e-05	9.148e-05	1379.5	427.41	8.6809e-05	9.4118e-05	554.85	217.21	164.22	76.467	9.0634e-05	108.3	235.780	115.856	171.296	63.332	299.889	202.456	62.553	69.561	217.189	125.424	67.232	72.212	75.575	79.711	208.009	75.949	-8191	255	
1025.670	1	1	0	0	0.22268	0.07016	0.31312	0.07662	0.087631	0.073214	0.1517	0.40163	0.13367	0.15911	0.25267	0.2292	0.38936	0.30698	0.18389	0.28112	-1.7563	-2.5042	-2.0396	-2.5354	-2.4792	-1.9583	-2.7125	-2.3833	-2.4542	-2.5875	-2.2229	-2.7229	-2.4604	-2.4208	-2.6167	-2.3375	181.395	167.534	118.906	58.424	314.537	210.249	263.461	345.820	260.117	313.053	295.684	406.843	372.952	407.784	398.069	403.896	0.0008333	0.00051212	0.0002545	1140.4	1.0783e-05	7.0338e-06	1384.4	418.89	1.1804e-05	5.682e-06	540.61	215	159.08	74.683	3.3891e-06	107.23	0.006546	0.0084031	0.0023199	1156	8.8258e-05	9.0959e-05	1379.5	428.53	8.6544e-05	9.2599e-05	554.69	217.62	164.38	76.352	9.046e-05	108.24	219.709	85.821	85.138	63.156	252.343	189.778	62.472	69.554	239.417	355.725	67.425	72.105	75.644	79.720	352.349	75.882	-8191	255	
1025.766	1	1	0	0	0.22583	0.25206	0.28434	0.42952	0.23954	0.1683	0.26738	0.14699	0.15696	0.14134	0.23389	0.36867	0.092155	0.16919	0.17778	0.25684	-1.9417	-2.5229	-2.1729	-2.6021	-2.4583	-2.4208	-2.7	-2.3292	-2.2583	-2.5563	-2.2208	-2.4771	-2.5417	-2.2917	-2.6833	-2.4333	160.918	392.978	323.141	351.435	187.075	145.900	264.281	385.245	352.981	167.535	53.184	285.115	392.530	357.824	115.694	342.374	0.00068264	0.00060895	0.00027136	1145.5	1.6092e-05	6.9538e-06	1389.1	415	5.9201e-06	7.4533e-06	538.39	212.48	158.65	74.435	1.1376e-05	106.97	0.0066081	0.0084013	0.0023562	1156.3	8.9858e-05	9.2836e-05	1380.9	427.78	8.806e-05	9.403e-05	555.22	217.17	164.09	76.305	8.9155e-05	108.36	220.915	321.952	123.079	63.588	175.149	277.898	62.637	69.507	201.722	249.236	67.233	72.222	75.505	79.669	223.391	76.190	-8191	255	
1025.862	1	1	0	0	0.17927	0.23279	0.15017	0.092704	0.10489	0.16723	0.22736	0.15737	0.20174	0.062603	0.090196	0.1312	0.18311	0.22703	0.12448	0.3694	-1.7271	-2.6271	-2.1708	-2.6917	-2.55	-2.1	-2.5917	-2.5542	-2.1771	-2.6396	-2.4	-2.5062	-2.6354	-2.2938	-2.3917	-2.5812	380.638	362.565	184.430	380.467	103.495	100.060	357.926	382.164	398.471	249.497	302.957	336.996	86.499	387.924	56.706	331.670	0.00060609	0.0020489	8.0268e-05	1142.6	1.2408e-05	1.0831e-05	1390.1	419.22	8.7502e-06	6.9582e-06	541.34	215.29	158.85	74.705	1.3036e-05	107.01	0.0066019	0.008326	0.0023321	1156.9	8.8847e-05	9.121e-05	1381.8	429.77	8.6686e-05	9.2227e-05	554.89	217.7	164.25	76.364	8.7033e-05	108.01	215.831	155.254	110.216	63.573	282.871	249.770	62.778	69.581	229.204	278.400	67.474	72.447	75.600	79.717	230.145	76.204	-8191	255	
1025.982	1	1	0	0	0.15358	0.010877	0.33251	0.35062	0.15353	0.14542	0.14845	0.24226	0.22523	0.16652	0.22932	0.242	0.23908	0.34158	0.057241	0.21342	-1.6417	-2.5	-2.0792	-2.3354	-2.4646	-2.0521	-2.5563	-2.5812	-2.125	-2.6333	-2.2812	-2.3729	-2.7458	-2.2292	-2.3312	-2.6146	245.310	197.614	51.950	351.975	258.940	382.857	366.017	356.237	93.316	213.835	57.455	367.792	319.160	368.096	239.692	57.492	0.00071934	0.0019596	0.00047401	1143.2	1.3147e-05	2.1734e-05	1381	419.05	3.9591e-06	5.5315e-06	537.01	213.4	159.37	74.788	1.5453e-05	106.8	0.0065136	0.0082541	0.0023175	1154.4	8.8044e-05	9.1138e-05	1375.7	428.46	8.746e-05	9.0413e-05	552.85	216.76	164.25	76.514	8.6412e-05	108.08	222.370	155.563	197.180	63.507	283.791	224.178	62.759	69.304	245.410	244.745	67.406	72.249	75.674	79.772	290.929	76.067	-8191	255	
1026.054	1	1	0	0	0.2217	0.15926	0.24089	0.41183	0.061398	0.21636	0.34016	0.1792	0.1276	0.089254	0.28827	0.2217	0.11069	0.31328	0.087935	0.18632	-1.6938	-2.55	-2.1833	-2.5021	-2.5208	-2.0979	-2.5687	-2.5333	-2.1271	-2.3937	-2.5521	-2.4813	-2.6458	-2.2667	-2.2562	-2.6833	277.031	103.303	278.356	356.909	102.918	307.037	312.954	388.907	214.374	290.502	61.015	390.431	320.205	353.218	187.976	92.516	0.00071361	0.0017733	0.00023877	1141.1	3.2e-06	1.3464e-05	1381.9	421.06	9.7106e-06	2.058e-06	539.4	213.67	159.51	74.78	1.8573e-05	107.06	0.0064816	0.0081037	0.002311	1154.3	8.7216e-05	9.0383e-05	1374.9	428.62	8.7721e-05	8.9034e-05	553.17	216.72	164.08	76.384	8.6834e-05	108.09	222.065	177.968	176.527	63.242	226.159	269.179	62.647	69.357	208.849	78.268	67.167	72.602	75.592	79.733	252.673	76.112	-8191	255	
1026.150	1	1	0	0	0.11321	0.23694	0.25327	0.18084	0.12149	0.10451	0.36376	0.25423	0.18452	0.16343	0.12266	0.070938	0.24142	0.18567	0.24175	0.22414	-1.5854	-2.4146	-2.325	-2.4729	-2.6542	-2.3375	-2.5458	-2.7625	-2.0667	-2.4437	-2.4958	-2.3542	-2.4417	-2.3771	-2.4292	-2.6521	379.016	306.970	325.222	71.537	269.126	69.447	319.850	370.070	99.086	350.094	240.300	380.190	369.264	71.751	117.367	351.323	0.00082955	0.00039458	0.00029752	1138.9	4.3781e-06	4.083e-06	1385.7	415.35	5.2942e-06	9.0452e-06	541.56	213.42	158.41	74.598	1.192e-05	106.95	0.0065111	0.0080443	0.0023303	1154.9	8.6685e-05	9.0472e-05	1377.8	426.48	8.7349e-05	8.9002e-05	555.11	217.14	164	76.282	8.762e-05	108.17	214.982	396.451	117.750	63.573	156.094	73.029	62.984	69.527	183.425	228.283	67.170	72.274	75.638	79.464	212.297	76.027	-8191	255	
1026.246	1	1	0	0	0.093088	0.19236	0.07808	0.3204	0.095534	0.059338	0.27916	0.1699	0.15994	0.17772	0.19812	0.35832	0.49635	0.28778	0.09243	0.2429	-1.6729	-2.3688	-2.2958	-2.4313	-2.5104	-2.1833	-2.575	-2.5938	-2.2104	-2.4896	-2.5396	-2.3354	-2.7271	-2.5438	-2.1937	-2.7583	246.511	364.860	342.396	318.536	332.428	177.030	346.447	303.095	313.663	165.939	111.608	397.910	407.077	55.120	55.313	372.414	0.00068876	0.0008021	0.00059068	1136.9	1.8527e-05	1.6543e-05	1387.2	418.38	1.3841e-05	6.6123e-06	539.47	214.01	158.75	74.563	1.274e-05	106.91	0.0065677	0.0080825	0.002317	1153.3	8.7206e-05	9.2229e-05	1379.3	427.2	8.7247e-05	8.9776e-05	554.72	217.42	164.2	76.473	8.8663e-05	108.32	218.365	124.612	203.872	63.326	263.707	120.551	62.466	69.329	228.156	219.974	67.339	72.282	75.537	79.568	293.085	75.871	-8191	255	
1026.365	1	1	0	0	0.085891	0.14527	0.28195	0.14356	0.19276	0.16776	0.22581	0.12956	0.19823	0.068894	0.11847	0.068726	0.16815	0.33607	0.2838	0.15893	-1.8042	-2.5021	-2.2812	-2.2146	-2.6292	-2.2313	-2.4375	-2.6875	-2.4083	-2.3333	-2.6937	-2.3	-2.6063	-2.6312	-2.2521	-2.7562	280.353	144.178	97.853	226.291	81.801	294.291	378.708	310.321	96.302	344.254	232.576	376.379	393.688	355.241	128.909	79.381	0.00069553	0.0015099	0.0004599	1137.6	1.4081e-05	1.0233e-05	1378.5	415.67	9.9018e-06	1.0368e-05	538.16	213.6	158.37	74.589	1.9766e-05	106.41	0.0065671	0.0081045	0.002355	1154.8	8.5412e-05	9.2283e-05	1376.7	427.03	8.8307e-05	9.0713e-05	553.54	216.87	163.82	76.512	9.0613e-05	107.81	224.080	182.747	170.313	63.622	184.692	282.149	62.635	69.628	291.921	221.401	67.335	72.249	75.880	79.634	232.721	76.425	-8191	255	
1026.461	1	1	0	0	0.10722	0.041839	0.14171	0.17517	0.063792	0.26731	0.15732	0.2774	0.10186	0.17939	0.15474	0.15479	0.14288	0.16082	0.2037	0.2184	-1.825	-2.1292	-2.5292	-2.2771	-2.4021	-2.4688	-2.2417	-2.6521	-2.0854	-2.4042	-2.6792	-2.3937	-2.5354	-2.6625	-1.925	-2.6729	288.047	285.061	367.616	371.058	246.458	110.754	304.824	358.435	91.196	334.181	292.746	339.587	68.518	377.542	332.547	353.892	0.00076868	0.0011781	0.00028647	1138.9	1.1354e-05	8.3859e-06	1382.3	417.62	2.9565e-06	6.5741e-06	538.09	212.53	158.27	74.802	1.9676e-05	106.08	0.0066772	0.0083133	0.0023853	1156.3	8.6679e-05	9.4238e-05	1378.6	427.97	9.0489e-05	9.2488e-05	554.42	216.86	164.27	76.499	9.3429e-05	107.88	216.738	143.318	396.063	63.538	228.031	188.780	62.606	69.259	106.326	212.667	67.462	72.299	75.578	79.675	241.917	75.990	-8191	255	
1026.558	1	1	0	0	0.098398	0.13403	0.11456	0.30111	0.056957	0.1711	0.094735	0.23064	0.17544	0.38587	0.26564	0.18992	0.084212	0.3082	0.16964	0.28831	-1.8542	-2.3146	-2.5604	-2.2229	-2.5167	-2.3396	-2.4188	-2.7146	-2.2771	-2.2458	-2.8688	-2.3479	-2.4896	-2.8187	-2.3812	-2.7667	84.977	221.866	248.062	374.321	145.006	203.965	302.966	65.028	68.322	347.292	393.451	358.489	291.214	378.962	218.525	363.662	0.00079419	0.0015858	0.00050585	1140.6	2.9907e-05	1.9802e-05	1379.1	418.3	3.6475e-06	1.5702e-05	537.81	213.5	158.87	74.362	1.065e-05	106.33	0.0069279	0.0085455	0.0024249	1159.1	8.9424e-05	9.6508e-05	1379.2	428.74	9.2873e-05	9.4673e-05	555.87	217.53	164.43	76.45	9.4947e-05	107.71	224.931	294.047	136.835	63.316	197.601	166.378	62.367	69.481	374.283	164.960	67.279	72.238	75.555	79.602	251.868	75.801	-8191	255	
1026.654	1	1	0	0	0.18821	0.066045	0.22787	0.30653	0.16866	0.11345	0.15904	0.12548	0.19016	0.032592	0.17835	0.080125	0.13151	0.38324	0.097331	0.2686	-1.8729	-2.0687	-2.625	-2.4021	-2.5479	-2.5208	-2.4479	-2.7229	-2.3792	-2.1854	-2.7917	-2.4938	-2.3875	-2.5979	-2.1937	-2.7313	402.986	183.974	293.886	360.024	59.621	322.996	320.992	146.486	291.860	359.739	101.122	287.202	373.798	362.063	116.441	334.737	0.00067298	0.0013422	0.00051321	1139.7	7.7927e-06	3.9497e-06	1379.5	417.77	6.2533e-06	1.5867e-05	539.4	213.08	158.93	74.538	9.7456e-06	106.81	0.0069709	0.0086209	0.0024284	1156.2	9.0009e-05	9.7131e-05	1380.7	427.73	9.2647e-05	9.5344e-05	556.66	217.55	164.3	76.502	9.4391e-05	107.96	241.489	155.428	155.401	63.408	320.540	235.146	62.571	69.317	319.663	311.333	67.462	72.392	76.086	79.770	253.776	76.070	-8191	255	
1026.750	1	1	0	0	0.2186	0.10229	0.030061	0.18702	0.07872	0.14179	0.31156	0.18911	0.11121	0.28121	0.2699	0.21243	0.016797	0.070146	0.054284	0.29842	-2.1167	-2.15	-2.6521	-2.5708	-2.2896	-2.7646	-2.5396	-2.4813	-2.5625	-2.1542	-2.8333	-2.5938	-2.5521	-2.8375	-2.2396	-2.5917	385.036	116.300	309.185	329.992	397.201	329.626	360.053	322.959	183.683	165.585	323.193	86.129	238.956	125.652	58.506	349.161	0.00093441	0.0025948	0.00025901	1140	7.0129e-06	1.1803e-06	1390	419.2	1.1927e-05	1.0406e-05	538.9	213.16	159.99	74.211	1.3254e-05	106.25	0.0069713	0.0086125	0.0024124	1160.6	8.9334e-05	9.6192e-05	1387	428.96	9.1544e-05	9.541e-05	554.67	217.41	164.89	76.366	9.2867e-05	107.57	223.795	147.893	75.125	63.492	252.590	167.448	62.663	69.155	370.494	309.788	67.513	72.276	75.585	79.921	214.118	76.110	-8191	255	
1026.846	1	1	0	0	0.11098	0.15309	0.14173	0.2769	0.23616	0.20108	0.10985	0.39347	0.10649	0.36562	0.27025	0.36043	0.073823	0.14149	0.16794	0.2083	-2.0292	-2.1396	-2.6333	-2.5917	-2.3292	-2.6396	-2.5604	-2.6688	-2.5354	-2.35	-2.5875	-2.6667	-2.4083	-2.6771	-2.2542	-2.575	381.685	143.691	290.661	410.742	327.746	298.718	68.990	330.485	332.113	293.506	338.740	62.398	54.915	126.800	291.103	375.700	0.00098392	0.0010508	0.00027458	1139.1	1.9824e-05	3.1248e-06	1381.5	416.24	1.4463e-05	1.8781e-05	537.9	213.48	158.62	74.401	3.0134e-05	105.83	0.0069022	0.0085567	0.0023589	1158.3	8.9334e-05	9.4877e-05	1377.9	427.36	9.1059e-05	9.6069e-05	553.07	217.04	164.93	76.397	9.3316e-05	107.24	218.862	139.793	280.454	63.406	204.642	224.301	62.609	69.562	219.638	148.082	67.264	72.365	75.862	79.629	195.910	75.966	-8191	255	
1026.967	1	1	0	0	0.12802	0.1389	0.033317	0.19395	0.13286	0.14702	0.17658	0.10072	0.067632	0.19957	0.25747	0.4478	0.23636	0.32234	0.28974	0.18175	-2.0938	-2.1437	-2.5229	-2.6104	-2.1917	-2.6063	-2.5875	-2.4583	-2.5333	-2.1542	-2.7583	-2.625	-2.3438	-2.6958	-2.3271	-2.425	118.848	102.464	341.637	337.793	268.738	255.326	322.616	353.853	296.707	364.417	375.631	349.607	356.057	54.163	339.000	283.165	0.00064699	0.00064835	0.00050917	1136	5.217e-06	2.2193e-05	1378.6	421.13	6.1508e-06	1.225e-05	539.83	214.06	159.43	74.507	1.1182e-05	106.17	0.006887	0.0085708	0.0023587	1158.6	9.0838e-05	9.452e-05	1379.5	429.8	9.1324e-05	9.4928e-05	553.41	217.92	165.2	76.469	9.314e-05	107.48	220.785	191.131	269.396	63.588	199.664	280.577	62.640	69.630	302.697	284.462	67.444	72.669	75.641	79.652	151.465	76.029	-8191	255	
1027.063	1	1	0	0	0.0077073	0.19443	0.10471	0.11292	0.12608	0.09323	0.087354	0.18538	0.3546	0.34319	0.091781	0.13507	0.24575	0.36277	0.15723	0.084483	-2.2083	-2.2667	-2.4917	-2.5792	-1.9688	-2.575	-2.4229	-2.4688	-2.6271	-2.2	-2.3937	-2.7521	-2.1521	-2.6854	-2.3208	-2.4333	200.504	259.510	123.675	320.154	160.891	191.875	338.457	358.442	105.174	61.049	383.076	350.721	374.017	335.002	152.109	378.742	0.00076442	0.0022367	0.00025018	1146.1	2.0096e-05	5.9087e-06	1380.4	420.36	3.3267e-06	1.2696e-05	539.83	213.15	160.29	74.892	1.6169e-05	106.48	0.0069124	0.0085423	0.0023626	1161.2	9.1408e-05	9.3456e-05	1378.6	430	9.057e-05	9.4967e-05	554.11	217.7	165.89	76.66	9.2671e-05	107.77	225.374	158.276	159.441	63.514	247.291	361.560	62.708	69.524	148.577	104.508	67.537	72.062	75.405	79.646	175.684	75.814	-8191	255	
1027.159	1	1	0	0	0.10177	0.0789	0.11736	0.20217	0.20145	0.12123	0.23008	0.10629	0.22362	0.35176	0.097444	0.1688	0.095796	0.22801	0.091785	0.33921	-2.175	-2.2958	-2.2875	-2.55	-2.0812	-2.6063	-2.5208	-2.4292	-2.5083	-2.35	-2.4708	-2.5521	-2.2854	-2.6937	-2.5312	-2.5042	120.593	301.138	115.635	354.495	111.173	137.382	297.733	340.091	314.699	373.850	317.372	389.886	324.894	69.350	167.644	380.056	0.00066187	0.00096376	0.00026671	1140.3	1.6509e-05	1.4037e-05	1385.7	417.52	1.2084e-05	1.6218e-05	540.44	212.56	160.14	74.842	5.1617e-06	106.53	0.0068196	0.008614	0.0023752	1160.5	9.176e-05	9.3293e-05	1381.7	428.92	9.1185e-05	9.5724e-05	554.37	217.98	165.45	76.641	9.2595e-05	107.97	217.211	166.183	101.875	63.339	170.597	192.567	62.586	69.482	180.383	196.124	67.433	72.363	75.848	79.722	364.959	76.082	-8191	255	
1027.278	1	1	0	0	0.018792	0.097475	0.15426	0.30774	0.16746	0.16738	0.37619	0.11551	0.22082	0.18534	0.18768	0.37393	0.15429	0.26739	0.050616	0.21881	-2.0104	-2.3812	-2.3125	-2.875	-2.1188	-2.5375	-2.6437	-2.3729	-2.6167	-2.45	-2.3771	-2.6562	-2.3083	-2.5896	-2.55	-2.3229	179.843	142.268	109.057	373.810	237.989	203.157	402.320	392.087	185.788	116.468	52.133	400.135	245.850	93.004	190.035	58.095	0.00075383	0.00074395	0.00042117	1142.7	2.724e-05	2.9904e-06	1382.8	417.74	1.2634e-05	2.225e-06	537.45	211.91	159.37	74.186	1.075e-05	105.69	0.0067735	0.0085444	0.0023732	1159.5	9.0608e-05	9.1124e-05	1378.2	429.27	8.9478e-05	9.552e-05	552.52	216.8	164.89	76.332	9.3733e-05	107.53	230.005	128.817	160.884	63.545	216.678	386.296	62.721	69.738	228.795	153.148	67.715	72.477	75.644	79.490	302.489	76.100	-8191	255	
1027.350	1	1	0	0	0.15296	0.040745	0.021098	0.24033	0.18432	0.24087	0.16094	0.27414	0.16703	0.15284	0.39572	0.23808	0.36515	0.38503	0.18799	0.22346	-1.9688	-2.1417	-2.2396	-2.7396	-2.2313	-2.3042	-2.7604	-2.3667	-2.5792	-2.4625	-2.2917	-2.5563	-2.4604	-2.5271	-2.6104	-2.3688	275.996	401.679	272.854	398.004	58.957	163.429	339.362	375.714	55.205	269.156	338.683	348.821	394.228	388.009	119.850	357.092	0.00089798	0.00091343	0.00046306	1138.4	1.3135e-05	1.4711e-05	1376.5	416.9	9.5725e-06	2.2048e-05	538.42	212.01	158.65	74.309	9.3112e-06	105.71	0.0067492	0.0088423	0.0024037	1160.8	9.2502e-05	9.2977e-05	1381.1	427.98	8.9813e-05	9.8447e-05	552.94	216.68	164.74	76.146	9.6972e-05	107.35	229.087	100.237	123.912	63.481	149.810	173.138	62.611	69.516	299.969	217.686	67.405	72.359	75.777	79.647	137.926	76.137	-8191	255	
1027.446	1	1	0	0	0.15312	0.092929	0.097544	0.28696	0.20327	0.047871	0.1913	0.22732	0.1418	0.26405	0.12078	0.1279	0.25257	0.23064	0.15721	0.23444	-2.1	-2.3521	-2.2229	-2.6354	-2.2396	-2.3604	-2.6896	-2.3604	-2.5458	-2.5167	-2.2979	-2.6875	-2.4021	-2.3458	-2.6208	-2.4542	369.460	158.141	381.198	388.814	326.733	302.732	399.382	349.913	134.159	193.025	337.616	182.066	66.675	90.365	78.407	377.446	0.00086772	0.00074883	0.00060571	1139.9	1.4569e-05	1.376e-05	1380.6	415.97	3.1834e-06	1.4924e-05	532.96	212.15	158.07	74.436	7.7224e-06	105.56	0.0067001	0.0090882	0.0024161	1157.1	9.2927e-05	9.345e-05	1380.3	428.12	9.0405e-05	9.9663e-05	552.93	216.29	164.55	76.156	9.5716e-05	107.25	226.623	75.527	64.980	63.382	235.787	129.641	62.705	69.320	165.498	199.996	67.610	72.188	75.501	79.825	284.516	76.221	-8191	255	
1027.542	1	1	0	0	0.13829	0.13656	0.42526	0.25662	0.24772	0.097351	0.35933	0.17156	0.19215	0.14771	0.13281	0.0224	0.31469	0.10515	0.18981	0.22755	-2.1979	-2.5104	-2.0687	-2.5938	-2.4104	-2.0875	-2.7146	-2.2396	-2.4146	-2.6604	-2.2146	-2.625	-2.5958	-2.5542	-2.7333	-2.5167	266.416	246.472	357.347	59.781	241.472	380.782	360.912	272.652	304.874	128.000	345.062	259.306	105.171	69.253	229.975	336.290	0.00088826	0.00042474	0.00018099	1139.2	2.7696e-06	9.33e-06	1384.6	417.19	9.9477e-06	1.5605e-05	536.38	213.01	157.85	73.774	8.1645e-06	105.92	0.0067025	0.0090464	0.0024075	1155.6	9.3375e-05	9.4919e-05	1382.7	428.23	9.0752e-05	0.00010051	554.03	216.83	164.73	76.089	9.65e-05	107.75	217.332	130.058	120.891	63.770	316.586	214.230	62.589	69.306	236.333	222.733	67.360	72.167	75.526	79.864	239.045	76.109	-8191	255	
1027.662	1	1	0	0	0.0051805	0.19031	0.055261	0.36478	0.070387	0.22469	0.54708	0.18386	0.11344	0.16472	0.21727	0.33293	0.23531	0.13391	0.16361	0.16761	-1.9271	-2.4917	-2.0958	-2.7229	-2.3271	-2.2104	-2.8021	-2.4	-2.3854	-2.5167	-2.2125	-2.45	-2.5167	-2.2833	-2.5771	-2.6312	164.564	144.225	227.668	377.827	289.780	115.194	308.727	401.661	165.918	162.481	321.756	363.405	339.865	70.966	141.790	370.248	0.00069133	0.00099765	0.00039758	1142.1	1.8156e-05	1.7016e-05	1386.4	417.36	4.8081e-06	2.1184e-05	533.3	211.68	158.71	73.822	6.54e-06	106.02	0.0067461	0.0090464	0.0024375	1159	9.4956e-05	9.4634e-05	1382.6	428.91	9.0728e-05	9.8489e-05	553.35	216.38	165.41	75.915	9.361e-05	107.61	216.133	409.905	170.317	63.747	250.167	220.468	62.406	69.555	250.091	176.912	67.511	72.320	75.686	79.728	209.716	76.192	-8191	255	
1027.759	1	1	0	0	0.24173	0.16295	0.22742	0.25947	0.044704	0.026159	0.19461	0.3033	0.10673	0.16811	0.2934	0.20205	0.087208	0.16585	0.17743	0.23614	-1.7062	-2.4313	-2.0646	-2.7438	-2.6354	-2.1917	-2.8854	-2.6813	-2.2208	-2.6917	-2.5542	-2.6729	-2.6229	-2.3021	-2.7021	-2.6208	302.481	405.932	111.326	320.114	315.301	89.059	301.602	388.700	231.960	402.651	332.886	60.702	98.057	53.166	289.408	51.524	0.00073874	0.00093837	0.00017436	1142.1	1.1389e-05	1.6036e-05	1373.4	415.67	8.1915e-06	1.3879e-05	533.1	212.63	157.94	74.165	1.0605e-05	105.99	0.0067391	0.0089633	0.0024558	1155.8	9.5161e-05	9.5671e-05	1375.8	428.08	9.1348e-05	9.6687e-05	552.3	215.92	165.03	76.184	9.2553e-05	107.82	226.675	91.072	150.131	63.616	242.491	160.213	62.462	69.477	209.506	199.130	67.276	72.578	75.681	79.514	174.792	75.704	-8191	255	
1027.855	1	1	0	0	0.25687	0.2702	0.16545	0.10082	0.17385	0.10626	0.036583	0.16729	0.2041	0.073096	0.43213	0.2419	0.35098	0.37393	0.051175	0.37826	-1.9083	-2.5021	-2.2062	-2.625	-2.5396	-2.1562	-2.6521	-2.4729	-2.1333	-2.6437	-2.4833	-2.4542	-2.7292	-2.2646	-2.3187	-2.4833	405.585	129.983	356.874	66.599	142.597	340.186	325.758	75.392	99.027	408.119	325.931	355.787	322.251	372.004	300.522	346.045	0.00091905	0.0012832	0.00014746	1139.5	2.2933e-05	3.4224e-06	1383	419	5.1685e-06	2.0947e-05	539.65	213.36	159.57	75.035	6.6333e-06	106.58	0.0067899	0.0088166	0.002444	1156.2	9.4418e-05	9.519e-05	1379.1	430.86	9.1046e-05	9.569e-05	556.13	217.22	165.73	76.873	9.0689e-05	108.37	226.333	196.007	173.657	63.406	186.447	407.700	62.569	69.354	267.073	136.651	67.412	72.439	75.506	79.651	266.352	76.109	-8191	255	
1027.926	1	1	0	0	0.18254	0.12681	0.090283	0.20327	0.22024	0.085126	0.39237	0.1761	0.064137	0.1912	0.20192	0.12859	0.2995	0.18914	0.22457	0.28132	-1.8687	-2.5375	-2.3333	-2.4688	-2.5062	-2.2917	-2.6437	-2.7271	-2.4437	-2.6625	-2.4979	-2.4313	-2.6146	-2.3979	-2.5042	-2.7333	192.191	74.578	274.266	210.681	74.691	410.485	358.953	376.928	396.220	126.989	343.197	375.822	353.779	83.054	326.848	375.558	0.00087725	0.0011023	0.00014956	1141.6	1.5077e-05	2.623e-05	1380.2	420.06	2.9508e-06	1.0996e-05	536.67	213.71	160.25	75.013	5.4407e-06	107.25	0.0067901	0.0085707	0.0024545	1157	9.2735e-05	9.5609e-05	1378.6	430.76	9.019e-05	9.4587e-05	556.4	217.62	165.76	77.022	8.9435e-05	108.8	211.522	316.036	182.617	63.464	102.566	152.050	62.562	69.281	371.156	244.748	67.334	72.308	75.538	79.785	156.795	75.985	-8191	255	
1028.047	1	1	0	0	0.10485	0.23164	0.064012	0.20283	0.16352	0.038786	0.37924	0.23857	0.11081	0.11547	0.1252	0.28862	0.13155	0.14925	0.32927	0.10248	-1.8208	-2.6396	-2.2625	-2.5396	-2.7333	-2.1917	-2.7313	-2.6125	-2.1729	-2.7021	-2.4896	-2.3438	-2.9437	-2.2604	-2.225	-2.8292	296.230	178.771	345.991	333.685	136.904	161.495	326.597	363.462	399.570	330.010	346.200	351.280	334.878	381.054	192.726	63.916	0.00063122	0.00057856	0.00011692	1143.7	2.2494e-06	1.5672e-05	1383	420.95	1.7061e-05	9.71e-06	539.24	214.24	159.85	74.901	1.1073e-05	106.91	0.00682	0.0084103	0.0024559	1160.1	9.1565e-05	9.568e-05	1380.5	431.71	8.9777e-05	9.1812e-05	557.31	218.26	165.73	76.966	8.9921e-05	108.68	215.677	288.143	375.947	63.626	271.266	145.256	62.762	69.239	174.663	270.859	67.188	72.151	75.632	79.532	175.870	75.971	-8191	255	
1028.143	1	1	0	0	0.2259	0.13599	0.14607	0.24903	0.35964	0.2433	0.47732	0.17818	0.24714	0.22417	0.20331	0.4663	0.10683	0.24115	0.22882	0.1099	-1.4979	-2.5542	-2.2021	-2.3208	-2.5646	-2.2146	-2.3854	-2.7479	-2.1708	-2.4688	-2.4813	-2.3354	-2.6417	-2.3708	-2.1688	-2.7125	215.585	109.106	316.160	81.531	374.580	381.096	319.504	342.708	276.852	193.574	394.244	333.003	124.037	360.756	147.995	334.579	0.00069601	0.0014401	0.00023812	1138.2	1.1089e-05	1.1322e-05	1385.4	419.3	1.3803e-05	1.1013e-05	537.95	213.72	159.87	74.939	6.0396e-07	106.49	0.0068069	0.0082647	0.0024829	1158.9	8.97e-05	9.5927e-05	1379.3	430.28	9.1063e-05	9.1852e-05	557.06	217.45	165.03	76.928	8.9317e-05	108.27	220.239	108.951	329.102	63.568	168.234	168.980	62.623	69.272	259.495	207.914	67.326	72.299	75.583	79.602	286.359	76.131	-8191	255	
1028.239	1	1	0	0	0.10327	0.051971	0.12194	0.218	0.23693	0.192	0.57928	0.35414	0.26729	0.22158	0.28077	0.21658	0.087727	0.44774	0.046636	0.1796	-1.5479	-2.3063	-2.2562	-2.2313	-2.5062	-2.2646	-2.5208	-2.8438	-2.2167	-2.6	-2.5271	-2.3146	-2.5333	-2.4208	-2.2708	-2.7562	287.718	154.868	212.300	82.592	334.074	57.770	388.924	376.339	262.930	398.882	349.740	356.641	278.098	403.976	388.691	315.968	0.00074727	0.0030448	0.00050372	1143.1	2.1237e-05	8.5224e-06	1379.8	420.25	8.2562e-06	1.8527e-05	536.1	212.99	158.93	74.541	2.5067e-06	105.83	0.0067536	0.0081038	0.0024601	1160.6	8.7885e-05	9.5718e-05	1377.7	430.19	9.0805e-05	9.1869e-05	554.29	217.22	164.52	76.664	9.1685e-05	107.79	223.597	140.190	129.061	63.285	238.091	390.081	62.562	69.468	166.031	252.852	67.201	72.484	75.656	79.595	299.430	76.048	-8191	255	
1028.358	1	1	0	0	0.25631	0.23483	0.095112	0.25019	0.23501	0.055132	0.40271	0.28016	0.19165	0.15365	0.026292	0.13798	0.30016	0.095894	0.11908	0.010196	-1.7604	-2.2521	-2.5083	-2.4146	-2.4354	-2.225	-2.4854	-2.5812	-2.2083	-2.1875	-2.5167	-2.3042	-2.5021	-2.5354	-2.125	-2.7896	89.986	51.944	122.575	406.604	296.276	381.633	343.001	336.319	117.369	303.092	322.856	61.681	58.504	406.110	250.258	285.212	0.00081732	0.0020827	0.00046922	1143	1.2536e-05	1.3535e-05	1383.9	417.2	1.4322e-05	3.6781e-05	536.2	212.91	159.52	74.503	1.7653e-05	106.56	0.0069016	0.0083451	0.0025021	1161.2	8.8366e-05	9.7595e-05	1379.8	429.53	9.2933e-05	9.2812e-05	555.1	217.11	164.49	76.509	9.2925e-05	107.59	227.897	187.775	99.174	63.546	259.809	72.408	62.556	69.232	221.874	223.628	67.434	72.523	75.809	79.608	254.750	76.279	-8191	255	
1028.454	1	1	0	0	0.14058	0.14617	0.30769	0.12289	0.24543	0.072839	0.22064	0.54089	0.22228	0.0024763	0.075625	0.31597	0.23934	0.20842	0.11182	0.17943	-1.6625	-2.2917	-2.3604	-2.1604	-2.4021	-2.4583	-2.2604	-2.8375	-2.2604	-2.2333	-2.7833	-2.1917	-2.6125	-2.5792	-1.9562	-2.7062	375.552	125.845	204.028	383.116	408.438	152.222	381.355	274.516	246.067	302.529	209.981	385.572	404.021	337.243	120.786	208.984	0.0008004	0.0022897	0.00052939	1143.8	1.7643e-06	1.9079e-05	1385	417.43	1.3662e-05	2.3323e-05	537.15	212.15	158.64	74.173	1.5215e-05	106.12	0.0070664	0.0084181	0.0024963	1163.9	8.9654e-05	9.9376e-05	1381.9	428.67	9.567e-05	9.5411e-05	554.54	217.36	164.43	76.717	9.4399e-05	107.85	219.058	157.242	86.499	63.576	350.421	216.563	62.782	69.282	236.052	242.975	67.459	72.459	75.854	79.817	156.707	75.882	-8191	255	
1028.551	1	1	0	0	0.14267	0.26406	0.070037	0.16758	0.18164	0.14444	0.2635	0.2612	0.083083	0.067685	0.0969	0.25272	0.20538	0.12781	0.18807	0.30427	-1.7271	-2.0833	-2.3729	-2.2271	-2.3604	-2.4604	-2.0125	-2.6208	-2.3229	-2.1625	-2.5229	-2.4375	-2.3917	-2.4417	-2.2729	-2.5979	206.000	99.293	368.188	410.560	300.877	89.023	366.602	60.661	308.406	324.957	306.266	339.462	311.759	75.800	64.917	333.090	0.00075758	0.0016534	0.00015395	1146.9	1.8142e-05	5.8381e-06	1380.5	416.44	1.8756e-05	1.4572e-05	535.47	211.77	157.6	74.395	2.0267e-05	105.39	0.0071944	0.0086922	0.002505	1164.1	9.0798e-05	0.00010088	1383.1	429.2	9.7624e-05	9.8465e-05	553.51	217.1	164.03	76.51	9.7317e-05	107.14	234.479	218.245	151.526	63.422	187.512	244.038	62.649	69.333	265.882	235.830	67.232	72.157	75.702	79.782	206.684	76.020	-8191	255	
1028.647	1	1	0	0	0.11424	0.049191	0.11001	0.18437	0.058768	0.043088	0.092844	0.15661	0.13289	0.19943	0.32394	0.13376	0.18363	0.085781	0.12064	0.090031	-1.8875	-2.0833	-2.4562	-2.225	-2.2	-2.5938	-2.4042	-2.5917	-2.2729	-2.2104	-2.6458	-2.3312	-2.4833	-2.5	-1.9771	-2.8458	109.154	321.005	274.985	291.655	260.639	198.117	331.298	400.278	311.226	375.819	371.321	255.078	403.158	393.427	239.326	337.987	0.00079612	0.00024882	0.00051795	1136.2	1.1908e-05	6.5072e-06	1375.1	414.03	1.1768e-05	7.3449e-06	531.95	210.44	157.1	73.918	1.0561e-05	105.01	0.0073367	0.0088475	0.0025225	1163.6	9.3031e-05	0.00010159	1382.7	427.36	9.9855e-05	9.9122e-05	552.37	216.61	163.92	76.274	9.9493e-05	107.18	220.324	141.178	215.473	63.840	311.226	206.973	62.381	69.445	281.749	220.453	67.490	72.451	75.741	79.865	186.695	75.950	-8191	255	
1028.743	1	1	0	0	0.15195	0.18806	0.19918	0.19445	0.10643	0.14353	0.48409	0.27097	0.2679	0.056131	0.17078	0.29293	0.20645	0.17372	0.19097	0.42038	-1.9583	-2.0792	-2.4771	-2.3312	-2.2396	-2.4917	-2.2271	-2.6375	-2.2667	-2.2062	-2.7146	-2.4604	-2.3	-2.6729	-2.1625	-2.4583	81.187	301.016	220.058	297.383	394.222	66.151	346.587	375.891	97.450	65.221	395.132	320.195	70.080	333.520	379.849	381.655	0.00090201	0.00064845	0.00022073	1142.6	7.1498e-06	9.8139e-06	1369.3	414.62	1.1936e-05	9.5553e-06	531.78	210.94	157.79	73.728	1.1544e-05	104.88	0.0074335	0.0091801	0.002559	1166.5	9.7089e-05	0.00010299	1380.6	427.34	0.00010117	0.00010228	551.7	217.18	164.41	76.277	0.0001022	107.26	227.301	113.036	144.074	63.841	280.234	78.658	62.914	69.370	161.162	171.267	66.963	72.132	75.759	79.782	241.416	75.974	-8191	255	
1028.839	1	1	0	0	0.075711	0.16194	0.079688	0.091308	0.18127	0.040335	0.093781	0.28813	0.21257	0.2375	0.15355	0.1622	0.52127	0.1125	0.062473	0.28766	-2.0187	-2	-2.5	-2.5479	-2.0958	-2.5667	-2.3042	-2.4646	-2.4917	-2.1875	-2.6	-2.5417	-2.2667	-2.7271	-2.2	-2.3917	223.461	191.876	329.215	402.975	237.052	331.980	351.320	348.602	159.865	273.052	65.356	343.228	409.761	358.116	291.497	301.821	0.00073888	0.0016463	0.00038201	1139.3	1.6633e-05	9.2235e-06	1373.9	415.18	2.2165e-05	5.4054e-06	533.47	212.2	157.18	74.066	1.2177e-05	105.47	0.0075796	0.009381	0.0025527	1168.9	9.7587e-05	0.00010334	1385.8	428.55	0.00010176	0.0001044	553.76	218.01	164.79	76.406	0.00010476	107.66	201.502	57.075	177.316	63.505	195.961	389.608	62.551	69.424	203.741	234.442	67.404	72.301	75.520	79.629	202.350	75.851	-8191	255	
1028.960	1	1	0	0	0.065441	0.030132	0.11085	0.12036	0.10397	0.17865	0.29519	0.084097	0.17325	0.12537	0.17417	0.24908	0.23001	0.25999	0.058058	0.21841	-1.9479	-2.1458	-2.3563	-2.4437	-2.1458	-2.5938	-2.325	-2.3937	-2.5229	-2.1896	-2.6271	-2.4458	-2.1146	-2.6917	-2.1542	-2.3979	224.997	260.425	312.025	73.782	148.449	102.963	317.349	369.123	65.523	143.119	95.741	372.426	114.885	363.104	315.749	344.144	0.00085408	0.0019166	0.00030123	1134	8.9579e-06	1.6786e-05	1385.2	415.51	2.1831e-06	9.208e-06	535.92	213.47	159.15	74.263	2.0035e-05	106.81	0.0075841	0.0095541	0.0025609	1166.2	9.846e-05	0.00010232	1391.3	429.71	0.00010038	0.00010406	556.36	219.24	166.04	76.71	0.00010297	108.4	220.298	381.902	83.120	63.416	212.219	164.779	62.939	69.699	274.149	402.902	67.205	72.622	75.829	79.756	204.843	75.929	-8191	255	
1029.056	1	1	0	0	0.15433	0.21295	0.21037	0.2528	0.10657	0.074201	0.068608	0.17159	0.095563	0.20782	0.20794	0.24832	0.018572	0.42524	0.26418	0.21432	-2.1271	-2.1063	-2.4917	-2.5187	-2.1562	-2.5854	-2.5792	-2.4	-2.5104	-2.2167	-2.4729	-2.7354	-2.175	-2.4917	-2.3771	-2.4125	259.599	283.823	275.939	321.978	53.386	239.121	300.071	346.745	76.984	275.177	382.548	389.369	254.679	370.302	195.548	366.171	0.00069466	0.00053078	0.00035649	1139.5	1.9409e-05	3.4558e-06	1370.5	415.03	1.2994e-05	6.5737e-06	535.55	211.14	158.25	74.524	1.4573e-05	105.58	0.0074245	0.0094491	0.002541	1168.1	9.7334e-05	0.000101	1384.1	429.66	9.8741e-05	0.00010454	554.64	217.93	165.48	76.641	0.00010185	107.65	231.077	337.784	315.706	63.419	340.154	294.383	62.638	69.399	184.135	74.520	67.236	72.310	75.599	79.615	201.274	75.868	-8191	255	
1029.152	1	1	0	0	0.22028	0.094913	0.18463	0.2102	0.25477	0.20964	0.086544	0.24207	0.11399	0.28563	0.26766	0.11214	0.27804	0.35681	0.22167	0.1667	-2.1854	-2.2667	-2.25	-2.6708	-2.1292	-2.5312	-2.5875	-2.3042	-2.45	-2.2562	-2.4521	-2.5979	-2.0479	-2.5729	-2.3958	-2.3438	308.690	87.527	194.241	344.496	351.821	111.589	293.778	316.800	241.575	112.340	387.719	401.910	397.963	61.004	83.892	311.373	0.00096319	0.0014319	6.2279e-05	1138.2	1.5443e-05	6.5644e-06	1371.1	418.72	9.5331e-06	1.081e-05	531.66	211.94	158.82	74.57	5.6243e-06	105.54	0.0073246	0.0094167	0.0025651	1164.4	9.8141e-05	0.00010197	1380.1	430.2	9.9018e-05	0.0001028	553.2	217.2	165.6	76.641	0.00010155	107.87	230.153	110.040	215.141	63.568	218.535	407.531	62.694	69.484	253.356	194.415	67.112	72.340	75.775	79.475	203.739	76.047	-8191	255	
1029.224	1	1	0	0	0.084925	0.24768	0.26855	0.38065	0.12575	0.14657	0.30278	0.22588	0.1336	0.063469	0.35753	0.20426	0.28607	0.15092	0.17981	0.31316	-2.0521	-2.1729	-2.35	-2.5667	-2.1292	-2.4958	-2.5062	-2.2396	-2.4958	-2.5229	-2.2333	-2.725	-2.3958	-2.4375	-2.4125	-2.2917	322.432	136.242	145.551	68.623	133.663	290.608	372.530	391.494	299.954	271.384	359.927	399.331	379.219	381.441	292.127	385.856	0.00069814	0.001874	0.00041377	1142.8	1.2438e-05	5.8666e-06	1376.3	418.66	1.1333e-05	2.0837e-05	537.54	213.14	159.36	74.667	1.0386e-05	106.63	0.0073512	0.0093042	0.0025804	1166.6	9.7952e-05	0.00010051	1382.8	432	9.6958e-05	0.00010327	556.41	218.72	166.57	77.022	0.00010139	108.66	218.434	129.735	148.436	63.766	189.687	186.767	62.502	69.726	262.037	219.574	67.006	72.281	75.674	79.917	309.087	75.827	-8191	255	
1029.342	1	1	0	0	0.047548	0.11724	0.075889	0.093603	0.14901	0.26031	0.18234	0.28471	0.10117	0.12023	0.39242	0.34844	0.17024	0.31423	0.12404	0.3067	-2	-2.2479	-1.9333	-2.6375	-2.1333	-2.3646	-2.6917	-2.2958	-2.3521	-2.3083	-2.3563	-2.7354	-2.3896	-2.475	-2.6021	-2.3583	250.478	341.543	407.543	66.135	67.206	62.729	390.531	340.055	201.496	334.873	372.068	354.884	389.073	371.220	166.606	364.722	0.0007437	0.0015792	0.00067566	1144	4.0154e-06	1.4947e-05	1371.9	418.43	8.5547e-06	2.2747e-05	537.15	214.61	159.82	75.553	1.7802e-05	107.33	0.0072897	0.0093805	0.0025782	1167.6	9.9458e-05	0.00010071	1387.3	433.17	9.7032e-05	0.0001057	559.22	219.74	167.63	77.54	0.00010343	109.45	219.309	162.614	164.332	63.740	318.212	300.451	62.747	69.410	213.398	184.307	67.561	72.621	75.423	79.833	272.644	76.087	-8191	255	
1029.439	1	1	0	0	0.38164	0.072218	0.23191	0.30924	0.13565	0.18254	0.27042	0.37455	0.066449	0.059749	0.21329	0.20526	0.044861	0.088915	0.030586	0.21724	-1.6688	-2.3479	-2.0542	-2.4917	-2.2104	-2.2125	-2.825	-2.3583	-2.2583	-2.4667	-2.1708	-2.7333	-2.4646	-2.2979	-2.5354	-2.2562	344.118	323.666	88.253	350.657	342.751	375.680	283.206	372.773	355.978	215.036	411.414	335.274	315.836	128.132	386.587	363.350	0.00072971	0.0025623	0.00028544	1139.7	1.2212e-05	4.5135e-06	1382.9	418.56	1.4814e-05	5.5343e-06	536.08	213.89	160.14	75.331	1.3765e-05	106.36	0.0072482	0.0096143	0.0026236	1166.2	0.00010154	0.00010209	1392.5	434.57	9.6546e-05	0.00010584	558.28	219.59	167.43	77.537	0.00010171	108.93	217.307	170.588	81.225	63.252	204.626	212.571	62.589	69.418	205.772	97.654	67.329	72.269	75.619	79.691	216.929	75.919	-8191	255	
1029.535	1	1	0	0	0.079734	0.35579	0.22851	0.43738	0.13654	0.12631	0.23486	0.33653	0.020207	0.24	0.11923	0.31108	0.1605	0.30173	0.1968	0.35339	-1.8542	-2.4583	-2.0521	-2.6229	-2.3542	-2.3146	-2.6604	-2.2167	-2.2146	-2.475	-2.3604	-2.6583	-2.4958	-2.4042	-2.5417	-2.3708	317.582	144.824	217.569	365.465	388.424	350.081	305.701	324.498	151.381	343.002	371.638	379.058	238.910	372.968	194.318	382.913	0.00076738	0.0016591	0.00029218	1141	3.0834e-06	6.6717e-06	1377.6	419.11	1.94e-05	1.567e-05	535.23	213.92	158.73	75.101	6.553e-06	106.24	0.0072373	0.0095139	0.0026507	1167.1	0.00010099	0.00010221	1385.2	434.41	9.5948e-05	0.000106	557.35	218.54	167.24	77.443	0.00010096	108.66	218.689	99.285	71.475	63.676	388.509	254.394	62.345	69.483	199.433	194.960	67.672	72.328	75.458	79.840	299.074	75.956	-8191	255	
1029.631	1	1	0	0	0.11295	0.2896	0.24798	0.37605	0.15241	0.047562	0.36368	0.076801	0.1049	0.12891	0.25298	0.048416	0.23323	0.1863	0.22517	0.26648	-1.9458	-2.3833	-2.05	-2.5271	-2.3917	-2.1792	-2.675	-2.3042	-2.1667	-2.5833	-2.3125	-2.4542	-2.6542	-2.1792	-2.5417	-2.6458	348.987	137.273	54.453	352.060	239.281	398.581	337.560	206.818	357.287	263.915	356.823	309.766	91.874	92.622	200.216	313.903	0.00082449	0.00049939	0.00023103	1139.9	1.3514e-05	1.2481e-05	1376.2	417.69	8.3336e-06	7.3863e-06	534.04	212.02	160.16	74.885	3.9679e-06	106.83	0.0072281	0.0094234	0.0026676	1166.5	0.00010218	0.00010248	1383.4	433.09	9.7393e-05	0.00010579	556.63	218.26	167.23	77.413	9.9866e-05	109.01	226.411	343.214	332.994	63.561	154.211	322.994	62.831	69.357	249.752	154.272	67.096	72.359	75.676	79.824	119.355	76.156	-8191	255	
1029.752	1	1	0	0	0.15016	0.18505	0.17082	0.32949	0.20484	0.12426	0.26061	0.046951	0.24532	0.19788	0.23065	0.11753	0.053075	0.31525	0.051342	0.074412	-1.8646	-2.5167	-1.9583	-2.5771	-2.4979	-2.0312	-2.7062	-2.4167	-2.2396	-2.5667	-2.4146	-2.4646	-2.7333	-2.4479	-2.6	-2.6479	100.430	400.180	241.755	69.869	175.822	370.002	342.042	410.300	284.407	181.577	378.483	67.498	378.475	59.645	282.083	324.887	0.00075049	0.0015714	0.00015704	1148.8	1.6116e-05	9.6493e-06	1382.2	421.33	9.7518e-06	6.4696e-06	536.36	214.56	160.95	75.598	5.3573e-06	107.06	0.007293	0.0093839	0.0026846	1169.3	0.00010055	0.00010309	1387.1	436.41	9.6862e-05	0.00010292	559.35	219.46	168.12	77.95	9.9672e-05	109.5	224.800	98.271	149.123	63.505	252.869	140.447	62.487	69.573	134.601	210.006	67.354	72.230	75.789	79.729	225.627	76.083	-8191	255	
1029.823	1	1	0	0	0.20288	0.11898	0.21358	0.12674	0.198	0.19166	0.18257	0.27986	0.12981	0.16883	0.17788	0.2722	0.15153	0.11431	0.11635	0.10173	-1.7125	-2.4813	-2.0125	-2.2521	-2.4625	-1.8854	-2.5667	-2.4521	-2.0187	-2.5146	-2.3812	-2.3729	-2.7229	-2.4	-2.4667	-2.5646	67.480	401.026	307.813	387.598	397.509	165.983	318.560	345.113	343.944	114.749	255.889	382.367	127.378	54.303	201.941	322.045	0.00069485	0.0015472	0.00019548	1142.3	2.4504e-05	1.8009e-05	1382.4	421.86	1.3744e-05	6.6563e-06	538.57	214.46	160.68	76.091	1.7132e-05	107.38	0.0073161	0.0092963	0.0027164	1167.4	0.00010076	0.00010367	1386.7	436.85	9.8992e-05	0.00010266	561.39	220.16	168.06	78.272	9.8155e-05	109.6	222.416	144.207	85.722	63.541	199.655	193.703	62.599	69.418	193.123	209.049	67.145	72.326	75.609	79.753	182.734	75.934	-8191	255	
1029.919	1	1	0	0	0.27292	0.12807	0.084386	0.15186	0.13882	0.10175	0.46641	0.28045	0.19161	0.11837	0.25206	0.10163	0.096674	0.34175	0.036737	0.39425	-1.7583	-2.5708	-2.3583	-2.3812	-2.4979	-2.1562	-2.5979	-2.5167	-1.9896	-2.3729	-2.4333	-2.1188	-2.6625	-2.475	-2.3917	-2.5021	248.734	63.384	150.542	280.594	299.804	207.499	318.866	408.953	212.053	147.085	358.454	255.904	72.603	376.625	390.778	352.612	0.00085784	0.0017895	5.9054e-05	1143.8	1.2705e-05	8.8739e-06	1378.6	421.23	1.3245e-05	2.2127e-05	534.88	212.67	159.74	75.176	1.0892e-05	106.03	0.0073916	0.0092792	0.0027098	1169.9	9.9903e-05	0.00010563	1385.5	435.39	0.00010151	0.00010354	559.04	218.39	166.68	77.529	9.9825e-05	108.45	232.151	158.230	195.853	63.560	254.307	214.103	62.719	69.457	251.668	111.592	67.544	72.291	75.630	79.494	341.640	75.871	-8191	255	
1030.040	1	1	0	0	0.041303	0.26553	0.16258	0.51613	0.16721	0.14618	0.34946	0.21483	0.14481	0.30355	0.13854	0.25219	0.10044	0.44858	0.077842	0.40488	-1.5854	-2.4979	-2.3479	-2.1896	-2.575	-2.1125	-2.5563	-2.4875	-2.2104	-2.4542	-2.3438	-2.2479	-2.8167	-2.5229	-2.3458	-2.6125	409.712	92.970	53.392	390.048	251.296	364.758	325.620	281.759	172.248	270.455	394.070	364.078	397.194	362.165	312.851	347.965	0.00052135	0.0021125	0.00064303	1142.9	1.8214e-05	1.2333e-05	1379.1	419	9.5686e-06	5.1954e-06	533.3	213.22	160.15	75.368	1.2066e-05	106.06	0.0075387	0.0093314	0.0027361	1169.8	9.9502e-05	0.00010733	1382.6	434.45	0.00010179	0.00010143	558.42	218.79	166.85	77.675	9.9457e-05	108.57	214.637	107.524	143.242	63.449	217.130	162.719	62.553	69.549	299.931	170.807	67.569	72.290	75.689	79.802	255.313	76.080	-8191	255	
1030.136	1	1	0	0	0.14312	0.048701	0.10976	0.27737	0.129	0.081985	0.12284	0.2053	0.20752	0.047152	0.20044	0.34593	0.33752	0.14689	0.099657	0.17465	-1.6375	-2.3333	-2.2958	-2.275	-2.3979	-2.2021	-2.4833	-2.6896	-2.1146	-2.5208	-2.5708	-2.2271	-2.7229	-2.5479	-2.3271	-2.6146	122.278	85.289	154.505	343.168	77.513	151.692	245.319	66.202	335.368	134.832	391.660	353.073	384.938	369.542	58.236	314.307	0.00062914	0.0017678	0.00020169	1148	1.4198e-05	7.9754e-06	1379.4	422.19	1.7077e-05	1.6416e-05	537.84	213.03	159.95	75.36	2.3623e-05	106.7	0.0075315	0.0092122	0.0026692	1170.9	9.7139e-05	0.00010617	1384.8	435.71	0.00010056	9.9748e-05	559.6	219.29	167.22	77.784	9.7617e-05	109.13	218.048	140.562	217.035	63.510	295.890	85.261	62.752	69.340	246.007	317.387	67.512	72.286	75.647	79.982	243.474	75.980	-8191	255	
1030.232	1	1	0	0	0.17324	0.17075	0.13524	0.099348	0.076131	0.46185	0.068349	0.14257	0.27075	0.17432	0.23784	0.28972	0.077901	0.14032	0.066278	0.18956	-1.6667	-2.2958	-2.3854	-2.2979	-2.7125	-2.4667	-2.3021	-2.725	-2.1917	-2.3854	-2.7188	-2.2708	-2.5333	-2.5042	-2.4188	-2.7917	284.334	216.336	176.543	314.467	173.956	209.955	321.399	408.282	79.398	246.555	356.536	405.122	238.015	313.249	83.568	343.823	0.00073554	0.00056553	0.00024353	1150.2	1.7491e-05	1.061e-05	1380.4	422.19	7.0544e-06	1.6186e-06	539.2	214.84	160.46	75.501	1.8035e-05	107.67	0.0074805	0.0090523	0.00263	1172	9.5933e-05	0.00010505	1386.2	435.15	0.00010082	9.9209e-05	560.46	219.96	167.14	77.814	9.8664e-05	109.52	229.900	386.404	155.992	63.319	228.113	186.661	62.530	69.610	273.598	105.071	67.109	72.523	75.234	79.735	214.846	75.867	-8191	255	
1030.328	1	1	0	0	0.18765	0.27677	0.097195	0.13815	0.24846	0.11665	0.1902	0.23677	0.07898	0.15712	0.2411	0.077001	0.1692	0.32832	0.034881	0.051127	-1.5438	-2.325	-2.4979	-2.1979	-2.4979	-2.375	-2.4688	-2.8042	-2.2604	-2.3083	-2.6604	-2.1937	-2.6667	-2.4667	-2.2542	-2.8333	220.031	293.131	375.115	97.664	197.041	185.670	106.280	331.820	334.962	195.349	372.389	188.177	359.352	371.785	133.303	134.811	0.00081347	0.00073846	0.00053203	1148	5.5184e-06	1.5946e-05	1393.1	423.13	1.9843e-05	8.4447e-06	538.25	215.38	161.76	75.603	6.3219e-06	107.2	0.007517	0.008978	0.0025889	1170.7	9.4487e-05	0.00010377	1392.7	434.79	0.00010039	9.8861e-05	560.32	220.35	167.65	77.92	9.8996e-05	109.29	227.998	173.619	102.656	63.680	189.079	184.677	62.935	69.242	232.603	195.890	67.674	72.162	75.788	79.721	216.216	76.104	-8191	255	
1030.447	1	1	0	0	0.31022	0.049391	0.22259	0.24708	0.097102	0.37551	0.30072	0.36945	0.30975	0.14774	0.29146	0.12223	0.40529	0.2436	0.258	0.36074	-1.7833	-2.325	-2.5104	-2.325	-2.3708	-2.6146	-2.3438	-2.7188	-2.3812	-2.4208	-2.6042	-2.4104	-2.6729	-2.6417	-2.1312	-2.7375	156.523	77.154	342.862	71.398	196.331	87.491	311.390	350.973	88.241	353.806	385.349	307.682	382.626	393.036	81.043	62.174	0.0010118	0.0018725	0.00066824	1143.9	6.3958e-06	1.3402e-05	1386	421.51	2.1084e-05	6.2944e-06	539.43	215.44	161.41	75.735	2.7317e-05	107.11	0.0074524	0.0089495	0.0025709	1170.8	9.3801e-05	0.00010265	1387.6	434.4	0.00010004	9.9024e-05	559.3	220.28	167.52	77.882	0.00010067	108.99	231.839	178.853	102.238	63.585	189.939	242.596	62.873	69.745	219.686	236.695	67.213	72.536	75.391	79.724	218.380	75.976	-8191	255	
1030.519	1	1	0	0	0.27526	0.30959	0.048442	0.23345	0.062641	0.13618	0.28871	0.39122	0.074864	0.1961	0.089563	0.1464	0.31143	0.092184	0.24338	0.29243	-1.8521	-2.25	-2.475	-2.3667	-2.3458	-2.6458	-2.2562	-2.4604	-2.5312	-2.0958	-2.5938	-2.5729	-2.475	-2.7042	-2.1063	-2.7104	336.143	328.272	107.279	367.800	138.682	186.318	349.853	271.434	185.658	241.780	226.665	326.680	54.256	60.707	288.432	391.374	0.00068446	0.001254	0.00060811	1150.5	1.1182e-05	1.3464e-05	1377	421.23	2.0336e-05	1.949e-05	535.27	215.28	160.51	75.236	8.1221e-06	107.4	0.0074609	0.0089342	0.0025527	1173.3	9.3981e-05	0.00010305	1385.6	433.41	9.9599e-05	9.9803e-05	556.4	220.15	167.21	77.745	0.00010015	108.85	208.925	63.733	156.632	63.318	306.192	255.856	62.861	69.335	345.589	219.270	67.078	72.088	75.555	79.723	233.876	75.886	-8191	255	
1030.640	1	1	0	0	0.29685	0.19082	0.10788	0.15267	0.12649	0.03212	0.26703	0.084733	0.13288	0.10685	0.083801	0.21598	0.26842	0.33132	0.32209	0.1845	-2.0854	-2.0125	-2.6063	-2.3583	-2.5125	-2.5271	-2.3021	-2.6854	-2.4062	-2.0958	-2.7854	-2.4854	-2.5042	-2.6917	-2.3125	-2.5792	164.208	238.165	273.413	313.376	249.785	306.138	326.209	114.316	383.750	111.031	361.537	342.321	51.595	376.819	110.024	366.804	0.00082221	0.00071665	0.00056708	1145.3	7.5365e-06	2.2533e-06	1386.3	421.59	1.4463e-05	2.3294e-05	540.93	216.57	161.77	76.184	1.0332e-05	107.99	0.0074185	0.0090509	0.0025346	1173	9.3953e-05	0.00010128	1392.1	434.78	9.7421e-05	0.0001007	559.89	221.61	167.87	78.315	0.00010024	109.75	214.693	113.342	206.774	63.527	232.786	405.319	62.571	69.431	216.406	190.008	67.860	72.473	75.917	79.673	234.402	75.918	-8191	255	
1030.736	1	1	0	0	0.016915	0.27906	0.27449	0.27587	0.23508	0.21727	0.16367	0.075495	0.1861	0.20423	0.012829	0.093776	0.31613	0.35143	0.08343	0.41279	-1.9479	-2.1979	-2.4771	-2.5625	-2.2208	-2.7042	-2.4083	-2.6375	-2.4271	-2.2062	-2.8708	-2.4458	-2.1813	-2.9104	-2.2333	-2.5958	188.316	91.875	131.488	369.431	385.804	336.249	317.196	329.136	139.675	402.984	289.329	364.473	338.148	368.820	70.507	297.236	0.00087384	0.0011612	0.00070592	1151.3	1.5627e-05	9.289e-06	1385.6	427.15	1.8339e-05	3.6227e-06	545.07	216.91	163.03	76.57	1.0729e-05	108.61	0.0073123	0.0090396	0.0024921	1174.1	9.3877e-05	0.00010017	1394.7	436.77	9.7295e-05	0.00010159	561.73	222.15	168.69	78.721	0.00010188	110.21	220.758	70.942	180.206	63.869	243.248	254.023	62.507	69.308	211.821	252.782	67.291	72.362	75.533	79.708	231.649	75.822	-8191	255	
1030.832	1	1	0	0	0.094224	0.28959	0.26654	0.43949	0.11637	0.16328	0.32321	0.31875	0.11875	0.29163	0.11109	0.44233	0.15691	0.1526	0.22209	0.079095	-1.95	-2.0292	-2.4917	-2.5792	-2.2083	-2.5146	-2.2958	-2.3958	-2.5833	-2.0938	-2.6667	-2.5521	-2.1792	-2.6729	-2.3667	-2.4896	172.117	189.089	315.322	367.184	165.706	273.195	343.472	282.401	270.622	55.651	381.308	362.830	285.108	403.410	320.047	324.339	0.00087812	0.00021224	0.0004288	1147	8.1515e-06	1.064e-05	1387.3	422.3	1.4594e-05	1.8358e-05	538.1	214.91	161.65	75.517	9.9538e-06	107.13	0.0072642	0.009242	0.0024934	1170.2	9.5833e-05	0.0001001	1387.9	435.48	9.6069e-05	0.00010296	559.22	220.05	168.23	77.946	9.9273e-05	109.09	222.659	333.160	163.887	63.466	350.462	210.852	62.681	69.365	252.251	228.628	67.457	72.427	75.618	79.858	177.143	76.033	-8191	255	
1030.928	1	1	0	0	0.13243	0.21135	0.066815	0.19096	0.0028509	0.11003	0.2511	0.10044	0.097412	0.3584	0.43227	0.27505	0.16324	0.15872	0.20816	0.37679	-2.1125	-1.9562	-2.5167	-2.6125	-2.0333	-2.6667	-2.4542	-2.5	-2.5792	-2.2625	-2.5167	-2.45	-2.225	-2.6833	-2.3583	-2.2854	360.122	101.681	385.303	351.570	162.524	154.825	369.577	378.286	331.810	146.104	339.651	331.100	176.814	57.368	87.841	402.887	0.00087287	0.00081441	0.00077263	1143.6	2.0725e-05	2.841e-05	1375.5	421.67	6.5621e-06	8.9298e-06	538.52	213.69	160.62	75.405	6.7779e-06	106.74	0.0072517	0.0093357	0.0025651	1169.2	9.8729e-05	0.00010149	1384.1	435.14	9.7251e-05	0.00010418	557.39	219.04	167.93	77.874	9.961e-05	108.88	224.544	80.248	149.361	63.646	178.475	201.076	62.484	69.562	394.818	163.824	67.132	72.459	75.807	79.775	92.536	75.865	-8191	255	
1031.049	1	1	0	0	0.18887	0.073467	0.24394	0.2786	0.11955	0.13053	0.13746	0.40204	0.068686	0.20997	0.1776	0.40966	0.13046	0.1548	0.099635	0.37786	-2.0896	-2.2313	-2.3875	-2.5729	-2.1688	-2.4708	-2.5021	-2.3646	-2.6063	-2.2583	-2.5208	-2.7979	-2.3083	-2.8167	-2.4396	-2.3729	333.016	245.361	241.330	361.049	303.514	370.332	371.454	375.584	56.544	363.652	309.678	400.146	351.052	404.161	245.186	370.553	0.00097342	0.00078679	0.00040242	1147.4	1.4431e-05	6.8792e-06	1382.9	421.36	1.2067e-05	1.6512e-05	537.56	213.83	161.2	75.611	1.8427e-05	107.23	0.0073132	0.0093192	0.0025693	1169.1	9.9937e-05	0.00010065	1389.5	435.65	9.7739e-05	0.00010469	557.6	219.29	168.13	78.048	9.87e-05	109.28	218.346	178.882	128.235	63.463	120.376	332.775	62.718	69.474	194.325	164.909	67.465	72.411	75.984	79.572	211.707	75.809	-8191	255	
1031.120	1	1	0	0	0.22332	0.052745	0.2011	0.27612	0.21519	0.14335	0.12227	0.29088	0.4713	0.23713	0.16016	0.079295	0.33989	0.17368	0.21451	0.094806	-2.2708	-2.1583	-2.4479	-2.7979	-2.0646	-2.5396	-2.6625	-2.4979	-2.6312	-2.3667	-2.5208	-2.7812	-2.3771	-2.7604	-2.4104	-2.4021	350.104	121.569	226.179	369.282	314.481	55.189	371.487	319.024	288.710	233.250	359.859	255.708	353.080	73.978	63.160	242.350	0.00064564	0.00067717	2.8538e-05	1150.8	7.6049e-06	1.4182e-05	1387.1	422.61	8.433e-06	1.4525e-05	541.98	215.05	161.67	75.98	1.4594e-05	107.45	0.0072319	0.0093312	0.002579	1173.2	9.9237e-05	0.0001007	1389.6	437.14	9.7517e-05	0.0001027	559.57	220.41	168.86	78.249	9.8677e-05	109.78	216.462	190.192	239.916	63.501	224.173	216.036	62.863	69.309	231.852	78.141	67.471	72.156	75.805	79.752	151.141	76.133	-8191	255	
1031.217	1	1	0	0	0.10717	0.041033	0.2249	0.2494	0.09627	0.24356	0.06742	0.17468	0.23478	0.10055	0.17803	0.26925	0.50556	0.15898	0.12348	0.17503	-2.0583	-2.2083	-2.3708	-2.5625	-2.2521	-2.4979	-2.6667	-2.2667	-2.4208	-2.2375	-2.1437	-2.8688	-2.3417	-2.4833	-2.4854	-2.4354	280.939	146.710	399.435	100.092	293.402	360.824	314.755	312.266	142.750	68.879	398.322	374.325	398.197	71.775	149.290	354.497	0.00094609	0.00068786	0.00082712	1145.7	8.727e-06	3.5912e-05	1380.8	422.19	1.1016e-05	8.5047e-06	539.1	214.75	161.85	75.804	1.6517e-05	106.91	0.007327	0.0092272	0.0026124	1171.2	9.8768e-05	0.00010055	1388.9	437.09	9.752e-05	0.00010205	559.23	219.86	168.47	77.919	9.8037e-05	109.05	219.513	294.250	123.933	63.555	198.569	213.645	62.548	69.389	310.468	163.329	67.120	72.427	75.658	79.782	222.319	76.299	-8191	255	
1031.313	1	1	0	0	0.16145	0.29386	0.23038	0.1307	0.22756	0.083439	0.26162	0.28967	0.082324	0.12748	0.44492	0.32098	0.31264	0.10406	0.056453	0.25768	-2.1	-2.3187	-2.3187	-2.8125	-2.1646	-2.4625	-2.7333	-2.3	-2.3979	-2.4062	-2.2812	-2.6604	-2.3	-2.4542	-2.4938	-2.1854	228.760	112.537	334.531	371.630	269.516	195.475	349.432	389.825	191.756	266.215	368.361	65.149	337.422	180.990	265.400	351.019	0.00072415	0.0014108	0.00056496	1150.4	1.48e-05	2.5954e-05	1374.6	423.45	4.3113e-06	1.7229e-05	539.23	213.63	161.72	75.961	8.4934e-06	106.33	0.007241	0.0091485	0.002603	1172.8	9.7665e-05	0.00010091	1383.4	436.98	9.6974e-05	9.9369e-05	558.07	219.1	168.63	78.16	9.7202e-05	108.81	226.521	132.815	147.826	63.698	218.985	161.664	62.584	69.389	206.375	199.682	67.526	72.315	75.675	79.625	133.118	75.908	-8191	255	
1031.409	1	1	0	0	0.18313	0.13787	0.37645	0.18968	0.2231	0.0598	0.27075	0.22585	0.17162	0.21011	0.10397	0.35388	0.26399	0.51006	0.08872	0.20842	-2.0771	-2.2833	-2.2167	-2.6667	-2.3729	-2.3187	-2.7313	-2.1854	-2.3771	-2.3896	-2.3896	-2.725	-2.4646	-2.4042	-2.5167	-2.5563	326.395	355.368	241.372	375.286	79.740	220.933	377.656	404.135	353.581	370.769	394.172	376.384	307.485	396.429	328.917	308.700	0.00079528	0.0011784	0.00074722	1147	1.5313e-05	3.6121e-05	1380.2	424.02	5.2517e-06	2.4576e-06	539.69	215.09	162.79	76.18	1.4364e-05	107.27	0.0070986	0.0090006	0.0025639	1169.9	9.6042e-05	9.9018e-05	1382.9	437.06	9.6115e-05	9.7917e-05	559.22	219.96	169.1	78.293	9.7015e-05	109.27	213.183	148.596	160.084	63.619	211.936	231.759	62.572	69.644	288.006	106.868	67.616	72.389	75.786	79.626	199.902	76.261	-8191	255	
1031.528	1	1	0	0	0.05201	0.16496	0.12569	0.047768	0.26846	0.18265	0.33521	0.41743	0.16778	0.26708	0.17201	0.25468	0.20718	0.23705	0.070143	0.23787	-1.8125	-2.4354	-1.9771	-2.5812	-2.3333	-2.3604	-2.7687	-2.2333	-2.4188	-2.5208	-2.3292	-2.775	-2.5271	-2.4604	-2.625	-2.3271	124.486	291.445	100.157	67.964	392.605	181.651	62.297	357.415	331.117	330.303	74.585	403.139	409.226	57.941	264.964	321.380	0.00076609	0.0017781	0.00040605	1147.7	8.7227e-06	8.8902e-06	1384.6	424.83	5.3567e-06	1.0102e-05	542.73	216.8	163.68	76.538	1.5863e-05	107.73	0.0070498	0.00886	0.002528	1172.1	9.3359e-05	9.8863e-05	1384	437.23	9.4301e-05	9.7307e-05	561.5	220.82	169.93	78.842	9.4519e-05	109.87	220.492	149.752	132.228	63.679	211.231	210.256	62.447	69.446	283.318	408.274	67.537	72.476	75.787	79.830	185.987	76.225	-8191	255	
1031.624	1	1	0	0	0.13071	0.16631	0.090097	0.18935	0.10159	0.30214	0.13197	0.39374	0.19067	0.1929	0.061016	0.26843	0.26582	0.17156	0.17578	0.26912	-1.9333	-2.4938	-1.9188	-2.5021	-2.4979	-2.1437	-2.7167	-2.3688	-2.3208	-2.4792	-2.2521	-2.5208	-2.5521	-2.4833	-2.5354	-2.4125	68.455	136.288	83.892	64.264	144.579	105.335	310.413	384.752	54.595	172.651	348.726	371.938	242.102	51.724	387.013	293.151	0.0007862	0.0013093	0.00024963	1147.8	6.2192e-06	1.4222e-05	1385	425.73	1.5009e-05	2.0511e-05	539.81	216.73	163.71	76.715	2.4951e-05	107.5	0.0070442	0.0088047	0.0025403	1172.1	9.2372e-05	0.00010006	1385.4	438.31	9.4236e-05	9.6888e-05	561.48	220.54	169.64	78.776	9.6275e-05	109.59	233.107	133.115	102.519	63.485	257.861	222.902	62.627	69.401	246.454	241.386	67.050	72.332	75.517	79.736	258.049	75.924	-8191	255	
1031.720	1	1	0	0	0.17861	0.24831	0.2395	0.25301	0.26677	0.2075	0.31825	0.33704	0.12931	0.25992	0.12881	0.23192	0.13175	0.48831	0.30199	0.077682	-1.9125	-2.55	-2.0146	-2.6167	-2.6333	-2.1708	-2.6458	-2.575	-2.125	-2.5563	-2.4771	-2.5125	-2.6083	-2.1354	-2.3729	-2.6333	150.272	150.921	127.540	351.161	307.658	328.281	337.598	383.971	398.913	198.564	355.880	345.671	395.112	62.229	241.815	329.817	0.0007237	0.00022517	0.00035804	1148	1.4346e-05	1.0646e-05	1379.4	422.05	5.0897e-06	8.139e-06	534.26	213.53	160.65	75.176	1.2554e-05	105.83	0.0071553	0.00892	0.0025559	1169.8	9.436e-05	0.00010199	1382.6	434.12	9.6526e-05	9.9006e-05	554.77	218.3	167.12	77.403	9.7806e-05	107.89	233.973	159.488	90.713	63.672	145.721	194.068	62.694	69.700	267.614	224.447	67.508	72.474	75.724	79.565	223.824	75.980	-8191	255	
1031.816	1	1	0	0	0.40019	0.18424	0.15209	0.19086	0.024858	0.19431	0.43785	0.30038	0.14361	0.087584	0.20432	0.12027	0.18797	0.309	0.14873	0.13823	-1.5125	-2.4917	-2.1	-2.7354	-2.5479	-2.2417	-2.8542	-2.4417	-2.2	-2.6312	-2.4458	-2.4792	-2.7417	-2.35	-2.3354	-2.5917	58.777	89.135	297.760	351.073	342.579	181.493	329.034	326.855	92.346	264.293	323.145	139.291	372.174	368.794	394.055	408.290	0.00092476	0.002527	0.00025592	1139.6	2.118e-05	1.7581e-05	1375.7	420.71	8.7382e-06	1.9323e-05	537.39	213.22	160.52	75.733	9.2074e-06	106.32	0.0072756	0.0090612	0.0025587	1164.9	9.4775e-05	0.00010275	1379.3	433.09	9.7377e-05	9.998e-05	555.52	218.07	167.38	77.795	9.8108e-05	108.07	215.645	152.275	118.966	63.669	246.731	206.518	62.658	69.535	223.936	129.350	67.662	72.378	75.612	79.712	407.331	76.152	-8191	255	
1031.912	1	1	0	0	0.21464	0.36063	0.036526	0.28047	0.17272	0.040067	0.4203	0.38507	0.15944	0.22097	0.22086	0.16806	0.19164	0.43803	0.016699	0.29558	-1.6458	-2.4813	-2.0938	-2.5438	-2.6042	-2.2083	-2.6458	-2.5646	-2.0167	-2.6354	-2.5458	-2.4562	-2.7583	-2.3292	-2.4354	-2.6417	206.374	152.126	199.793	374.670	310.958	101.872	351.481	366.320	201.345	406.941	65.393	74.732	74.561	409.814	86.034	370.621	0.0006498	0.00074141	0.00036105	1147.6	2.1142e-05	1.5292e-05	1374.5	421.16	1.6746e-05	1.7073e-05	535.5	213.63	161.57	75.745	1.9062e-05	106.37	0.0073308	0.0089971	0.0025698	1168.6	9.4975e-05	0.00010267	1379.5	433.88	9.7495e-05	9.9865e-05	556.71	219.11	168.23	77.886	9.7996e-05	108.14	217.709	111.903	379.175	63.606	245.634	181.022	62.455	69.618	225.682	164.944	67.172	72.402	75.911	79.674	268.087	76.036	-8191	255	
1032.008	1	1	0	0	0.22126	0.066828	0.13538	0.25179	0.076562	0.29701	0.037051	0.34141	0.11402	0.098002	0.15307	0.30545	0.096985	0.26652	0.24884	0.18803	-1.625	-2.4604	-2.2479	-2.2917	-2.6292	-2.2167	-2.675	-2.7125	-2.1542	-2.6	-2.4542	-2.3167	-2.6771	-2.4813	-2.4229	-2.7229	70.148	165.020	342.408	219.243	356.137	98.633	343.295	369.855	175.087	252.257	352.964	384.753	63.587	80.278	241.467	382.137	0.00077584	0.0015246	7.4779e-05	1142.3	1.5252e-05	2.6018e-05	1380.7	420.43	1.1808e-05	1.5869e-05	539	213.39	161.4	75.855	1.0665e-05	106.34	0.0073581	0.009052	0.0025483	1167.2	9.4547e-05	0.00010173	1382.8	434.34	9.8368e-05	9.9733e-05	556.77	219.44	167.88	77.93	9.7884e-05	108.47	219.108	237.159	168.883	63.400	246.164	229.844	62.712	69.507	204.886	121.745	67.483	72.525	75.607	79.714	138.762	75.910	-8191	255	
1032.129	1	1	0	0	0.21111	0.11908	0.16597	0.15619	0.073134	0.082748	0.30614	0.19	0.23901	0.16751	0.085547	0.23077	0.20327	0.11925	0.050038	0.3069	-1.625	-2.6375	-2.4042	-2.1958	-2.7042	-2.2812	-2.4979	-2.6542	-2.1271	-2.4521	-2.4208	-2.2542	-2.7708	-2.6063	-2.3917	-2.9188	140.146	166.575	384.353	332.202	135.549	252.047	402.804	400.078	88.615	390.658	57.012	386.552	57.910	241.654	275.436	383.508	0.00077813	0.00064366	9.5662e-05	1145.4	1.0934e-05	6.5846e-06	1386.7	425.27	6.3006e-06	2.0175e-05	540.08	215.06	162.17	75.692	1.5321e-05	107.17	0.0073708	0.0089765	0.0025312	1168.1	9.5423e-05	0.00010219	1384.9	435.62	9.7513e-05	9.9968e-05	558.25	220.55	168.67	78.118	9.7423e-05	108.83	235.465	362.308	193.672	63.500	226.058	266.734	62.583	69.916	252.270	160.045	67.234	72.191	75.582	79.773	196.327	75.763	-8191	255	
1032.223	1	1	0	0	0.007964	0.081632	0.18159	0.16573	0.16192	0.14475	0.17492	0.068083	0.090492	0.088785	0.20612	0.14626	0.12414	0.25982	0.10793	0.36459	-1.6167	-2.425	-2.3792	-2.35	-2.5625	-2.3604	-2.3896	-2.9062	-2.2646	-2.2479	-2.5812	-2.1417	-2.6937	-2.7167	-2.2833	-2.75	162.556	126.445	292.253	343.133	251.213	274.555	348.552	283.579	133.910	376.161	112.314	153.262	93.451	393.687	306.257	340.064	0.00080211	0.001337	0.00035297	1146.1	1.9873e-05	9.2124e-06	1378.2	421.96	1.5561e-05	1.0214e-05	533.17	212.84	161.01	75.336	2.3873e-05	105.4	0.0072598	0.008965	0.0025209	1167.5	9.5017e-05	9.9865e-05	1381.5	432.91	9.7371e-05	0.00010018	553.24	218.47	167.15	77.396	9.9341e-05	107.79	226.577	184.015	193.113	63.662	309.889	182.235	62.665	69.502	161.771	146.374	67.544	72.155	75.636	79.719	245.721	76.092	-8191	255	
1032.321	1	1	0	0	0.18713	0.1051	0.01613	0.15912	0.38389	0.026344	0.32436	0.48578	0.20217	0.28461	0.19971	0.10698	0.30246	0.19447	0.12608	0.059856	-1.7125	-2.2979	-2.5042	-2.4167	-2.5521	-2.5125	-2.3167	-2.6625	-2.3479	-2.2229	-2.7083	-2.4292	-2.7438	-2.6292	-2.1792	-2.6917	58.396	346.720	310.158	330.473	112.658	346.118	333.417	406.283	91.387	244.496	124.713	189.861	392.946	67.534	381.779	67.496	0.00096827	0.0011111	0.00050916	1143.2	1.4001e-05	1.0312e-05	1376.5	417.62	1.1021e-05	1.5083e-05	534.91	213.13	160.74	74.759	2.1686e-05	105.51	0.0073247	0.0090435	0.00252	1166.4	9.6316e-05	9.9652e-05	1381.1	431.09	9.7438e-05	0.00010086	553.99	218.56	166.79	77.073	0.0001006	107.79	225.484	153.799	153.069	63.481	258.881	245.951	62.571	69.590	286.121	209.638	67.638	72.228	75.656	79.839	220.006	75.648	-8191	255	
1032.416	1	1	0	0	0.11116	0.080104	0.014399	0.21507	0.25033	0.12829	0.36986	0.24362	0.25037	0.24946	0.09303	0.22207	0.12086	0.33574	0.18821	0.14444	-1.9083	-2.2271	-2.4688	-2.2625	-2.4333	-2.4271	-2.1688	-2.7354	-2.3146	-2.1625	-2.5938	-2.1958	-2.6125	-2.6208	-2.075	-2.8021	173.246	66.269	187.420	359.950	392.003	139.118	346.986	389.574	256.104	174.576	152.636	325.555	372.520	343.615	381.991	395.842	0.00077433	0.0013839	0.0007732	1137.9	1.1975e-05	1.8191e-05	1373.8	416.46	7.3822e-06	1.0189e-05	530.55	211.29	159.35	74.411	2.3717e-05	106.03	0.0073634	0.0091816	0.0025587	1163.9	9.732e-05	9.9986e-05	1382.6	428.92	9.7373e-05	0.00010044	551.12	217.31	165.94	76.446	9.8303e-05	107.73	223.355	97.520	151.997	63.327	135.862	198.741	62.636	69.761	178.302	203.467	67.175	72.160	75.933	79.826	246.987	76.086	-8191	255	
#DATA ENDS
