BOXY.EXE: ISS Imagent and Oximeter Data Acquisition Program Version 0.80
Ascii Record File

#ACQ INFORMATION
2  Detector Channels 
16  External MUX Channels 
1  Auxiliary Channels 
5000  Waveform (CCF) Frequency (Hz)
1  Waveforms Skipped 
30  Waveforms Averaged 
1  Cycles Averaged 
16  Acquisitions per Waveform 
10.0806  Updata Rate (Hz) 

#FILE INFORMATION
TRUE -- External MUX Channel results are PARSED.
FALSE -- AC DC and Phase are NOT grouped.
TRUE -- Companion Program Settings File CREATED.
FALSE -- AC data not excluded
FALSE -- DC data not excluded
FALSE -- Phase data not excluded
FALSE -- Auxillary Chn. data not excluded
Tab delimiters

#CALIBRATION STATE
TRUE -- Waveform Calibration Values APPLIED.


#AUX CALIBRATION VALUES
Val Type	aux-1	

Term	1.0000e+00	
Factor	0.0000e+00	


#WF CALIBRATION VALUES
A = Detector Channel
Val Type	A-AC1	A-AC2	A-AC3	A-AC4	A-AC5	A-AC6	A-AC7	A-AC8	A-AC9	A-AC10	A-AC11	A-AC12	A-AC13	A-AC14	A-AC15	A-AC16	A-DC1	A-DC2	A-DC3	A-DC4	A-DC5	A-DC6	A-DC7	A-DC8	A-DC9	A-DC10	A-DC11	A-DC12	A-DC13	A-DC14	A-DC15	A-DC16	A-Ph1	A-Ph2	A-Ph3	A-Ph4	A-Ph5	A-Ph6	A-Ph7	A-Ph8	A-Ph9	A-Ph10	A-Ph11	A-Ph12	A-Ph13	A-Ph14	A-Ph15	A-Ph16	

Term	0.00000e+00	0.00000e+00	0.00000e+00	0.00000e+00	0.00000e+00	0.00000e+00	0.00000e+00	0.00000e+00	0.00000e+00	0.00000e+00	0.00000e+00	0.00000e+00	0.00000e+00	0.00000e+00	0.00000e+00	0.00000e+00	0.00000e+00	0.00000e+00	0.00000e+00	0.00000e+00	0.00000e+00	0.00000e+00	0.00000e+00	0.00000e+00	0.00000e+00	0.00000e+00	0.00000e+00	0.00000e+00	0.00000e+00	0.00000e+00	0.00000e+00	0.00000e+00	0.00000e+00	0.00000e+00	0.00000e+00	0.00000e+00	0.00000e+00	0.00000e+00	0.00000e+00	0.00000e+00	0.00000e+00	0.00000e+00	0.00000e+00	0.00000e+00	0.00000e+00	0.00000e+00	0.00000e+00	0.00000e+00	
Factor	1.00000e+00	1.00000e+00	1.00000e+00	1.00000e+00	1.00000e+00	1.00000e+00	1.00000e+00	1.00000e+00	1.00000e+00	1.00000e+00	1.00000e+00	1.00000e+00	1.00000e+00	1.00000e+00	1.00000e+00	1.00000e+00	1.00000e+00	1.00000e+00	1.00000e+00	1.00000e+00	1.00000e+00	1.00000e+00	1.00000e+00	1.00000e+00	1.00000e+00	1.00000e+00	1.00000e+00	1.00000e+00	1.00000e+00	1.00000e+00	1.00000e+00	1.00000e+00	X	X	X	X	X	X	X	X	X	X	X	X	X	X	X	X	

B = Detector Channel
Val Type	B-AC1	B-AC2	B-AC3	B-AC4	B-AC5	B-AC6	B-AC7	B-AC8	B-AC9	B-AC10	B-AC11	B-AC12	B-AC13	B-AC14	B-AC15	B-AC16	B-DC1	B-DC2	B-DC3	B-DC4	B-DC5	B-DC6	B-DC7	B-DC8	B-DC9	B-DC10	B-DC11	B-DC12	B-DC13	B-DC14	B-DC15	B-DC16	B-Ph1	B-Ph2	B-Ph3	B-Ph4	B-Ph5	B-Ph6	B-Ph7	B-Ph8	B-Ph9	B-Ph10	B-Ph11	B-Ph12	B-Ph13	B-Ph14	B-Ph15	B-Ph16	

Term	0.00000e+00	0.00000e+00	0.00000e+00	0.00000e+00	0.00000e+00	0.00000e+00	0.00000e+00	0.00000e+00	0.00000e+00	0.00000e+00	0.00000e+00	0.00000e+00	0.00000e+00	0.00000e+00	0.00000e+00	0.00000e+00	0.00000e+00	0.00000e+00	0.00000e+00	0.00000e+00	0.00000e+00	0.00000e+00	0.00000e+00	0.00000e+00	0.00000e+00	0.00000e+00	0.00000e+00	0.00000e+00	0.00000e+00	0.00000e+00	0.00000e+00	0.00000e+00	-2.84052e+01	-1.28238e+02	-1.23055e+02	-1.81347e+02	-4.90151e+01	-6.44906e+01	-1.58583e+02	-1.62015e+02	-3.30316e+01	-6.71694e+01	-1.70474e+02	-1.69975e+02	-1.81443e+02	-1.76799e+02	-5.34590e+01	-1.49645e+02	
Factor	2.60320e-05	1.63302e-04	4.34181e-05	1.49363e-01	1.92631e-06	1.64092e-06	1.64229e-01	5.54761e-02	1.53204e-06	1.58752e-06	8.65546e-02	3.10973e-02	2.68888e-02	9.37520e-03	1.83265e-06	1.32400e-02	1.49363e-05	2.69560e-05	7.46987e-06	7.68193e-02	2.59114e-07	3.03878e-07	7.93361e-02	2.86037e-02	2.60344e-07	3.00301e-07	4.33358e-02	1.55925e-02	1.39820e-02	4.88742e-03	2.77576e-07	6.67928e-03	X	X	X	X	X	X	X	X	X	X	X	X	X	X	X	X	



#DISTANCE SETTINGS
A = Detector Channel
A-1	A-2	A-3	A-4	A-5	A-6	A-7	A-8	A-9	A-10	A-11	A-12	A-13	A-14	A-15	A-16	

2.5000e+00	3.0000e+00	2.5000e+00	3.0000e+00	2.0000e+00	3.0000e+00	1.5000e+00	3.0000e+00	3.0000e+00	3.0000e+00	3.0000e+00	3.0000e+00	3.0000e+00	3.0000e+00	1.5000e+00	3.0000e+00	

B = Detector Channel
B-1	B-2	B-3	B-4	B-5	B-6	B-7	B-8	B-9	B-10	B-11	B-12	B-13	B-14	B-15	B-16	

1.0000e+01	1.0000e+01	1.0000e+01	1.4400e+00	1.0000e+01	1.0000e+01	1.5100e+00	1.9400e+00	1.0000e+01	1.0000e+01	1.9900e+00	2.4900e+00	2.4100e+00	2.9000e+00	1.0000e+01	2.9800e+00	




#DATA BEGINS
time	group	step	mark	flag	A-AC1	A-AC2	A-AC3	A-AC4	A-AC5	A-AC6	A-AC7	A-AC8	A-AC9	A-AC10	A-AC11	A-AC12	A-AC13	A-AC14	A-AC15	A-AC16	A-DC1	A-DC2	A-DC3	A-DC4	A-DC5	A-DC6	A-DC7	A-DC8	A-DC9	A-DC10	A-DC11	A-DC12	A-DC13	A-DC14	A-DC15	A-DC16	A-Ph1	A-Ph2	A-Ph3	A-Ph4	A-Ph5	A-Ph6	A-Ph7	A-Ph8	A-Ph9	A-Ph10	A-Ph11	A-Ph12	A-Ph13	A-Ph14	A-Ph15	A-Ph16	B-AC1	B-AC2	B-AC3	B-AC4	B-AC5	B-AC6	B-AC7	B-AC8	B-AC9	B-AC10	B-AC11	B-AC12	B-AC13	B-AC14	B-AC15	B-AC16	B-DC1	B-DC2	B-DC3	B-DC4	B-DC5	B-DC6	B-DC7	B-DC8	B-DC9	B-DC10	B-DC11	B-DC12	B-DC13	B-DC14	B-DC15	B-DC16	B-Ph1	B-Ph2	B-Ph3	B-Ph4	B-Ph5	B-Ph6	B-Ph7	B-Ph8	B-Ph9	B-Ph10	B-Ph11	B-Ph12	B-Ph13	B-Ph14	B-Ph15	B-Ph16	aux-1	digaux	

38768.984	1	1	0	256	0.16282	0.18288	0.1602	0.20499	0.20033	0.065669	0.16305	0.26734	0.23007	0.2588	0.17259	0.19523	0.15692	0.066975	0.32962	0.2106	-2.0583	-3.0062	-2.0771	-2.7667	-2.7562	-1.9917	-3.1792	-2.4229	-2.1521	-3.0083	-2.2125	-2.8021	-2.9042	-2.2062	-3.0125	-2.5542	128.889	151.907	294.256	134.573	425.701	429.919	348.859	317.785	89.986	406.825	348.577	297.401	133.640	314.849	359.631	422.105	0.00054643	0.00032823	7.5749e-05	586.94	3.0979e-06	6.7847e-06	514.23	222.51	4.3967e-06	3.3581e-06	208.06	78.972	83.823	34.98	1.9533e-06	37.083	0.0054793	0.0094993	0.0026234	637.17	9.168e-05	0.0001065	559.84	242.71	9.2215e-05	0.00010535	232.91	87.934	93.06	38.891	0.00010028	41.338	267.800	149.231	299.620	97.479	253.949	197.546	96.062	103.450	143.891	309.628	100.528	105.414	108.430	113.793	385.125	109.497	-8191	255	
38769.082	1	1	0	0	0.21413	0.096134	0.022841	0.11064	0.25095	0.068628	0.22075	0.15525	0.28956	0.13564	0.11651	0.15159	0.27992	0.52741	0.13587	0.14955	-1.7125	-3.0354	-2.1604	-2.7875	-2.7313	-2.3271	-2.9688	-2.7875	-2.1354	-2.9979	-2.4479	-2.7375	-2.775	-2.1375	-2.925	-2.4938	134.730	290.225	107.792	397.340	406.676	435.000	314.931	431.893	330.582	208.284	361.718	338.660	95.772	355.195	144.952	420.424	0.00051196	0.00047614	9.9016e-05	586.11	5.2372e-07	1.5944e-06	516.27	224.62	6.7587e-06	6.6527e-06	210.93	79.653	84.376	35.179	4.4417e-06	37.21	0.0054871	0.0093703	0.0026045	636.65	8.7188e-05	0.00010119	560.51	243.51	8.4561e-05	9.5064e-05	234.17	88.17	92.823	38.806	8.8459e-05	41.331	259.571	169.592	241.317	97.965	423.023	260.599	96.146	103.322	278.931	231.972	100.427	105.192	107.771	113.448	254.293	109.107	-8191	255	
38769.199	1	1	0	0	0.033896	0.14458	0.2687	0.24022	0.24801	0.19586	0.30957	0.074273	0.38832	0.056192	0.088702	0.11708	0.37026	0.078375	0.12533	0.13431	-1.8771	-3.0583	-2.4208	-2.4833	-2.9979	-2.2333	-3.0646	-2.6604	-2.2083	-3.0271	-2.5208	-2.3375	-3.1562	-2.3896	-2.9208	-2.75	244.203	105.851	251.866	412.503	89.019	389.932	440.086	336.718	112.252	145.779	265.438	182.075	387.409	113.542	365.082	401.073	0.00059863	0.0005337	0.00017708	585.89	1.0026e-05	5.2968e-06	518.97	224.79	8.2279e-06	3.6851e-06	213.21	80.477	85.131	35.553	9.0055e-06	37.724	0.0049212	0.0085452	0.0024037	635.2	8.2781e-05	9.7388e-05	560.88	244.33	8.3675e-05	9.6362e-05	236.24	89.03	93.785	39.287	8.8928e-05	41.883	272.665	204.568	181.094	97.578	241.337	196.764	96.062	103.156	250.552	195.068	100.163	105.384	108.126	113.427	267.951	109.398	-8191	255	
38769.297	1	1	0	0	0.040199	0.069172	0.10127	0.25221	0.12691	0.073885	0.18617	0.29662	0.16826	0.12156	0.34868	0.085944	0.061988	0.40719	0.14976	0.096768	-1.7812	-2.8479	-2.275	-2.3125	-2.9667	-2.1667	-2.6979	-2.9333	-2.1	-3.0042	-2.475	-2.3542	-3.0896	-2.4083	-2.8042	-2.9854	301.428	234.118	431.542	404.181	235.354	245.506	275.093	377.748	300.740	298.924	375.813	289.910	95.905	365.407	378.686	121.468	0.00066927	8.2315e-05	7.2886e-05	593.24	7.082e-06	3.9807e-06	519.84	226.07	6.9346e-06	8.5028e-06	211.64	80.872	85.082	35.507	1.7006e-06	37.568	0.0050129	0.00877	0.0024529	638.59	8.6346e-05	0.00010198	563.9	245.94	9.1113e-05	0.00010625	237.02	89.699	94.42	39.529	0.00010542	42.095	270.373	211.117	142.886	97.679	293.281	394.560	95.897	103.160	278.521	227.260	100.256	105.307	108.291	113.542	358.396	109.201	-8191	255	
38769.367	1	1	0	0	0.20253	0.16928	0.12612	0.17459	0.24125	0.42968	0.22477	0.34015	0.19215	0.084521	0.1384	0.13364	0.15559	0.28145	0.16187	0.32425	-1.6792	-2.9	-2.4083	-2.3187	-3.0146	-2.2625	-2.8063	-2.9375	-2.05	-3.0021	-2.6937	-2.1458	-2.8396	-2.3979	-2.5875	-2.9229	275.884	341.837	157.323	361.438	160.609	327.835	402.189	430.402	299.801	189.708	396.078	316.643	381.102	417.186	332.010	356.007	0.00054401	0.00040289	0.00018699	585.84	9.6083e-06	3.0284e-07	515.48	224.91	1.0816e-06	8.6565e-06	211.45	80.055	84.774	35.382	1.096e-06	37.525	0.0060268	0.010679	0.0029638	639.89	0.00010536	0.00012443	565.49	246.55	0.0001085	0.00012657	238.72	90.097	94.745	39.815	0.00011944	42.479	264.218	173.540	195.889	97.559	156.221	188.736	95.907	103.104	318.261	248.709	100.448	105.027	108.025	113.681	122.997	109.455	-8191	255	
38769.465	1	1	0	0	0.23042	0.19378	0.17311	0.21095	0.15578	0.059414	0.18468	0.15038	0.15857	0.21482	0.067145	0.4048	0.16292	0.19795	0.20534	0.054734	-1.6812	-2.7167	-2.7958	-2.25	-2.9688	-2.3729	-2.4875	-3.1396	-2.3646	-3.0187	-2.9688	-2.2062	-3.0583	-2.6417	-2.4313	-3.1396	400.434	237.271	199.232	89.482	233.960	168.990	422.101	439.563	190.870	288.178	298.234	107.909	271.890	425.032	430.889	184.073	0.00056434	0.0002204	0.00011765	585.96	9.9323e-06	5.8731e-06	515.2	225.18	6.8658e-06	2.6874e-06	211.95	80.059	84.284	35.515	1.0344e-05	37.741	0.006604	0.011549	0.0032061	643.73	0.00011089	0.00013095	568.11	247.32	0.00011385	0.00013096	239.87	90.411	94.723	39.68	0.00011845	42.485	267.760	292.989	147.359	97.491	253.814	263.538	96.166	103.462	284.270	417.186	100.621	105.555	108.400	113.699	265.784	109.349	-8191	255	
38769.586	1	1	0	0	0.22441	0.17172	0.086284	0.049773	0.21333	0.077529	0.14611	0.17699	0.17413	0.10708	0.23125	0.1778	0.065307	0.05277	0.26484	0.16691	-1.7313	-2.6458	-2.7542	-2.2021	-2.9437	-2.4104	-2.5625	-3.0458	-2.225	-2.8063	-2.7313	-2.1958	-2.9979	-2.5979	-2.3208	-3.1875	130.060	130.716	207.476	331.331	147.139	391.885	188.166	390.490	280.528	312.229	421.255	408.156	408.284	87.597	175.387	335.871	0.0005423	0.00044247	0.00017271	589.29	4.4946e-06	7.7954e-06	520.99	225.44	1.3771e-06	1.9466e-06	213.26	80.485	84.964	35.393	4.3087e-06	37.792	0.0066654	0.01174	0.0032222	645.11	0.00011298	0.00013257	571.04	247.99	0.00011428	0.000131	240.61	90.772	95.195	39.759	0.00011998	42.661	275.633	188.561	157.585	97.589	269.227	222.644	96.126	103.533	285.062	249.572	100.234	105.440	108.565	113.659	306.897	109.334	-8191	255	
38769.680	1	1	0	0	0.23366	0.30144	0.25166	0.09748	0.21462	0.22552	0.32052	0.10672	0.21378	0.15944	0.064307	0.1978	0.14904	0.18417	0.048327	0.12253	-1.8979	-2.7021	-2.9458	-2.3854	-2.8958	-2.7854	-2.5	-3.1292	-2.4083	-2.8167	-3.0521	-2.2646	-2.9437	-2.6771	-2.3417	-3.1708	232.574	211.092	276.271	207.214	134.001	411.026	287.549	297.196	191.661	442.835	413.389	418.548	120.081	92.820	337.011	325.774	0.00046683	0.00021843	0.00013847	588.89	1.4547e-06	6.2775e-06	518.02	224.95	5.9951e-06	6.3426e-06	211.97	80.289	85.051	35.486	7.2438e-06	37.41	0.0067125	0.01181	0.0032477	645.97	0.00011434	0.00013449	570.81	247.76	0.00011563	0.00013304	239.86	90.715	95.334	39.797	0.00012094	42.362	262.344	168.289	118.484	97.717	280.919	172.155	96.038	103.539	275.062	179.181	100.519	105.385	108.252	113.855	214.903	109.832	-8191	255	
38769.777	1	1	0	0	0.13264	0.31912	0.1997	0.036641	0.19826	0.089804	0.072695	0.3062	0.25799	0.33496	0.19274	0.25839	0.30074	0.1902	0.25861	0.17896	-2.0208	-2.4083	-2.9021	-2.2	-2.8479	-2.8729	-2.3	-3.1104	-2.4104	-2.6417	-2.9771	-2.2313	-2.9625	-2.9146	-2.2021	-2.9583	250.032	198.958	141.875	204.809	386.750	216.010	182.460	85.862	334.572	306.853	363.454	100.410	162.989	409.898	353.430	346.208	0.00054394	0.00019526	0.0003316	584.77	4.7489e-06	2.8837e-06	512.75	223.77	2.03e-06	2.2399e-06	210.25	80.037	85.097	35.304	5.8741e-06	37.508	0.0067595	0.011721	0.0032227	640.98	0.00011146	0.00012888	565.94	246.02	0.00011072	0.00012677	237.63	90.117	95.095	39.671	0.00011887	42.323	263.735	264.253	187.785	97.694	161.025	247.075	96.427	103.657	414.966	162.962	100.208	105.342	108.445	113.781	289.317	109.486	-8191	255	
38769.871	1	1	0	0	0.23072	0.020983	0.17728	0.15708	0.04193	0.15328	0.21227	0.11595	0.054777	0.13419	0.13989	0.074516	0.14693	0.11536	0.049202	0.14714	-2.0146	-2.3458	-3.1146	-2.1604	-2.8146	-2.925	-2.4188	-3.1396	-2.4604	-2.4042	-3.0792	-2.1896	-2.7729	-2.8125	-2.0875	-3.0312	209.049	176.940	111.657	90.052	375.296	302.119	104.240	275.251	214.397	207.955	324.877	147.184	89.368	422.794	97.371	412.101	0.00042584	0.00092988	0.00015458	584.36	1.071e-05	5.8839e-06	513.25	223.77	3.5978e-06	4.52e-06	210.7	80.129	84.952	35.234	4.246e-06	37.533	0.0066526	0.01168	0.0032532	641.04	0.00011387	0.00013324	565.8	246.51	0.00011644	0.00013275	238.59	90.531	95.145	39.62	0.00012418	42.595	280.312	173.841	181.185	97.648	335.928	352.907	95.939	103.609	312.411	326.002	100.427	105.555	108.710	113.517	307.281	109.639	-8191	255	
38769.969	1	1	0	0	0.29183	0.049255	0.12754	0.26333	0.12728	0.06147	0.21936	0.34915	0.15379	0.16579	0.23328	0.10465	0.16129	0.31695	0.13926	0.35534	-2.1396	-2.125	-2.8729	-2.3063	-2.575	-2.8021	-2.3937	-2.7667	-2.7042	-2.225	-3.0938	-2.3667	-2.6146	-2.7833	-2.3333	-2.9625	127.374	330.508	156.628	367.492	166.054	346.583	334.682	382.845	339.494	371.579	111.717	133.993	322.783	115.376	367.249	424.275	0.00057026	0.00043719	9.1099e-05	584.6	8.2653e-06	6.3983e-06	517.42	223.93	8.9326e-06	3.8953e-06	212.29	80.441	84.254	35.295	6.1618e-06	37.543	0.0070096	0.012207	0.0034359	644.82	0.00012396	0.00014624	574.48	249.26	0.00013091	0.00015346	244.22	92.516	96.747	40.384	0.00017858	44.078	267.562	192.810	236.540	97.881	267.087	346.291	96.042	103.401	269.260	179.374	100.718	105.489	108.400	113.827	210.666	109.878	-8191	255	
38770.066	1	1	0	0	0.093207	0.090254	0.25141	0.10561	0.06086	0.18224	0.10148	0.23814	0.094097	0.099546	0.23253	0.21561	0.26617	0.085621	0.020124	0.25169	-2.3417	-2.1771	-2.8667	-2.4146	-2.4437	-2.9125	-2.2292	-2.8417	-2.825	-2.2729	-3.1917	-2.3542	-2.3208	-3.1063	-2.2938	-2.6771	411.976	331.936	199.608	111.247	310.011	123.481	381.159	384.179	147.443	131.210	293.855	317.070	115.370	269.113	384.359	125.008	0.00038771	0.00029375	5.3715e-05	585.83	1.0704e-06	1.2498e-05	516.51	221.36	9.424e-06	5.346e-06	205.77	78.148	83.44	34.826	7.992e-06	36.802	0.010976	0.020832	0.0062816	679.8	0.00026302	0.00033912	631.84	269.83	0.00037193	0.00045651	284.93	108	111.83	45.811	0.00050772	51.325	255.248	386.036	143.802	97.730	201.824	372.018	96.023	103.416	354.536	391.134	100.794	106.063	108.919	113.763	397.581	109.862	-8191	255	
38770.160	1	1	0	0	0.16147	0.097877	0.061842	0.11167	0.24431	0.24308	0.10094	0.1934	0.14313	0.069123	0.18628	0.2402	0.14159	0.14903	0.26322	0.25536	-2.4625	-2.1875	-3.0417	-2.5438	-2.4229	-3.0062	-2.2125	-2.875	-2.8937	-2.0687	-2.9021	-2.6667	-2.0812	-3.0667	-2.4333	-2.6688	443.757	278.487	300.026	418.940	211.487	196.964	120.132	374.523	123.081	88.174	355.346	346.078	336.579	384.591	267.006	334.766	0.0005584	6.9818e-05	0.00015906	586.01	5.5859e-06	1.9485e-06	521.24	220.66	1.4774e-05	7.9586e-06	204.96	77.963	83.19	34.501	8.7862e-06	36.384	0.028763	0.052183	0.014774	765.91	0.00052754	0.00062563	705.09	291.29	0.0005477	0.00063736	307.28	114.51	117.09	47.209	0.0005962	52.687	271.715	184.351	90.560	97.799	88.918	158.924	95.866	103.805	265.281	289.148	100.845	105.448	108.786	114.102	318.541	109.854	-8191	255	
38770.281	1	1	0	0	0.19741	0.32522	0.14697	0.067573	0.072503	0.071815	0.21177	0.18998	0.1775	0.34066	0.14397	0.25887	0.19141	0.28693	0.2973	0.10528	-2.6292	-2.0875	-2.8729	-2.6479	-2.3312	-2.9167	-2.2812	-2.5646	-3.0521	-2.1625	-2.7917	-2.7292	-2.225	-3.0354	-2.2146	-2.5583	95.702	404.830	355.183	442.160	407.807	297.744	353.176	366.259	120.675	369.343	359.794	396.942	122.167	408.161	371.716	161.493	0.00057798	0.0011814	0.00041488	590.32	7.2573e-06	4.9968e-06	520.01	219.5	1.0601e-05	3.5484e-06	204.12	76.82	82.341	33.874	3.1223e-06	36.053	0.032119	0.057732	0.016065	778.26	0.00055384	0.00065052	708.51	290.74	0.00055093	0.00063329	305.44	113	115.18	46.32	0.00056725	51.696	274.723	311.719	163.710	97.985	194.429	201.282	96.161	103.828	284.857	373.166	100.630	105.665	108.794	113.926	115.001	109.642	-8191	255	
38770.379	1	1	0	0	0.17566	0.24232	0.1334	0.40592	0.23309	0.10566	0.18768	0.11804	0.18643	0.18503	0.037164	0.24939	0.33421	0.24923	0.090193	0.1108	-2.6521	-2.1354	-2.9667	-2.7792	-2.3	-3.2083	-2.4646	-2.3021	-2.9792	-2.0125	-2.825	-2.9062	-2.1875	-2.9167	-2.5979	-2.3958	367.017	233.146	263.294	412.460	94.129	241.937	238.231	418.768	396.838	440.907	386.439	416.763	143.859	201.008	105.663	264.104	0.0005714	0.00031346	9.6749e-05	583.05	9.2634e-06	1.6133e-05	517.94	220.02	2.8183e-06	1.1156e-05	204.48	77.124	81.492	33.812	1.2733e-05	36.09	0.03013	0.053784	0.014768	758.36	0.0004927	0.00057226	683.52	282.11	0.00047303	0.00054355	292	108.43	110.83	44.728	0.00049578	49.75	278.914	158.851	279.633	97.745	265.021	371.406	96.391	103.524	149.137	250.842	100.991	105.414	108.440	113.908	253.261	109.696	-8191	255	
38770.473	1	1	0	0	0.062797	0.1537	0.24112	0.19522	0.16388	0.091735	0.16067	0.045082	0.25982	0.32335	0.15229	0.15116	0.095196	0.22781	0.17661	0.34398	-2.5854	-2.2687	-2.6833	-2.8604	-2.1646	-3.1229	-2.7917	-2.3208	-2.9938	-2.3354	-2.675	-2.9313	-2.1021	-2.8833	-2.4604	-2.2667	406.930	416.827	329.017	319.014	361.974	254.134	227.159	208.362	279.392	137.690	372.471	88.548	372.953	89.848	163.913	348.629	0.00053965	0.00080189	0.00036118	582.55	1.0666e-05	3.7993e-06	510.87	217.18	5.6827e-06	5.9045e-06	202.22	76.272	81.472	33.485	1.0937e-05	35.5	0.026506	0.047234	0.013086	740.01	0.00044737	0.00052456	665.94	276.3	0.00044213	0.00051124	284.39	105.58	108.79	43.818	0.00045298	48.258	277.687	307.618	197.670	97.913	288.423	310.094	96.014	103.740	199.826	214.178	100.665	105.922	108.518	114.203	252.978	109.694	-8191	255	
38770.594	1	1	0	0	0.21895	0.19642	0.068105	0.31928	0.14898	0.17523	0.13983	0.15363	0.19333	0.14627	0.16052	0.16356	0.13012	0.048516	0.052411	0.12344	-2.5146	-2.1646	-2.4646	-2.9542	-2.0938	-2.9042	-2.8604	-2.3625	-2.975	-2.3771	-2.6125	-3.1312	-2.2396	-2.8604	-2.7521	-2.3667	136.708	223.521	370.071	420.577	153.100	324.613	156.252	133.250	343.976	404.391	184.791	354.440	164.863	223.992	426.926	103.330	0.00066737	0.00079688	0.00012364	579.95	1.3077e-05	7.7321e-06	509.1	217.47	1.5397e-05	6.2716e-06	203.19	77.221	81.251	33.46	6.6129e-06	35.647	0.023961	0.042691	0.011633	722.71	0.00039561	0.00046087	646.46	270.6	0.00038634	0.0004434	276.82	102.83	106.01	42.854	0.00039955	47.17	269.207	152.082	228.721	97.952	380.818	342.524	96.219	103.387	220.729	125.401	100.888	105.661	108.567	114.193	196.020	109.935	-8191	255	
38770.664	1	1	0	0	0.14214	0.15541	0.20516	0.2793	0.11387	0.033984	0.057128	0.2756	0.10059	0.0198	0.29459	0.30215	0.16717	0.26623	0.099852	0.16605	-2.7104	-2.3542	-2.4354	-3.0542	-2.0292	-2.7604	-2.7167	-2.1542	-3.0083	-2.4562	-2.4292	-3.2188	-2.2354	-2.6188	-2.8833	-2.3187	133.549	108.443	147.068	377.206	401.753	361.876	419.547	350.984	149.062	436.223	325.034	378.947	99.653	336.135	212.979	336.395	0.00039616	0.00057857	0.00026642	583.47	1.3282e-05	3.9999e-06	510.94	220.96	1.472e-05	7.255e-06	205.78	77.342	81.862	33.662	9.6118e-06	35.827	0.02142	0.0381	0.010416	713.18	0.00035716	0.000416	638.17	268.18	0.00034622	0.00039567	271.81	100.91	103.88	42.178	0.00036015	46.604	273.842	203.332	201.685	97.861	215.866	245.504	96.236	103.565	346.676	241.831	100.755	105.593	108.870	113.983	243.129	109.625	-8191	255	
38770.762	1	1	0	0	0.17023	0.3155	0.13407	0.087922	0.37334	0.08899	0.14966	0.20725	0.17502	0.062631	0.11568	0.23474	0.093822	0.21809	0.18755	0.17466	-2.6521	-2.4458	-2.4917	-2.9833	-2.2771	-2.725	-3.0104	-2.1188	-3.0167	-2.6437	-2.3	-3.0854	-2.2333	-2.6708	-2.8354	-2.1333	352.017	162.211	352.679	400.513	102.032	265.485	424.493	200.571	438.620	263.429	350.604	86.438	378.592	393.664	144.360	392.403	0.00052672	0.0014543	0.00020744	580.47	5.8606e-06	5.6042e-06	513.51	221.01	7.6196e-06	5.3063e-06	208.49	78.531	81.825	33.68	1.1293e-05	36.005	0.019783	0.03548	0.0098017	707.99	0.00033825	0.00039256	633.6	266.9	0.00032986	0.00037874	270.6	100.79	103.54	42.042	0.00034178	46.187	283.858	274.161	224.681	97.812	306.443	239.690	96.195	103.753	246.911	286.439	100.977	105.903	108.572	114.004	194.735	109.379	-8191	255	
38770.883	1	1	0	0	0.21002	0.15313	0.23077	0.23911	0.21143	0.014518	0.12025	0.1968	0.157	0.35494	0.31637	0.022648	0.24773	0.035082	0.057701	0.18608	-2.6333	-2.3771	-2.2125	-3.1521	-2.3021	-2.4646	-3.0563	-2.1771	-2.8208	-2.5854	-2.2667	-3.0021	-2.4813	-2.4646	-3.0375	-2.1521	151.972	394.109	352.365	394.142	134.974	242.836	440.529	89.872	228.920	376.016	364.542	152.305	180.093	401.198	95.790	152.642	0.00038742	0.00072048	6.8663e-05	579.74	8.3338e-06	4.5137e-06	509.38	218.14	1.1269e-05	5.0227e-06	204.66	76.518	81.367	33.754	4.8525e-06	35.52	0.0186	0.032954	0.0090979	699.63	0.00031537	0.00036893	623.41	263.18	0.00031318	0.00035794	264.02	98.454	101.91	41.485	0.00031732	45.139	271.545	159.133	329.013	97.949	360.076	149.133	96.097	103.596	231.339	118.354	100.439	105.688	108.690	113.982	127.517	109.436	-8191	255	
38770.977	1	1	0	0	0.19338	0.20413	0.12596	0.2242	0.3098	0.065521	0.2198	0.074436	0.24378	0.10742	0.20904	0.23295	0.2014	0.086591	0.17343	0.10508	-2.425	-2.6479	-2.05	-3.0417	-2.35	-2.2333	-3.1021	-2.3667	-2.6354	-2.7104	-2.0833	-3.1354	-2.4875	-2.3104	-2.8688	-2.2604	189.313	307.601	351.818	113.235	386.066	273.710	213.618	380.439	260.108	129.174	86.262	187.211	186.248	336.165	205.400	319.652	0.00063112	0.00084096	0.00031764	581.47	6.1119e-06	8.8149e-06	507.87	217.24	3.9081e-06	1.4419e-06	204.04	76.243	81.646	33.268	9.3378e-06	35.377	0.017169	0.030327	0.0083645	690.38	0.00028298	0.00032339	610.74	258.2	0.00027239	0.00030926	256.92	95.946	99.851	40.401	0.00027966	44.023	272.011	86.097	143.371	97.998	236.568	200.791	96.280	103.416	333.030	244.942	100.778	105.678	108.359	113.964	96.369	109.597	-8191	255	
38771.074	1	1	0	0	0.081054	0.20556	0.058584	0.090227	0.14837	0.18504	0.22811	0.30251	0.10784	0.12523	0.29199	0.15588	0.17981	0.049229	0.068644	0.19323	-2.4375	-2.8229	-2.0062	-2.9917	-2.5771	-2.1479	-3.0687	-2.1896	-2.4521	-2.9833	-1.9958	-3.0083	-2.7313	-2.2917	-2.9729	-2.4938	249.341	237.293	137.423	320.654	313.645	313.164	427.927	104.033	389.025	361.281	134.228	93.954	138.302	116.007	256.639	209.985	0.00044241	0.00044223	0.00018539	578	1.2949e-05	9.7272e-07	505.58	216.61	8.0076e-06	6.4366e-06	203.73	76.799	81.141	33.138	5.9199e-06	35.231	0.015258	0.027162	0.0075242	680.01	0.0002626	0.00030733	605.15	255.55	0.00026315	0.00030178	254.98	95.643	99.341	40.183	0.00027753	43.87	265.111	293.626	409.517	97.837	165.834	344.803	96.621	103.445	270.184	266.115	100.781	105.537	108.286	114.049	350.049	109.800	-8191	255	
38771.172	1	1	0	0	0.17567	0.14304	0.26883	0.029193	0.17857	0.15846	0.21719	0.16245	0.15926	0.04694	0.26237	0.47581	0.10342	0.12277	0.17622	0.29229	-2.1083	-2.825	-2.2979	-2.8146	-2.4125	-2.1271	-3.1021	-2.5521	-2.4542	-2.9875	-1.95	-2.8354	-2.7479	-2.2562	-3.1063	-2.375	207.409	346.787	386.820	139.578	254.357	295.855	369.469	383.313	349.607	403.210	398.897	374.446	158.010	433.469	429.540	132.055	0.00059382	0.00054366	0.00011776	576.23	1.1876e-05	4.1544e-06	509.21	216.09	7.7049e-06	5.3621e-06	204.7	76.625	80.997	33.345	8.507e-06	35.099	0.015299	0.027196	0.0075964	680.49	0.00026192	0.00030709	606.98	255.58	0.00026021	0.0002984	255.84	95.644	98.895	40.126	0.00027622	43.769	279.156	88.357	205.207	97.933	239.307	196.987	96.030	103.568	379.059	263.147	100.587	105.551	108.571	113.912	249.887	109.794	-8191	255	
38771.266	1	1	0	0	0.45161	0.16956	0.25155	0.29574	0.026306	0.18566	0.33324	0.046041	0.12755	0.10722	0.18385	0.21141	0.077816	0.29478	0.15105	0.24583	-1.9292	-3.0542	-1.9021	-2.7833	-2.7687	-2.3187	-3.2104	-2.4708	-2.4875	-3.05	-2.1625	-2.6917	-3.1104	-2.4354	-2.9938	-2.6396	102.532	140.451	237.366	410.853	155.641	197.290	327.024	129.205	185.965	349.687	113.876	267.584	118.376	92.970	88.019	394.226	0.00048703	0.0003248	0.00033004	573.14	3.3823e-06	1.1922e-05	503.39	215.09	8.866e-06	1.0372e-05	200.38	75.574	80.602	33.046	5.2475e-06	34.851	0.015113	0.026882	0.0075404	677.12	0.00026284	0.00030904	604.01	254.77	0.00027035	0.00031246	254.82	95.468	99.496	40.311	0.00029766	43.829	284.512	375.719	325.263	97.723	419.218	255.015	96.166	103.633	260.649	199.358	100.703	105.536	108.541	114.073	272.466	109.719	-8191	255	
38771.363	1	1	0	0	0.16335	0.061166	0.11277	0.21053	0.25445	0.12744	0.13361	0.26497	0.43166	0.20151	0.10114	0.092574	0.11759	0.26272	0.15758	0.26334	-2.0146	-3.1188	-2.0812	-2.75	-2.9667	-2.1229	-2.9479	-2.7271	-2.1667	-3.0708	-2.3563	-2.7333	-3.0417	-2.2667	-2.8125	-2.7354	268.020	189.392	188.669	322.144	380.497	323.382	198.357	411.622	367.069	401.964	123.829	254.149	364.151	407.792	345.580	338.341	0.00051476	0.00071689	0.0001951	574.02	4.738e-06	7.6696e-06	503.14	213.5	1.3456e-05	5.5529e-06	198.23	75.401	80.248	32.828	1.539e-05	34.628	0.01615	0.028846	0.0080936	680.34	0.00027956	0.00032935	607.75	255.05	0.00028707	0.00033184	255.41	95.895	99.81	40.269	0.00030708	43.688	269.351	231.484	184.429	98.049	395.662	123.185	96.355	103.432	206.972	289.576	100.189	105.515	108.377	113.956	248.487	109.766	-8191	255	
38771.457	1	1	0	0	0.28961	0.16641	0.15758	0.11779	0.21362	0.016702	0.094261	0.10228	0.12846	0.18064	0.27711	0.065745	0.25184	0.085664	0.13229	0.048303	-1.6333	-2.9813	-2.3375	-2.4521	-2.9437	-2.2833	-2.8229	-2.8896	-1.9146	-3.1458	-2.3396	-2.3083	-3.15	-2.1167	-2.6833	-2.7792	126.503	86.892	223.151	357.894	269.387	102.411	393.385	369.087	98.450	438.834	179.718	386.013	442.324	414.702	328.971	160.859	0.00045292	0.00072836	0.00014585	572.54	2.5388e-07	7.6324e-06	504.62	215.49	9.2795e-06	3.7034e-06	200.51	76.075	80.362	32.781	1.3565e-05	34.777	0.016335	0.028932	0.0079641	677.22	0.00026861	0.00031284	602.93	253.41	0.00026232	0.00030253	253.04	94.931	98.658	39.895	0.00028105	43.313	283.422	279.624	122.465	98.032	276.268	271.735	96.365	103.531	260.780	245.035	100.456	105.566	108.317	113.846	332.221	109.582	-8191	255	
38771.555	1	1	0	0	0.10977	0.14161	0.22351	0.13776	0.076434	0.39693	0.27608	0.18383	0.25391	0.096536	0.061427	0.097787	0.13635	0.23785	0.21429	0.15174	-1.6125	-3.0604	-2.3063	-2.3542	-3.0833	-2.225	-2.7542	-2.8104	-2.05	-2.925	-2.4458	-2.3667	-2.8854	-2.2542	-2.8229	-2.7729	282.721	297.914	426.041	429.186	362.634	351.297	394.688	93.660	140.909	354.157	131.719	372.420	202.970	353.447	106.378	336.437	0.00055221	0.00070507	0.00022109	574.17	1.2104e-05	1.2669e-05	507.67	213.75	6.3153e-06	1.0412e-05	202.43	76.692	80.993	32.843	1.4541e-05	34.565	0.015151	0.026849	0.0074226	672.98	0.00025157	0.00029601	600.47	252.22	0.00024959	0.0002889	251.19	94.576	98.087	39.597	0.00026109	42.742	275.854	425.729	119.298	97.945	246.237	150.187	96.326	103.533	272.326	324.124	100.551	105.513	108.715	113.856	241.456	109.569	-8191	255	
38771.672	1	1	0	0	0.045824	0.25498	0.2446	0.30882	0.15664	0.10739	0.18704	0.077096	0.069185	0.16643	0.28592	0.09534	0.15912	0.11997	0.15458	0.1079	-1.5562	-2.8854	-2.5958	-2.3063	-2.8271	-2.3187	-2.5354	-2.9667	-2.2604	-2.8812	-2.5292	-2.0958	-2.9938	-2.475	-2.5146	-2.9333	137.755	438.993	101.951	403.999	172.162	351.285	95.583	130.429	122.770	286.616	373.291	208.797	429.048	431.808	372.194	425.114	0.00050974	0.00059777	5.763e-05	571.48	2.1759e-05	9.5316e-06	503.41	213.96	8.1159e-06	2.0682e-06	198.97	75.775	80.902	32.815	5.6319e-06	34.636	0.014014	0.025024	0.0069354	666.15	0.00023821	0.00028139	593.41	249.56	0.000239	0.00027683	247.41	93.4	97.768	39.435	0.00025422	42.471	262.379	195.083	120.754	97.805	220.422	137.398	96.078	103.445	302.574	154.075	100.681	106.116	108.665	113.946	339.131	109.526	-8191	255	
38771.770	1	1	0	0	0.16729	0.16631	0.19136	0.20272	0.16241	0.33524	0.19967	0.20405	0.11851	0.24874	0.072468	0.10603	0.0091491	0.050408	0.16838	0.29459	-1.8312	-2.8271	-2.4917	-2.2083	-3.0917	-2.2417	-2.5875	-3.0979	-2.1146	-2.7833	-2.6688	-2.0875	-2.8521	-2.4	-2.2708	-3.1437	105.438	268.769	211.282	351.198	399.289	392.249	106.739	241.380	221.144	368.427	381.468	87.672	138.169	396.636	295.056	389.611	0.00039694	0.0012503	0.00029892	571.18	3.458e-06	1.0229e-05	503.81	214.16	4.2052e-06	2.1848e-06	198.98	76.603	81.15	32.583	4.9238e-06	34.857	0.013717	0.024299	0.006667	663.48	0.00023104	0.00026845	590.83	248.99	0.00022908	0.00026453	246.92	93.064	97.296	39.228	0.00024526	42.46	274.333	187.731	194.656	97.886	320.077	159.969	96.384	103.577	236.473	418.894	100.760	105.621	108.900	114.172	250.689	110.099	-8191	255	
38771.863	1	1	0	0	0.10956	0.20475	0.034151	0.10061	0.059551	0.21311	0.16183	0.063617	0.27816	0.13313	0.18371	0.25303	0.07376	0.12854	0.29244	0.2204	-1.7479	-2.6562	-2.7354	-2.1833	-3.0229	-2.3917	-2.2812	-2.8917	-2.1125	-2.5708	-2.8396	-2.1521	-2.8625	-2.5438	-2.0417	-3.0229	134.000	206.584	322.469	256.996	322.538	91.374	273.462	342.452	411.028	158.045	372.143	358.610	212.662	411.850	150.396	118.792	0.00057057	0.001087	0.00042723	576.92	5.0646e-06	2.6238e-06	506.59	216.3	9.0197e-06	1.292e-05	201.84	76.55	81.024	32.873	5.2202e-06	34.947	0.013488	0.023845	0.0066161	666.42	0.00023022	0.00026779	593.33	250.85	0.00022895	0.00026452	249.09	93.69	97.39	39.2	0.00023941	42.632	271.718	98.202	221.437	97.993	199.083	243.916	96.316	103.848	201.177	250.354	100.447	105.517	108.465	113.798	241.155	109.978	-8191	255	
38771.961	1	1	0	0	0.27759	0.033002	0.13624	0.19365	0.088679	0.22616	0.1233	0.29643	0.046516	0.077716	0.23132	0.11231	0.11883	0.24446	0.14701	0.091033	-1.8646	-2.4917	-2.7958	-2.1208	-2.7708	-2.6063	-2.1437	-3.0833	-2.125	-2.5854	-2.8771	-2.0542	-2.9479	-2.6562	-2.2583	-2.9729	350.800	220.494	294.112	391.162	225.945	177.974	434.141	382.922	320.462	374.368	391.091	220.394	442.016	143.333	157.142	443.188	0.00051534	0.00023088	0.00017036	576.43	1.6682e-06	9.9407e-06	509.25	217.27	9.8294e-06	8.7431e-06	205.59	77.123	81.76	33.131	8.3518e-06	34.986	0.013081	0.023064	0.0064115	666.46	0.00022661	0.00026538	597.03	252.73	0.00023239	0.00026785	252.67	94.877	98.416	39.74	0.00025551	43.116	257.231	424.197	198.298	98.022	283.922	250.006	96.305	103.503	298.742	264.065	100.377	105.875	108.760	113.889	227.707	109.893	-8191	255	
38772.059	1	1	0	0	0.2588	0.1782	0.16345	0.18532	0.03509	0.15794	0.17205	0.019254	0.14258	0.099018	0.17715	0.26649	0.084055	0.1683	0.13505	0.11553	-1.8875	-2.4479	-2.9417	-2.0563	-2.6479	-2.5771	-2.1646	-2.8646	-2.3396	-2.4688	-3.0438	-2.1229	-2.7354	-2.7104	-1.9937	-3.2	435.174	223.351	338.153	335.274	95.689	274.567	337.258	323.840	224.233	301.836	309.751	183.571	367.402	431.872	137.915	126.953	0.00043548	0.00081261	9.6283e-05	576.76	4.5784e-06	9.9531e-06	510.19	216.96	1.0386e-06	5.734e-06	204.34	76.685	81.677	33.009	2.6197e-06	34.959	0.014074	0.024978	0.0069104	672.86	0.00024124	0.00028264	601.48	253.85	0.0002449	0.00028553	253.77	95.111	99.026	39.924	0.00027078	43.339	253.317	136.424	98.635	97.964	240.548	219.025	96.083	103.522	311.545	185.887	100.564	105.856	108.998	113.950	323.644	110.114	-8191	255	
38772.152	1	1	0	0	0.17257	0.17345	0.32592	0.30901	0.1889	0.25461	0.20266	0.058603	0.23252	0.031092	0.17712	0.2898	0.19652	0.18111	0.14578	0.092542	-2.125	-2.1833	-2.9583	-2.2792	-2.4813	-2.7833	-2.0312	-3.0104	-2.4437	-2.3667	-2.9729	-2.1	-2.5417	-2.7604	-2.0563	-2.6458	93.220	237.122	426.247	373.818	328.805	320.072	412.613	423.730	369.318	444.368	403.908	360.676	193.793	372.476	255.714	360.164	0.00051033	0.00062876	0.00026214	579.66	9.863e-06	7.4224e-06	508.71	216.32	3.5912e-06	5.1225e-06	204.65	76.7	81.355	33.05	1.4039e-05	34.996	0.01493	0.026554	0.0073643	678.72	0.0002572	0.00030113	604.74	254.94	0.00025892	0.00029736	255.25	95.638	99.174	39.924	0.00027333	43.38	264.257	245.052	230.610	97.852	270.155	240.839	96.568	103.681	236.061	373.667	100.914	105.835	108.668	114.067	277.864	109.843	-8191	255	
38772.273	1	1	0	0	0.16132	0.20736	0.2156	0.32278	0.12167	0.06177	0.11558	0.41599	0.13439	0.18502	0.22027	0.10757	0.097504	0.011913	0.11103	0.11369	-1.9937	-2.3229	-2.9792	-2.3187	-2.35	-2.8625	-2.0896	-2.9292	-2.6125	-2.3438	-3.1875	-2.2604	-2.5875	-2.9917	-2.0667	-2.8521	116.482	229.660	94.173	351.295	222.595	93.117	355.037	123.719	419.386	268.679	259.795	383.131	263.203	146.137	268.219	271.059	0.00042121	0.00059439	8.8761e-05	581.08	6.0829e-06	5.525e-06	513.65	219.22	1.0322e-05	6.8818e-06	205.49	77.435	81.504	33.047	5.2641e-06	34.987	0.014964	0.026598	0.0073497	681.17	0.00025379	0.00029668	609.13	256.51	0.00025285	0.00029202	256.89	95.699	99.112	39.855	0.00027425	43.615	266.997	218.015	152.251	97.758	183.559	229.580	96.326	103.677	226.252	226.394	100.625	105.678	108.512	113.754	173.784	109.820	-8191	255	
38772.371	1	1	0	0	0.045946	0.12706	0.15035	0.14568	0.30412	0.073896	0.25157	0.2757	0.22419	0.35477	0.18886	0.095027	0.014867	0.29778	0.087908	0.052074	-2.2979	-2.0896	-2.9938	-2.5896	-2.5021	-3	-2.2375	-2.7687	-2.8229	-2.1604	-2.9396	-2.6229	-2.4604	-2.9813	-2.1479	-2.8312	419.053	334.184	257.260	358.100	371.519	99.475	441.900	101.418	214.702	156.146	104.456	293.955	320.987	358.420	288.332	206.537	0.00057842	0.00057019	0.00014262	582.56	1.0815e-05	6.4295e-06	513.29	218.65	5.6816e-07	1.4943e-05	205.89	77.206	82.239	32.958	8.799e-06	34.968	0.015079	0.026863	0.0074817	683.37	0.0002592	0.00030302	611.54	257.35	0.00025974	0.00030107	258.29	96.436	99.825	40.08	0.00028292	43.754	250.327	133.620	155.690	97.929	292.972	145.184	96.487	103.502	152.735	205.196	100.872	105.654	108.572	114.005	318.448	109.933	-8191	255	
38772.469	1	1	0	0	0.12868	0.057359	0.12588	0.070838	0.26867	0.11345	0.12489	0.3249	0.12872	0.30134	0.25539	0.22027	0.15533	0.2323	0.2314	0.090084	-2.4146	-2.125	-2.9188	-2.6688	-2.3146	-2.9729	-2.2812	-2.7375	-2.8104	-2.3354	-2.9417	-2.6167	-2.2438	-3.0625	-2.25	-2.6854	195.878	388.750	114.542	169.624	118.507	233.974	319.051	334.955	143.771	200.419	96.937	124.659	395.774	147.090	341.863	411.771	0.00045969	0.00069735	6.9879e-05	579.76	1.5387e-05	1.4026e-05	511.53	218.08	8.0756e-06	1.2799e-05	205.06	77.004	81.606	32.988	7.7185e-06	35.09	0.015458	0.02772	0.0077888	684.75	0.00027076	0.00032075	614.32	259.21	0.00028229	0.00032625	260.9	97.289	101.09	40.631	0.00031333	44.412	260.726	206.248	142.638	97.925	106.453	293.805	96.452	103.905	289.910	209.801	100.542	105.601	108.886	114.058	289.083	109.579	-8191	255	
38772.562	1	1	0	0	0.10987	0.26713	0.18156	0.24528	0.13817	0.13543	0.22857	0.19434	0.020942	0.12354	0.33315	0.084509	0.29131	0.056738	0.11576	0.21919	-2.5646	-2.0521	-2.7875	-2.7687	-2.3729	-3.0854	-2.2396	-2.425	-2.825	-2.0604	-2.8167	-2.7396	-2.1604	-3.1646	-2.4479	-2.4354	86.457	438.593	398.795	396.725	319.754	411.286	403.345	388.777	323.529	300.777	424.987	93.380	379.980	262.949	384.069	345.849	0.00049532	0.0013717	0.00014481	584.87	7.3376e-06	1.371e-06	512.01	217.87	8.0144e-06	4.4591e-06	205.02	76.694	81.067	32.952	1.0046e-05	34.862	0.017219	0.030737	0.0085848	696.08	0.00029595	0.00035166	624.16	261.03	0.00030089	0.00034894	262.98	98.317	101.63	40.77	0.00032506	44.511	270.241	209.929	261.581	97.996	143.511	173.611	96.282	103.696	254.732	137.328	100.617	105.654	108.535	114.290	277.422	109.853	-8191	255	
38772.656	1	1	0	0	0.18936	0.19721	0.21462	0.10147	0.19009	0.27707	0.2103	0.35562	0.20118	0.22611	0.074938	0.030267	0.29351	0.066876	0.040707	0.11147	-2.3604	-2.1312	-2.6625	-2.5312	-2.1125	-2.8458	-2.5875	-2.425	-2.8292	-2.1063	-2.725	-2.8354	-2.2271	-2.9479	-2.5438	-2.2354	287.573	123.542	225.594	156.823	222.791	325.471	301.729	395.030	374.394	424.712	153.904	281.702	399.275	415.816	408.505	437.191	0.00054566	0.0010081	0.00034177	581.54	1.2402e-05	1.4222e-05	513.13	217.26	9.1145e-06	6.8633e-06	204.41	77.033	81.669	33.042	5.466e-06	35.181	0.017571	0.031438	0.0087023	694.61	0.00029828	0.00035018	622.65	260.34	0.00029612	0.00034182	262.83	97.866	101.11	40.583	0.00031091	44.382	266.450	144.051	240.541	98.039	216.577	292.494	96.706	103.892	158.306	276.266	100.941	105.639	108.604	114.128	95.894	109.851	-8191	255	
38772.754	1	1	0	0	0.2638	0.063008	0.19737	0.071892	0.10293	0.10297	0.21824	0.14763	0.33292	0.2928	0.18782	0.045107	0.1076	0.21766	0.08007	0.21371	-2.6792	-2.1208	-2.6292	-2.9062	-2.35	-2.9625	-2.6104	-2.2188	-3.0146	-2.3937	-2.6229	-2.7896	-2.1125	-2.8271	-2.6479	-2.2708	224.500	350.909	350.027	134.039	346.658	397.590	141.160	390.881	427.899	252.463	335.605	316.732	418.312	394.279	435.579	119.467	0.00047811	0.00068746	0.00020384	582.91	7.0534e-06	1.2046e-05	518.04	217.94	9.645e-06	1.196e-05	203.74	76.778	81.489	32.943	5.4922e-06	34.7	0.016874	0.030144	0.0083992	693.13	0.00029199	0.00034494	622.8	260.03	0.00029557	0.00034359	261.64	97.776	101.43	40.638	0.0003157	44.346	264.506	441.287	187.294	98.061	318.361	376.397	96.115	103.796	404.634	224.133	100.933	105.974	108.654	114.165	199.523	109.779	-8191	255	
38772.852	1	1	0	0	0.064089	0.26045	0.22188	0.20118	0.19053	0.1647	0.25798	0.15083	0.24409	0.24584	0.24307	0.26649	0.20319	0.10345	0.16423	0.1553	-2.4562	-2.2208	-2.55	-2.7625	-2.1104	-2.7687	-2.7333	-2.1208	-2.9813	-2.3917	-2.5083	-3.1104	-2.4271	-2.7146	-2.8563	-2.2042	173.924	126.541	279.332	352.053	432.692	394.420	318.108	349.400	139.367	228.956	377.013	372.924	389.523	266.197	226.136	392.111	0.00046657	0.00052036	0.00032333	580.82	5.748e-06	9.4938e-06	512.35	217.63	5.6922e-06	8.75e-07	204.24	77.101	81.505	33.103	8.824e-06	34.934	0.017298	0.031057	0.0086559	695.05	0.00029981	0.00035214	621.79	260.35	0.00030006	0.00034627	262.51	97.994	101.37	40.737	0.00031592	44.397	278.093	285.488	186.073	97.883	154.159	341.240	96.633	103.786	365.025	149.241	100.684	105.962	108.450	114.059	96.961	109.721	-8191	255	
38772.969	1	1	0	0	0.13257	0.15165	0.072374	0.069368	0.20826	0.1882	0.15685	0.2875	0.10124	0.1823	0.2034	0.13277	0.090122	0.19315	0.13584	0.13142	-2.7208	-2.2687	-2.1937	-3.1125	-2.25	-2.8125	-2.9104	-1.9896	-2.775	-2.5542	-2.3292	-3.0771	-2.0396	-2.7375	-2.9167	-2.0771	270.498	193.585	433.528	184.409	435.050	264.375	427.574	89.400	377.973	441.737	326.087	136.331	123.806	423.596	372.897	149.381	0.00061571	0.00097809	0.00023745	584.33	1.0592e-05	1.0558e-05	513.75	218.72	8.6203e-06	1.5464e-05	204.48	77.152	81.516	32.862	7.1155e-06	35.121	0.017186	0.030707	0.0084944	695.08	0.00029915	0.00035257	623.96	261.79	0.00030693	0.00035415	264.37	98.682	101.82	40.839	0.00032094	44.68	273.963	208.063	249.312	97.839	254.845	206.256	96.039	103.859	291.575	160.919	100.268	105.317	108.415	113.969	232.733	109.666	-8191	255	
38773.066	1	1	0	0	0.11105	0.096164	0.12608	0.13016	0.2167	0.2713	0.2793	0.27182	0.15395	0.11255	0.05881	0.054916	0.1164	0.092138	0.2234	0.15249	-2.5396	-2.4625	-2.1417	-2.9458	-2.125	-2.5875	-2.7979	-2.2729	-2.7875	-2.8083	-2.2125	-2.9313	-2.3812	-2.4417	-3.05	-2.1063	440.324	86.919	372.092	99.116	240.026	221.313	306.112	392.295	396.846	393.999	257.956	421.793	252.329	205.874	131.823	389.787	0.00042923	0.0010305	0.00018119	585.06	1.335e-05	3.7709e-06	517.72	219.51	1.5247e-05	5.812e-06	206.52	77.375	82.242	33.157	9.2687e-06	35.229	0.017524	0.031326	0.0086331	698.83	0.00030239	0.00035247	627.37	262.82	0.00030354	0.00035124	266.17	99.257	102.68	41.029	0.00032932	45.149	275.217	202.114	224.601	97.842	270.552	275.504	96.282	103.461	255.299	122.322	100.656	105.818	108.604	113.639	229.477	109.493	-8191	255	
38773.137	1	1	0	0	0.11172	0.17527	0.13626	0.1109	0.29024	0.11777	0.33867	0.12721	0.11512	0.13418	0.28284	0.25121	0.2749	0.02482	0.035227	0.1402	-2.6229	-2.5062	-1.9875	-2.9917	-2.5	-2.4708	-3.0187	-2.2792	-2.8375	-2.6	-2.2208	-3.0375	-2.3271	-2.2438	-2.9938	-2.3146	104.520	140.065	445.261	179.812	412.585	244.196	371.729	243.108	245.388	137.692	249.790	439.288	295.279	314.835	247.437	349.426	0.00039101	0.00093831	0.00028795	588.95	3.782e-06	7.1347e-06	515.34	219.32	4.9954e-06	1.0112e-05	206.72	77.313	81.648	33.051	8.6129e-06	35.148	0.018144	0.032531	0.0089892	704.83	0.00031381	0.00036756	630.76	264.21	0.00031792	0.00036585	267.42	99.629	102.67	41.144	0.0003404	45.156	277.766	270.782	157.286	97.845	398.524	237.814	96.175	103.420	230.822	207.969	100.923	105.626	108.656	114.141	234.000	109.756	-8191	255	
38773.234	1	1	0	0	0.1653	0.23264	0.31041	0.10992	0.19462	0.10044	0.33564	0.17679	0.027269	0.10352	0.049773	0.1009	0.3349	0.26354	0.13342	0.24308	-2.3438	-2.6542	-2.0542	-3.1396	-2.3042	-2.5812	-2.9771	-2.2792	-2.7521	-2.9437	-2.3583	-2.975	-2.4875	-2.2729	-2.9917	-2.2313	331.369	154.856	398.398	348.374	401.068	265.999	392.460	118.805	317.243	275.395	88.013	278.166	357.378	97.642	403.314	427.538	0.00056275	0.00082901	0.00010912	588.93	1.6379e-05	4.0196e-06	516.79	218.34	5.9925e-06	7.5883e-06	204.76	77.071	81.635	33.093	9.8583e-06	34.892	0.018671	0.033114	0.0092309	707	0.00031908	0.00037312	633.19	263.96	0.00032146	0.00036817	266.97	99.533	102.73	41.103	0.00034092	45.057	275.407	150.549	226.516	97.980	250.804	202.876	96.166	103.807	218.644	431.237	101.172	105.892	109.112	114.443	332.667	110.361	-8191	255	
38773.355	1	1	0	0	0.09897	0.31928	0.020236	0.0013426	0.23082	0.029546	0.20285	0.21781	0.12994	0.069681	0.07553	0.097828	0.31927	0.38522	0.14365	0.16283	-2.0479	-2.9562	-2.0646	-2.8833	-2.5146	-2.2458	-3.0417	-2.1396	-2.4521	-2.9313	-2.1792	-2.7	-2.6604	-2.2562	-3.1437	-2.3417	309.053	132.483	440.245	180.000	210.833	355.689	313.385	372.383	135.157	403.804	414.412	387.563	123.590	99.017	325.277	423.891	0.00043504	0.00043509	0.00014862	586.5	1.1858e-05	9.8921e-06	519.46	218.86	1.0206e-05	7.946e-06	204.98	77.392	81.205	33.11	8.6857e-06	34.759	0.018564	0.032946	0.0091559	704.3	0.00031501	0.00036998	630.64	263.16	0.00031569	0.0003645	266.52	99.615	102.48	40.95	0.00034345	44.978	283.669	229.846	94.924	98.264	261.816	138.141	96.623	103.886	290.731	117.676	101.140	106.070	108.906	114.233	164.881	109.977	-8191	255	
38773.449	1	1	0	0	0.17579	0.046684	0.093269	0.10367	0.093844	0.24763	0.36392	0.22989	0.28882	0.12552	0.37687	0.1772	0.33386	0.1966	0.17647	0.1953	-1.9604	-2.9125	-2.0271	-3.0312	-2.8	-2.2333	-2.9938	-2.375	-2.2729	-2.9458	-2.0521	-2.8042	-2.7687	-2.2833	-2.9313	-2.4708	342.068	287.643	192.245	370.354	313.984	92.644	420.443	337.809	152.352	146.646	408.683	291.630	378.785	113.970	223.173	386.376	0.00062617	0.0012392	0.00013719	586.11	1.032e-05	6.6254e-06	518.73	218.1	1.4269e-05	6.7936e-06	204.94	77.457	81.585	32.969	5.2371e-06	35.026	0.018701	0.033259	0.0093028	705.66	0.00031991	0.00037564	635.23	263.84	0.00032228	0.00036991	267.93	100.26	103.08	41.101	0.000348	45.323	271.228	137.187	386.137	98.242	312.736	242.945	96.491	103.803	310.015	404.347	100.911	105.752	108.633	114.387	237.540	110.155	-8191	255	
38773.547	1	1	0	0	0.20265	0.14734	0.15166	0.35501	0.042914	0.099172	0.024863	0.29738	0.25449	0.21438	0.15681	0.12688	0.24322	0.19092	0.18132	0.31406	-1.9521	-3.0271	-2.1208	-2.5917	-2.925	-2.1708	-3.1396	-2.7229	-2.1021	-2.9625	-2.2646	-2.6625	-2.9167	-2.2396	-2.975	-2.7208	302.937	329.586	381.858	348.676	249.615	421.871	260.171	168.884	339.515	327.724	385.549	425.357	100.581	379.372	253.907	307.444	0.00052835	0.001658	7.8678e-05	586.77	1.8252e-05	9.0042e-06	515.03	218.12	1.1906e-05	1.0304e-05	204.47	76.726	81.608	32.81	4.7876e-06	34.738	0.018948	0.033841	0.009483	707.55	0.00032574	0.00038375	636.13	264.4	0.00033109	0.00038264	269.22	100.39	103.67	41.282	0.00036302	45.328	285.229	274.541	314.794	97.872	240.799	115.080	96.565	104.068	247.871	210.834	100.956	106.113	108.967	114.466	316.006	110.324	-8191	255	
38773.645	1	1	0	0	0.028959	0.26066	0.035372	0.0046137	0.087874	0.072677	0.09543	0.22341	0.19428	0.17021	0.1792	0.24902	0.088654	0.20303	0.30667	0.2964	-1.8542	-3.0438	-2.3104	-2.6917	-2.7771	-2.125	-2.7958	-2.6562	-2.2146	-2.975	-2.5	-2.5479	-3.0979	-2.2625	-3.0458	-2.6792	265.581	345.068	171.701	376.460	113.426	440.501	284.931	339.033	150.980	383.494	128.281	132.480	264.877	432.457	269.064	445.722	0.00045668	0.00065033	0.00014611	585.7	1.5168e-05	1.1319e-05	516.72	217.74	4.1462e-06	1.3936e-05	203.59	76.858	81.468	32.904	7.3973e-06	34.628	0.019744	0.035441	0.0098975	710.97	0.00033774	0.00039932	639.1	265.04	0.00033913	0.00039273	269.14	100.45	103.6	41.284	0.00036424	45.229	287.186	176.866	118.234	98.379	173.671	209.215	96.499	103.725	357.516	281.462	100.871	106.044	108.846	113.914	365.860	110.125	-8191	255	
38773.762	1	1	0	0	0.091156	0.088276	0.12338	0.15152	0.11752	0.081274	0.04348	0.1238	0.12056	0.12672	0.17827	0.053853	0.20023	0.1199	0.032728	0.25529	-1.7021	-3.0354	-2.4167	-2.4688	-2.9979	-2.175	-3.0167	-2.6125	-2.1417	-3.1063	-2.5333	-2.2021	-3.0771	-2.2729	-2.7333	-2.9458	253.336	121.278	123.152	393.316	162.779	403.184	305.164	400.924	288.857	440.107	379.866	117.877	163.769	106.890	301.290	118.453	0.0006802	0.0011793	0.00043653	585.41	6.7295e-06	1.1894e-05	519.11	217.22	5.763e-06	6.4073e-06	203.52	76.431	81.494	32.599	3.5772e-06	34.795	0.019697	0.035198	0.0097983	711.41	0.00033613	0.0003956	638.32	263.88	0.00033234	0.00038341	268.06	100.06	103.15	41.065	0.00035501	45.136	275.911	87.738	187.706	98.100	302.036	275.261	96.522	103.909	313.017	160.448	101.174	105.822	109.066	114.516	213.622	110.028	-8191	255	
38773.836	1	1	0	0	0.20163	0.052435	0.22291	0.237	0.091602	0.45028	0.10273	0.093798	0.098696	0.036572	0.16767	0.38579	0.14535	0.15129	0.11734	0.11521	-1.6708	-3.0792	-2.3708	-2.5312	-2.9917	-2.2375	-2.7125	-3.0146	-2.0771	-3.0687	-2.6958	-2.1896	-3.0958	-2.2062	-2.7604	-2.9792	288.153	423.450	136.636	102.246	379.576	127.402	357.217	420.014	366.032	374.524	134.261	438.615	131.976	273.671	225.085	302.836	0.00058881	0.00096076	0.00039009	586.44	4.4278e-06	8.5302e-06	519.81	217.22	5.4563e-06	1.3666e-05	203.56	77.582	81.68	32.719	7.3712e-06	34.91	0.019334	0.03458	0.0095681	707.57	0.00032843	0.00038765	637.21	264.23	0.0003325	0.00038496	268.87	100.57	103.62	41.226	0.00035961	45.328	269.291	308.806	147.320	97.882	238.400	247.331	96.924	103.610	176.452	247.330	100.999	106.105	109.150	114.360	193.760	110.231	-8191	255	
38773.953	1	1	0	0	0.093755	0.26091	0.23862	0.095564	0.063014	0.22233	0.020161	0.28196	0.111	0.065651	0.2597	0.17427	0.17813	0.32318	0.13563	0.15605	-1.7396	-2.7729	-2.6292	-2.3417	-2.9521	-2.4292	-2.5667	-3.0125	-2.0646	-2.9646	-2.6958	-2.2583	-3.0875	-2.3542	-2.65	-3.0396	279.729	101.968	352.526	207.829	213.315	143.228	237.706	370.989	280.355	402.796	335.384	162.231	321.442	96.429	417.121	365.055	0.00039469	0.0017713	0.00042698	583.54	1.4087e-06	1.0323e-05	513.43	217.67	2.6045e-06	8.3253e-06	204.04	76.987	81.638	32.616	1.707e-05	34.755	0.019494	0.034649	0.0096366	706.12	0.00032995	0.00038809	634.27	263.53	0.00033198	0.00038373	267.48	99.63	103.01	41.031	0.00035406	45.034	264.100	209.446	227.559	97.921	442.987	377.938	96.579	103.802	435.934	328.708	100.775	105.779	109.177	114.241	249.617	110.243	-8191	255	
38774.051	1	1	0	0	0.24254	0.084159	0.15129	0.13021	0.32006	0.17756	0.10999	0.18345	0.2015	0.3553	0.24487	0.23697	0.24811	0.17567	0.21102	0.14846	-1.7667	-2.7062	-2.6188	-2.2542	-3.0875	-2.5479	-2.4042	-3.1792	-2.2229	-2.7479	-2.85	-2.2229	-3.0646	-2.4917	-2.3812	-3.0271	298.107	331.419	257.503	409.963	253.382	423.578	381.810	344.320	353.780	336.839	135.112	417.384	373.428	129.836	186.916	370.951	0.00047398	0.0013451	0.00012691	583.13	1.0488e-05	9.1054e-06	514.41	217.11	6.4534e-06	6.7603e-06	202.81	76.536	80.99	32.815	8.6479e-06	34.472	0.01939	0.034812	0.0096416	705.33	0.00033615	0.00039535	635.02	263.19	0.00033476	0.00038492	266.19	99.363	102.66	40.922	0.00034543	44.79	256.911	137.769	393.261	98.271	334.116	168.162	96.625	104.069	282.022	160.550	101.197	105.733	109.104	113.779	291.473	110.048	-8191	255	
38774.148	1	1	0	0	0.26992	0.027363	0.26511	0.39833	0.16472	0.27401	0.30724	0.34318	0.13879	0.11621	0.11672	0.2142	0.3036	0.081689	0.16001	0.052067	-1.6729	-2.7	-2.8438	-2.2313	-2.8896	-2.5667	-2.2646	-3.1771	-2.3021	-2.7188	-2.8021	-2.1063	-2.8333	-2.5771	-2.3104	-2.9479	237.313	365.623	227.017	440.385	429.134	363.589	362.271	95.841	157.882	428.798	97.712	267.634	153.442	441.961	331.176	328.313	0.00051174	0.0014275	0.00033749	580.22	1.4076e-05	1.1302e-05	517.57	215.57	9.5027e-06	1.2417e-05	201.05	76.79	81.581	32.618	2.3705e-06	34.393	0.018869	0.033904	0.0093242	701.23	0.00032847	0.00038418	632.97	261.88	0.00032833	0.00037674	265.08	99.437	102.94	40.881	0.0003475	44.828	279.634	437.801	136.270	98.140	246.353	314.907	96.789	103.922	326.202	226.228	100.813	105.783	108.740	114.000	146.148	110.179	-8191	255	
38774.242	1	1	0	0	0.26563	0.21936	0.089934	0.064453	0.17636	0.13492	0.11581	0.23239	0.10122	0.1147	0.088617	0.13604	0.021616	0.08162	0.056679	0.095878	-1.8271	-2.3792	-2.9313	-2.1125	-3.0062	-2.4958	-2.3167	-3.1104	-2.2438	-2.3	-2.9729	-2.2042	-2.8187	-2.6813	-2.3438	-2.9625	232.532	276.810	144.467	110.590	373.964	350.195	327.503	375.917	364.430	278.465	418.940	368.121	288.083	158.751	90.709	142.410	0.00046762	0.00094633	0.00024068	583.15	1.1643e-05	8.7476e-06	516.78	217.08	1.2208e-05	4.3216e-06	203.42	76.934	81.305	32.799	9.2476e-06	34.698	0.019088	0.034098	0.0094427	704.72	0.00032965	0.00038843	635.53	263.16	0.00033501	0.0003889	268.09	100.4	103.58	41.134	0.00036004	45.223	246.598	424.555	286.368	98.170	371.679	253.095	96.612	104.082	262.495	426.221	101.284	106.195	109.088	114.105	306.367	110.591	-8191	255	
38774.363	1	1	0	0	0.31234	0.2429	0.32631	0.14755	0.20336	0.25436	0.30562	0.22091	0.38392	0.086479	0.051118	0.22923	0.1273	0.17369	0.18207	0.10968	-1.9375	-2.3167	-2.8521	-2.2417	-2.6833	-2.7708	-2.0687	-3.075	-2.4875	-2.325	-3.0542	-2.3354	-2.6875	-2.7979	-2.0875	-3.0396	403.991	178.406	127.304	288.810	122.509	391.107	386.965	119.032	350.929	220.637	376.953	161.047	431.431	425.076	324.348	105.195	0.00049769	0.0012715	0.00012242	582.16	1.1734e-05	1.2185e-06	513.38	215.45	7.5888e-06	1.0841e-05	201.6	76.359	81.102	32.739	1.5881e-05	34.349	0.019596	0.035031	0.009708	705.72	0.00033804	0.00039637	634.41	263.09	0.00034027	0.00039107	266.17	99.851	103.16	41.142	0.00035849	45.039	254.863	171.019	139.235	98.064	305.875	130.706	96.785	104.035	281.982	306.376	100.935	106.070	109.087	114.358	184.534	110.629	-8191	255	
38774.434	1	1	0	0	0.10882	0.20239	0.19783	0.29543	0.16992	0.38569	0.34202	0.41846	0.052657	0.14451	0.36497	0.028585	0.20938	0.018368	0.10786	0.17527	-2.0771	-2.3229	-2.9437	-2.2979	-2.7625	-2.8854	-2.2354	-2.9667	-2.6437	-2.1521	-3.0917	-2.2854	-2.575	-3.1396	-2.1792	-2.9875	312.374	201.806	376.020	443.659	312.237	440.986	402.422	363.567	166.382	436.938	353.158	301.798	355.557	153.955	216.147	332.538	0.00055414	0.00041412	0.00013612	581.41	1.3702e-05	2.2522e-05	512.46	216.02	4.3552e-06	4.6581e-06	200.27	76.108	81.453	32.803	3.0064e-06	35.003	0.019657	0.035235	0.0097436	705.01	0.00033975	0.00039826	634.11	263.13	0.00034882	0.00040761	269.84	101.69	104.99	41.981	0.00040106	46.398	260.745	308.141	325.008	98.319	225.698	228.058	96.711	104.278	216.194	436.297	101.403	105.809	109.130	114.628	314.847	110.202	-8191	255	
38774.531	1	1	0	0	0.21452	0.062901	0.13053	0.29052	0.14177	0.29101	0.14289	0.081169	0.17483	0.18453	0.14151	0.097261	0.091876	0.21201	0.25382	0.15858	-2.1813	-2.3875	-3.0958	-2.4292	-2.5479	-2.9292	-2.1208	-2.6208	-2.6646	-2.3646	-3.0896	-2.3854	-2.4521	-2.9479	-2.1875	-2.8187	90.740	307.710	419.042	350.882	332.635	122.898	215.245	334.508	113.822	353.409	225.293	134.873	301.780	445.884	107.584	323.646	0.00035504	0.0016879	0.00047116	578.4	2.1038e-05	9.9446e-06	514.96	214.83	3.2233e-06	1.3239e-05	200.95	76.348	80.726	32.69	1.3053e-05	35.019	0.021724	0.038518	0.010563	711.28	0.00035841	0.00041229	637.82	262.73	0.00033927	0.00038833	265.91	100.2	103.45	41.296	0.00037944	46.167	279.912	150.254	170.294	98.070	265.461	320.109	96.838	104.331	135.255	198.463	101.206	105.972	108.841	113.893	269.632	110.163	-8191	255	
38774.629	1	1	0	0	0.04261	0.32003	0.27533	0.26745	0.20374	0.13945	0.052686	0.18224	0.070599	0.070633	0.29164	0.046353	0.14489	0.26852	0.14965	0.14691	-2.3917	-2.1167	-2.8396	-2.4667	-2.4437	-3.1688	-2.1979	-2.9521	-2.9979	-2.1625	-3.0625	-2.5187	-2.1708	-3.0208	-2.3292	-2.6521	368.999	364.048	111.040	405.509	294.060	108.379	231.326	184.544	374.629	379.542	438.377	267.840	161.103	195.225	87.569	378.320	0.00039239	0.00038094	0.0001048	579.74	1.3605e-05	1.1058e-05	512.82	215.4	9.7124e-06	1.2785e-05	201.62	76.511	80.721	32.825	3.4846e-06	34.659	0.021471	0.039014	0.010987	716.98	0.0003831	0.00044957	649.23	267.46	0.00037599	0.00042783	272.67	101.93	104.36	41.626	0.00038636	45.738	238.154	122.216	367.747	98.458	197.029	180.981	96.003	103.853	417.187	284.553	101.180	106.242	108.798	114.052	232.332	110.032	-8191	255	
38774.746	1	1	0	0	0.16058	0.11474	0.26211	0.16791	0.07142	0.16378	0.21149	0.02957	0.12928	0.11245	0.1172	0.28076	0.3314	0.19409	0.045286	0.27961	-2.4417	-1.9333	-3.0062	-2.5042	-2.0917	-2.9604	-2.3417	-2.6479	-2.7938	-2.1	-2.9437	-2.5375	-2.2417	-3.0417	-2.2417	-2.3937	163.929	218.939	195.273	423.803	135.350	435.472	222.799	193.664	233.965	375.213	353.013	412.101	374.963	405.719	106.113	391.098	0.00051628	0.00019893	0.00027354	576.59	4.9575e-06	5.9205e-06	510.32	212.91	5.863e-06	4.3687e-06	198.71	76.11	80.745	32.65	9.3177e-06	34.184	0.02103	0.03785	0.010601	711.73	0.00037523	0.00044165	644.86	265.38	0.00038566	0.00044672	272.78	102.31	105.18	41.897	0.00040213	45.639	259.760	230.992	166.136	98.093	234.930	398.510	96.566	104.205	309.020	204.053	101.107	105.855	108.696	113.711	346.464	109.899	-8191	255	
38774.844	1	1	0	0	0.16732	0.13183	0.17599	0.1459	0.047818	0.14064	0.099477	0.20669	0.15584	0.073476	0.13369	0.087097	0.2249	0.050257	0.093845	0.032427	-2.3688	-2.0917	-2.8292	-2.6708	-1.9417	-2.9313	-2.2458	-2.3688	-2.7792	-2.2125	-2.7708	-2.6354	-2.2313	-3.0062	-2.4854	-2.3458	282.724	120.191	243.384	375.194	140.570	117.917	346.286	313.956	345.222	416.658	386.638	87.180	380.257	431.912	201.436	444.658	0.00043166	0.0013613	0.00014031	576.85	1.4702e-05	1.6736e-05	510.06	212.27	1.4331e-05	4.4534e-06	197.83	75.403	79.755	32.371	1.3846e-06	34.126	0.021621	0.038668	0.010744	710.63	0.00037392	0.00044172	644.73	264.4	0.00038919	0.00045601	272.35	102.51	105.42	42.018	0.00042481	46.005	274.514	179.472	107.683	97.635	248.230	270.599	96.128	103.477	210.312	249.313	100.863	105.562	108.330	113.815	263.815	109.673	-8191	255	
38774.938	1	1	0	0	0.16412	0.080067	0.20908	0.28881	0.073738	0.39591	0.18694	0.15907	0.13146	0.32103	0.13078	0.083871	0.10626	0.19315	0.15893	0.28455	-2.6104	-2.025	-2.5979	-2.8729	-2.1646	-2.9146	-2.2979	-2.2271	-3.1833	-2.1104	-2.6333	-2.8646	-2.1833	-3.1604	-2.6188	-2.3875	107.649	261.650	129.253	329.510	226.806	345.819	369.291	408.096	217.595	349.556	217.695	122.848	335.706	443.842	349.516	120.385	0.00070924	0.00022668	0.00041727	572.62	2.5243e-05	1.2767e-05	508.51	210.61	4.2581e-06	8.9361e-06	195.69	75.329	79.496	32.16	1.1693e-05	34.039	0.022817	0.040562	0.011213	711.11	0.00037911	0.00044678	642.01	261.69	0.00037798	0.0004363	267.89	100.94	103.9	41.26	0.00040459	45.407	267.317	366.322	159.270	97.757	237.212	227.858	96.389	103.492	289.073	259.449	100.707	105.641	108.503	113.921	205.166	109.721	-8191	255	
38775.035	1	1	0	0	0.16763	0.23632	0.11492	0.13609	0.15154	0.093441	0.13414	0.065462	0.11224	0.39315	0.11533	0.20591	0.1684	0.22614	0.19471	0.11627	-2.5062	-2.1833	-2.4854	-2.9271	-2.1875	-2.8375	-2.7542	-2.2062	-2.8812	-2.2417	-2.5833	-2.9333	-2.325	-2.975	-2.6146	-2.1583	331.503	233.304	112.329	360.134	359.129	377.572	263.620	389.169	172.382	87.675	188.155	427.461	145.304	114.778	367.501	86.271	0.00049164	0.0011786	5.9587e-05	571.02	1.0083e-05	9.1463e-06	506.1	208.34	1.0428e-05	7.2369e-06	193.75	74.622	78.413	31.826	9.6795e-06	33.366	0.022018	0.039496	0.010924	706.84	0.000379	0.00044825	641.42	260.37	0.00038467	0.00044353	267.29	100.74	103.49	41.059	0.00041105	45.149	264.269	122.884	121.129	97.613	401.464	257.089	95.929	103.698	346.209	200.157	100.601	105.305	108.379	113.670	264.592	109.926	-8191	255	
38775.133	1	1	0	0	0.12175	0.11569	0.069863	0.29861	0.017325	0.32633	0.14307	0.11478	0.15146	0.055855	0.083899	0.11627	0.20302	0.2059	0.29241	0.073043	-2.5187	-2.2625	-2.2917	-3.1521	-2.1229	-2.9083	-2.9188	-2.1937	-2.9417	-2.2958	-2.2521	-2.9979	-2.1208	-2.6542	-2.9167	-2.1333	202.504	380.238	341.360	326.901	164.338	247.982	320.062	436.325	308.217	105.517	279.051	196.947	103.354	287.825	273.600	126.995	0.00046506	0.0008015	0.00013204	565.97	2.0864e-05	7.1489e-06	499.22	206.18	6.9699e-06	5.8829e-06	193.36	73.912	78.262	31.667	8.9335e-06	33.421	0.022527	0.040502	0.011223	704.68	0.00038996	0.0004602	637.62	259.33	0.00039465	0.00045653	267.02	100.71	103.3	41.036	0.00041622	45.193	267.350	257.283	126.869	97.700	276.519	269.396	96.450	103.637	280.338	90.256	100.540	105.583	108.367	113.982	320.965	109.646	-8191	255	
38775.227	1	1	0	0	0.094741	0.22832	0.28789	0.096112	0.25705	0.11346	0.055224	0.40246	0.16184	0.11585	0.12535	0.17714	0.26986	0.24447	0.19457	0.16916	-2.5146	-2.3375	-2.2792	-3	-2.35	-2.6583	-2.9208	-2.3521	-2.9146	-2.3854	-2.25	-3.0333	-2.2687	-2.7354	-2.9021	-2.125	312.593	266.610	137.389	165.648	328.760	365.097	163.592	351.628	196.316	383.666	382.117	346.565	350.664	306.416	160.148	401.703	0.00060206	0.00097883	0.00020804	564.78	9.9262e-06	1.0263e-05	500.85	206.2	4.1543e-06	9.4333e-06	193.31	73.989	78.479	31.613	3.1268e-06	33.333	0.022539	0.040303	0.011132	702.85	0.00038962	0.00045806	636.41	259.04	0.00039552	0.00045915	267.41	101.09	103.88	41.253	0.00042844	45.518	262.954	139.430	187.313	97.912	267.611	212.401	96.239	103.504	249.406	150.659	100.924	105.372	108.562	113.885	287.655	109.409	-8191	255	
38775.324	1	1	0	0	0.097812	0.11365	0.20059	0.2104	0.13462	0.13897	0.17256	0.14983	0.072272	0.14886	0.17845	0.20712	0.17932	0.084542	0.17139	0.089591	-2.4458	-2.5062	-2.1021	-3.0812	-2.2729	-2.4771	-3.0417	-2.2333	-2.8875	-2.7333	-2.2083	-3.1083	-2.5646	-2.5521	-2.9896	-2.1688	88.596	153.947	388.702	430.828	249.266	231.975	409.872	331.927	395.640	400.186	381.493	261.177	103.926	103.580	348.807	417.307	0.00065641	0.00026556	0.00024345	566.78	3.3767e-06	5.5649e-06	502.55	207.67	8.6855e-06	3.9698e-06	193.7	74.865	78.856	31.849	1.1529e-05	33.717	0.023491	0.042019	0.011652	711.48	0.00040798	0.00047946	646.97	262.58	0.00041493	0.00047683	271.8	102.57	104.88	41.566	0.00043758	46.066	275.007	405.717	129.988	97.577	223.218	212.711	96.243	103.397	374.010	221.814	100.801	105.802	108.708	113.672	187.770	110.055	-8191	255	
38775.441	1	1	0	0	0.30344	0.15939	0.26338	0.18868	0.23984	0.082507	0.23	0.3666	0.21642	0.21646	0.17309	0.02191	0.16276	0.17675	0.082155	0.20932	-2.3875	-2.5646	-2.0146	-3.0229	-2.3458	-2.3958	-3.0062	-2.075	-2.8771	-2.7167	-2.0708	-3.05	-2.3063	-2.5062	-3.2208	-2.1875	336.064	424.987	398.916	160.753	212.284	374.822	357.386	351.410	280.225	425.823	169.093	343.665	385.740	131.670	266.987	396.728	0.0005779	0.00089869	0.00030957	567.31	9.0897e-06	6.2491e-06	503.48	206.23	1.0383e-05	1.3739e-05	193.17	74.209	78.99	31.996	1.4778e-05	33.327	0.023929	0.042843	0.011918	715.17	0.00041717	0.00048897	650.4	262.61	0.00042183	0.00048539	271.58	102.88	105.31	41.794	0.00044356	45.885	283.272	429.793	100.718	97.986	340.775	297.721	96.507	103.604	216.989	253.628	100.570	106.023	108.440	114.073	317.468	109.926	-8191	255	
38775.539	1	1	0	0	0.11727	0.17923	0.33896	0.11726	0.29673	0.14536	0.13342	0.14653	0.23534	0.11156	0.077242	0.14174	0.15122	0.24015	0.23706	0.084508	-2.0312	-2.7146	-1.9042	-2.9562	-2.6292	-2.1792	-2.9437	-2.2104	-2.6688	-2.8667	-2.2979	-2.8625	-2.5563	-2.2646	-2.8688	-2.4292	330.449	132.281	324.034	359.881	292.304	246.584	171.256	142.307	322.728	227.408	302.631	402.335	153.037	389.596	318.272	409.837	0.00053548	0.00071384	0.00018318	563.97	2.746e-06	7.054e-06	500.76	206.25	9.3717e-06	7.7738e-06	192.47	73.853	78.691	31.766	7.6179e-06	33.116	0.023977	0.04285	0.011872	711.19	0.00041258	0.00048455	646.19	261.3	0.00041912	0.00048337	270.31	102.64	105.47	41.771	0.00045359	45.934	274.664	142.416	242.818	97.625	396.371	217.041	95.855	103.410	349.101	269.362	100.826	105.696	108.281	113.931	352.984	110.028	-8191	255	
38775.633	1	1	0	0	0.25104	0.24763	0.064922	0.17698	0.045967	0.083289	0.14086	0.11551	0.20478	0.017694	0.23398	0.17264	0.3798	0.27941	0.16886	0.16115	-2.1146	-2.8833	-2.0375	-2.8458	-2.4792	-2.0708	-3.0354	-2.4667	-2.5	-2.8146	-2.1958	-2.8271	-2.6354	-2.2458	-3.0354	-2.3312	394.524	153.187	144.072	148.712	147.805	119.981	431.276	165.293	348.185	250.147	189.248	295.267	117.162	321.596	436.495	134.835	0.0006211	0.0007852	0.00010923	568.96	3.0842e-06	1.658e-05	504.32	204.68	5.6443e-06	1.5458e-05	190.13	73.654	77.915	31.591	2.6592e-05	32.889	0.024598	0.04403	0.012231	717.36	0.00042672	0.0004999	650.55	261.24	0.00043123	0.00049659	271.24	102.81	105.11	41.603	0.00045955	45.829	282.446	212.743	184.238	97.849	322.227	295.042	96.244	103.518	258.968	261.747	100.306	105.855	108.109	114.019	309.637	109.581	-8191	255	
38775.730	1	1	0	0	0.090249	0.26986	0.38675	0.18147	0.075158	0.11683	0.24521	0.31822	0.12753	0.18568	0.2013	0.071628	0.10665	0.078155	0.1654	0.14088	-1.9833	-2.9771	-2.2333	-2.6875	-2.7229	-2.2333	-3.1437	-2.5792	-2.3438	-2.9229	-2.3396	-2.6312	-2.7917	-2.3208	-2.9083	-2.3937	444.523	232.324	271.121	441.293	406.761	336.970	330.300	439.591	253.180	359.865	342.135	92.416	367.561	161.048	334.971	381.214	0.000398	0.00028502	0.00019616	564.19	3.6395e-06	9.5392e-06	501.08	203.95	6.551e-06	7.1423e-06	189.23	73.529	78.08	31.45	1.2216e-05	32.9	0.024915	0.044358	0.012326	715.46	0.00042588	0.00050082	651.28	260.87	0.0004306	0.00049807	269.77	102.54	105.13	41.5	0.00046405	45.948	258.334	309.379	227.114	97.894	123.936	189.136	96.033	103.675	310.024	322.562	100.777	105.679	108.417	113.953	370.028	109.749	-8191	255	
38775.828	1	1	0	0	0.35207	0.079856	0.31998	0.091286	0.0059269	0.19184	0.14721	0.21338	0.25294	0.30672	0.12983	0.072771	0.13175	0.10153	0.18124	0.23762	-1.85	-3.0729	-2.0687	-2.8563	-2.8333	-2.1312	-3.0167	-2.4458	-1.9646	-3.125	-2.2521	-2.6042	-2.9188	-2.1417	-2.9396	-2.5687	271.103	318.608	108.829	86.271	174.878	248.938	309.709	142.652	238.242	356.679	365.378	134.591	247.534	394.432	158.548	88.377	0.00054732	0.001108	0.00037287	561.79	1.7618e-05	4.9141e-06	497.35	203.39	5.8936e-06	9.5154e-06	187.31	72.761	77.564	31.206	2.238e-05	32.521	0.025198	0.045316	0.012555	716.41	0.00043311	0.00050879	653.46	260.19	0.00043273	0.00050006	269.15	102	104.63	41.377	0.00046382	45.484	282.067	242.591	174.474	98.011	256.497	151.532	96.515	103.671	262.806	179.586	101.344	105.702	108.562	113.971	119.168	109.698	-8191	255	
38775.922	1	1	0	0	0.23683	0.17327	0.049026	0.22463	0.10273	0.15111	0.17173	0.21497	0.11028	0.23099	0.22346	0.19728	0.13948	0.16006	0.15327	0.27441	-1.7229	-2.9771	-2.0958	-2.5438	-3.1021	-2.1	-2.9188	-2.6708	-1.9813	-2.8875	-2.45	-2.5125	-3.2646	-2.3438	-2.6646	-2.7292	206.492	95.771	91.909	229.839	397.100	398.872	236.304	337.847	389.679	347.811	429.436	420.013	280.613	104.777	150.126	240.170	0.00060857	0.00070027	0.00011711	562.55	1.6667e-05	1.0293e-05	498.08	202.59	6.1803e-06	4.3722e-06	187.61	72.94	77.113	31.083	6.2222e-06	32.173	0.025122	0.04494	0.012549	715.59	0.00043399	0.00051021	650.8	260.62	0.00044231	0.00051147	270.49	102.46	105.03	41.384	0.00047167	45.343	267.680	259.718	313.241	97.661	215.418	161.486	96.177	103.446	244.867	334.605	100.539	105.744	108.838	114.049	170.056	109.498	-8191	255	
38776.043	1	1	0	0	0.11865	0.20535	0.12209	0.079173	0.32536	0.0028028	0.10775	0.25759	0.10741	0.022851	0.15422	0.27621	0.34215	0.096031	0.32597	0.18717	-1.6458	-2.9229	-2.4125	-2.2729	-2.9208	-2.1104	-2.8937	-2.6021	-2.0458	-2.9292	-2.45	-2.4042	-2.9604	-2.2021	-2.7979	-2.925	260.749	149.040	294.661	303.478	417.303	141.800	304.855	425.217	285.552	129.793	107.858	86.350	404.628	367.402	326.343	331.636	0.0003923	0.00099783	0.00018439	561.45	5.6938e-06	1.2741e-05	502.71	202.31	7.6048e-06	4.1422e-06	188.44	72.445	77.447	31.031	1.248e-05	32.47	0.025368	0.045445	0.012587	716.14	0.00043606	0.00051446	653.3	260.45	0.00043849	0.0005093	270.87	102.35	105.06	41.37	0.00047162	45.57	286.897	145.644	333.880	97.762	360.735	159.444	95.931	103.480	238.459	288.765	100.872	105.508	108.258	113.775	310.726	109.236	-8191	255	
38776.137	1	1	0	0	0.13532	0.2257	0.025963	0.11295	0.33982	0.31471	0.39923	0.18068	0.31041	0.2258	0.24099	0.14601	0.18692	0.026258	0.025726	0.11538	-1.8042	-2.8917	-2.4667	-2.2208	-2.9062	-2.2542	-2.6375	-2.7146	-1.8396	-2.9104	-2.6542	-2.1458	-3.0812	-2.15	-2.6063	-2.9813	387.040	370.322	354.592	110.357	247.005	280.643	310.469	284.579	404.672	382.864	355.455	388.542	365.920	224.130	169.355	283.447	0.00035077	0.0010556	0.00026116	566.53	4.9873e-06	9.154e-06	506.44	203.92	2.8848e-06	1.0138e-05	189.28	73.402	78.297	31.207	1.6591e-05	32.77	0.02566	0.046465	0.01288	721.05	0.00044608	0.00052465	660.7	262.3	0.0004472	0.0005201	273.58	103.32	106.07	41.642	0.000479	45.965	247.162	126.744	219.403	97.918	142.335	374.461	96.281	103.527	331.102	276.131	101.012	105.722	108.624	113.741	317.168	109.717	-8191	255	
38776.234	1	1	0	0	0.30147	0.15841	0.18026	0.24704	0.12903	0.15766	0.11245	0.12686	0.17217	0.13471	0.18017	0.04662	0.18509	0.12387	0.11928	0.22078	-1.8833	-2.7375	-2.4604	-2.2938	-2.9188	-2.3479	-2.5646	-3.0083	-2.3312	-2.9229	-2.6562	-2.2	-2.8312	-2.375	-2.2667	-3.1312	131.428	142.876	413.172	423.901	95.139	324.675	306.701	363.136	107.547	207.247	259.505	351.422	114.987	327.509	181.488	359.246	0.00034344	0.00033965	0.00016715	567.03	1.6823e-05	4.8304e-06	502.16	202.94	1.0601e-05	9.2419e-06	189.22	73.273	77.753	31.141	2.2916e-05	32.355	0.025806	0.046315	0.012792	723.54	0.00044508	0.00052429	656.96	261.73	0.0004452	0.00051254	271.53	102.38	105.58	41.494	0.0004746	45.615	265.580	399.223	194.656	98.151	196.629	194.578	96.480	103.790	255.020	89.392	100.888	105.815	108.996	114.210	199.555	110.190	-8191	255	
38776.328	1	1	0	0	0.21861	0.20336	0.20593	0.047591	0.25224	0.18713	0.2641	0.29575	0.20105	0.11782	0.20835	0.11435	0.29304	0.11862	0.17594	0.091511	-1.7771	-2.6771	-2.6917	-2.1542	-2.9896	-2.3771	-2.3104	-3.0312	-2.2458	-2.7687	-2.9625	-2.0646	-3.0417	-2.7542	-2.1708	-2.9896	190.560	373.341	234.867	385.316	126.432	370.126	391.629	388.244	187.129	306.844	263.698	388.531	97.847	147.110	173.377	402.289	0.00040894	0.00078975	0.00033353	567.85	5.2357e-06	1.4891e-06	502.37	204.3	1.715e-05	5.5312e-06	190.17	72.665	77.994	31.118	1.0717e-05	32.476	0.025868	0.046222	0.012776	721.9	0.00044649	0.00052284	655.78	262.09	0.0004443	0.00051287	271.32	102.26	105.38	41.354	0.00046458	45.504	278.042	153.744	86.533	98.027	360.379	201.050	96.232	103.647	282.163	344.402	100.848	105.486	108.711	113.700	248.162	109.918	-8191	255	
38776.426	1	1	0	0	0.055685	0.16758	0.19012	0.2164	0.22413	0.21605	0.24701	0.18233	0.22663	0.076736	0.28343	0.13355	0.17872	0.21357	0.12218	0.14611	-1.9729	-2.7646	-2.9562	-2.3104	-2.9771	-2.5625	-2.2333	-3.0229	-2.1896	-2.5917	-2.9104	-2.05	-2.9146	-2.5604	-2.2021	-2.9479	144.028	284.019	397.696	120.181	315.882	367.707	391.481	90.468	430.020	161.331	422.008	394.640	143.865	112.256	231.644	190.203	0.00041317	0.0020595	0.00019839	566.71	1.0112e-05	1.8058e-05	502.31	203.75	2.7334e-06	1.193e-05	190.39	73.318	78.004	31.064	2.2104e-05	32.689	0.025437	0.045347	0.012612	720.81	0.00043807	0.00051316	654.63	261.81	0.00043553	0.00050081	270.78	102.23	105.36	41.163	0.00045976	45.405	277.180	199.154	242.060	98.033	242.379	198.548	96.758	103.704	317.532	150.926	100.858	105.820	108.340	113.416	224.942	109.922	-8191	255	
38776.523	1	1	0	0	0.18413	0.063611	0.069265	0.25471	0.034783	0.11071	0.30168	0.14209	0.26801	0.21137	0.3161	0.018146	0.23689	0.044037	0.070683	0.070721	-1.9667	-2.5146	-3.0125	-2.0792	-2.7854	-2.6667	-2.2146	-2.975	-2.3937	-2.4583	-2.9875	-2.1375	-2.6917	-2.8271	-2.1458	-2.9938	196.229	164.993	152.648	136.428	204.124	385.199	93.052	223.540	409.523	388.892	162.686	151.237	374.455	123.435	265.103	105.491	0.00041309	0.00077605	0.00025499	570.38	2.6133e-05	1.9755e-05	505.22	205.68	9.3921e-06	1.1451e-05	190.82	73.987	78.517	31.423	1.6152e-05	32.726	0.025178	0.045023	0.012462	721.58	0.00043723	0.00050709	657.83	263.17	0.00044047	0.00050736	273.22	103.37	106.14	41.6	0.00046804	45.872	275.394	267.535	212.425	98.120	209.981	204.129	96.671	103.560	270.401	172.837	100.496	105.692	108.579	113.883	287.868	109.972	-8191	255	
38776.617	1	1	0	0	0.14205	0.18626	0.032813	0.19051	0.062555	0.16554	0.091351	0.16277	0.21773	0.18556	0.2344	0.21794	0.11729	0.059405	0.12672	0.089464	-1.8687	-2.3208	-3.0854	-2.2438	-2.7125	-2.7396	-2.2812	-2.9604	-2.5042	-2.3146	-2.8187	-2.1083	-2.5812	-2.8708	-2.0062	-3.0042	102.333	120.122	340.909	370.296	166.378	109.342	285.166	126.037	197.484	336.800	155.474	340.673	375.644	115.913	263.866	336.856	0.00060751	0.00086226	0.00045946	568.78	5.3041e-06	5.9125e-06	502.96	203.39	5.7831e-06	6.1217e-06	189.39	73.228	77.816	31.017	1.6166e-05	32.49	0.025577	0.045709	0.012712	723.29	0.00044206	0.00051413	654.52	262.01	0.00043586	0.00050035	270.5	102.44	105.32	41.184	0.00045551	45.236	288.669	367.599	238.377	98.107	302.265	420.669	96.446	103.694	301.950	232.539	100.629	105.592	108.473	113.528	186.292	109.630	-8191	255	
38776.715	1	1	0	0	0.2429	0.31645	0.032935	0.15673	0.12155	0.17631	0.32359	0.23085	0.13863	0.21687	0.20098	0.2066	0.12576	0.1179	0.16183	0.041804	-2.2604	-2.1688	-2.9813	-2.1958	-2.5875	-3.0417	-2.1479	-2.85	-2.5104	-2.2167	-3.2125	-2.2417	-2.3438	-3.0521	-1.9813	-2.6437	433.151	443.022	431.402	439.675	383.695	335.232	339.145	371.595	178.433	369.299	374.388	186.578	93.691	276.153	317.954	436.678	0.0003977	0.00072857	7.5722e-05	568.17	1.3953e-05	1.1187e-05	499.9	204.03	1.4466e-05	1.274e-05	189.68	72.981	77.988	31.173	8.5276e-06	32.441	0.024708	0.043973	0.012155	715.34	0.00042028	0.00049071	647.76	259.71	0.00042055	0.00048309	268.87	101.8	104.71	41.136	0.00045173	45.145	255.279	295.072	416.522	97.462	250.763	110.888	95.963	103.423	272.313	208.919	100.156	105.273	107.967	113.233	331.925	109.219	-8191	255	
38776.836	1	1	0	0	0.12519	0.15279	0.10013	0.12386	0.10492	0.13026	0.14281	0.3281	0.14995	0.18064	0.27029	0.14477	0.071277	0.23838	0.15026	0.32318	-2.2188	-2.0729	-2.8937	-2.475	-2.4167	-2.7979	-2.2208	-2.7729	-2.7333	-2.1271	-2.9417	-2.3187	-2.3937	-3.0729	-2.2938	-2.5083	261.327	208.040	333.720	93.978	386.975	188.227	414.240	358.771	286.089	133.666	131.363	443.195	169.676	260.572	227.559	304.855	0.00052338	0.00073282	0.00021929	566.21	1.4509e-05	1.0454e-05	502.24	204.78	6.7729e-06	7.5653e-06	189.91	73.436	78.554	31.172	1.2645e-05	32.512	0.024618	0.044009	0.012273	715.58	0.0004269	0.00049778	652.5	260.99	0.00042655	0.0004911	270.5	102.23	105.25	41.191	0.00045807	45.329	278.833	264.488	129.326	97.422	312.312	280.063	95.965	103.338	135.476	217.663	100.292	105.343	108.111	113.713	205.106	109.543	-8191	255	
38776.934	1	1	0	0	0.10227	0.15053	0.065275	0.13005	0.097415	0.25415	0.10343	0.081093	0.23676	0.16207	0.15138	0.29796	0.29034	0.21087	0.14044	0.18488	-2.3083	-2.1417	-2.9958	-2.5396	-2.1854	-2.8583	-2.3375	-2.5812	-2.75	-2.1792	-2.9	-2.3875	-2.2583	-2.9854	-2.1396	-2.5229	422.399	430.299	100.213	133.240	271.903	193.422	409.049	182.455	348.430	283.577	297.395	370.199	115.533	396.060	95.381	365.592	0.00040349	0.0013002	0.00034893	570.88	5.6828e-06	1.5632e-05	510.5	205	9.8923e-06	1.1411e-05	191.79	73.791	78.347	31.128	4.1671e-06	32.654	0.024836	0.044473	0.012424	722.29	0.000429	0.00050463	659.45	263.08	0.00043454	0.0005013	274.24	103.43	105.95	41.385	0.00046549	45.557	251.860	229.393	133.505	97.505	205.656	234.201	95.909	103.195	317.541	343.250	100.314	105.179	108.069	113.167	219.091	109.608	-8191	255	
38777.004	1	1	0	0	0.10382	0.057443	0.37282	0.21814	0.098	0.042964	0.22365	0.19883	0.22494	0.17178	0.060108	0.089458	0.098438	0.1472	0.091991	0.16975	-2.3083	-2.1146	-2.8729	-2.6479	-2.1896	-2.9771	-2.3438	-2.3917	-2.8354	-1.9708	-2.8646	-2.6583	-2.1354	-3.0125	-2.2521	-2.5625	127.110	120.594	367.296	438.410	119.718	251.108	370.674	445.016	400.644	366.124	372.419	428.807	354.393	411.801	423.566	282.171	0.00032022	0.0013192	0.00016024	570.45	4.1015e-06	1.2095e-05	502.63	204.91	1.5066e-05	5.5228e-06	191.13	73.324	78.483	31.131	1.0115e-05	32.482	0.025015	0.044694	0.012437	720.78	0.00042638	0.00050075	653.46	261.31	0.00042399	0.0004888	269.92	101.55	104.55	41.073	0.00044904	44.893	273.390	250.169	233.590	97.348	93.368	220.962	95.960	103.188	147.161	263.152	99.925	105.226	108.062	113.256	208.714	109.252	-8191	255	
38777.125	1	1	0	0	0.10338	0.22482	0.032408	0.067316	0.25964	0.16734	0.14801	0.13719	0.094349	0.29455	0.080647	0.2205	0.19237	0.2028	0.22673	0.2562	-2.6792	-2.3167	-2.6417	-2.8583	-2.0312	-2.9958	-2.3833	-2.4833	-3.2125	-1.9104	-2.7292	-2.9708	-2.1729	-3.1813	-2.3688	-2.5062	319.635	409.858	267.177	110.129	273.426	86.546	370.624	92.339	381.993	440.097	371.097	310.849	317.041	187.130	328.042	433.921	0.00051966	0.00042452	0.00018945	569.22	2.3764e-05	1.6786e-05	504.23	205.12	4.2862e-06	9.0125e-06	190.89	73.301	78.286	31.192	1.6915e-05	32.597	0.024174	0.043548	0.012107	716.58	0.00041623	0.00048911	650.48	260.48	0.00041591	0.00048045	269.38	101.35	104.38	40.946	0.00044111	44.856	274.800	208.369	405.866	97.337	270.261	349.790	95.677	103.368	193.211	247.832	100.179	105.167	108.301	113.202	247.184	109.305	-8191	255	
38777.219	1	1	0	0	0.086532	0.27435	0.21432	0.1973	0.15425	0.05234	0.095764	0.20307	0.096098	0.30197	0.14046	0.11833	0.17772	0.090642	0.18867	0.16052	-2.6979	-2.2	-2.4938	-2.8396	-2.1604	-2.8917	-2.5187	-2.3917	-2.8417	-2.0979	-2.5771	-2.7729	-2.1188	-2.9792	-2.5062	-2.1854	223.592	135.747	331.036	443.632	409.654	147.248	306.407	401.677	321.691	348.212	427.498	87.133	95.815	400.021	92.677	304.486	0.0005044	0.00036039	0.00024555	568.19	1.3369e-05	1.6207e-06	505.87	205.94	3.3529e-06	1.0677e-05	191.84	73.973	78.656	31.225	1.604e-05	32.625	0.023649	0.042545	0.01182	712.99	0.00040784	0.00048277	650.29	260.61	0.00041559	0.00048129	270.51	101.93	104.75	41.034	0.00044089	44.987	255.361	140.277	92.876	97.430	274.597	141.523	95.755	103.180	183.112	115.968	99.845	104.888	107.956	113.176	239.622	109.289	-8191	255	
38777.312	1	1	0	0	0.11853	0.068054	0.096861	0.26856	0.1368	0.079679	0.22885	0.059373	0.15532	0.050642	0.21144	0.055081	0.14561	0.11133	0.084208	0.07049	-2.6854	-2.1208	-2.525	-2.9604	-2.2021	-2.8354	-2.5583	-2.2521	-3.075	-2.3083	-2.4521	-3.0771	-2.1937	-2.8354	-2.6583	-2.0833	376.483	163.057	112.897	429.039	190.091	205.395	429.970	165.558	361.372	286.425	166.139	265.809	376.713	161.696	442.944	352.948	0.00042939	0.00038715	0.00022949	571.45	9.7451e-06	4.7965e-06	511.23	207.18	9.3067e-06	8.0846e-06	193.2	74.119	78.31	31.44	1.3359e-05	32.753	0.023795	0.04309	0.01192	717.76	0.0004148	0.00049084	655	262.43	0.00042107	0.00048785	272.59	102.69	105.33	41.322	0.00045241	45.345	264.632	170.269	108.482	97.322	261.480	375.680	95.932	103.253	255.438	209.271	100.164	105.011	108.222	113.190	323.416	109.334	-8191	255	
38777.434	1	1	0	0	0.084539	0.27036	0.15858	0.10323	0.15823	0.14307	0.060184	0.063544	0.21301	0.18013	0.086332	0.18908	0.27763	0.25309	0.08004	0.15654	-2.6667	-2.2875	-2.1396	-2.9292	-2.1333	-2.8271	-2.8083	-2.1271	-3.0542	-2.3854	-2.4896	-3.0167	-2.275	-2.7542	-2.8396	-2.1021	231.363	352.736	151.174	368.813	203.047	89.699	323.683	232.099	267.435	212.218	432.837	360.422	239.896	389.361	361.568	208.484	0.00044519	0.0011149	0.00012074	571.5	1.8028e-05	8.1328e-06	507.22	204.98	6.4976e-06	1.0105e-05	191.65	73.719	78.055	31.325	1.0165e-05	32.542	0.024573	0.044016	0.012203	720.23	0.0004244	0.00049964	655.23	262.2	0.0004273	0.00049676	271.93	102.29	105.3	41.312	0.00045219	45.097	290.862	343.646	271.413	97.370	269.152	183.600	95.599	102.954	308.483	238.328	100.232	105.241	108.259	113.511	339.874	109.308	-8191	255	
38777.531	1	1	0	0	0.43119	0.15273	0.17745	0.18075	0.09541	0.072243	0.078157	0.10481	0.026039	0.017118	0.10269	0.43101	0.12364	0.040793	0.14877	0.28633	-2.4833	-2.3396	-2.3	-3.0417	-2.2938	-2.5563	-2.9958	-2.1396	-2.8854	-2.5042	-2.1042	-2.9667	-2.1646	-2.5104	-2.9229	-2.0667	361.389	230.482	406.909	369.873	268.376	258.487	185.524	309.510	199.029	261.385	353.758	421.530	110.798	134.537	411.917	349.414	0.00055362	0.0012066	0.00033437	572.78	1.1153e-05	9.483e-06	508.13	205.63	1.003e-05	5.6249e-06	191.04	73.893	78.259	30.982	9.7073e-06	32.49	0.024601	0.044056	0.012132	720.97	0.00042378	0.00049663	655.47	262.42	0.00042793	0.00049698	271.95	102.51	105.4	41.177	0.00045633	45.107	272.114	263.228	164.724	97.586	201.700	267.387	95.773	103.105	237.024	247.419	100.214	105.315	108.131	113.505	92.571	109.298	-8191	255	
38777.602	1	1	0	0	0.030569	0.14694	0.15705	0.34512	0.218	0.070518	0.32954	0.24466	0.076888	0.017288	0.1353	0.069678	0.21258	0.11582	0.062013	0.33895	-2.5542	-2.5417	-2.1875	-3.0271	-2.3	-2.525	-3.0187	-2.2313	-2.7729	-2.6708	-2.125	-2.9354	-2.3771	-2.3896	-3.0271	-2.0854	165.512	143.923	337.510	378.571	389.763	117.278	324.405	377.040	390.547	248.358	443.522	432.339	94.167	441.993	414.737	439.189	0.00041484	0.00031763	0.00010298	572.01	1.2389e-05	5.2777e-06	506.96	205.97	6.5264e-06	4.006e-06	191.66	73.52	78.189	30.822	1.8972e-05	31.988	0.024837	0.044256	0.012235	722.69	0.00042507	0.00049559	654.98	262.21	0.00042665	0.00049307	271.49	102.21	105.29	41.034	0.0004637	45.03	248.744	277.707	151.784	97.422	326.671	368.625	95.781	103.163	401.907	114.850	100.040	104.946	108.071	113.452	176.256	108.917	-8191	255	
38777.723	1	1	0	0	0.17486	0.20936	0.39648	0.14667	0.25817	0.2422	0.12978	0.25378	0.065099	0.12198	0.051356	0.29638	0.26741	0.27103	0.11684	0.12963	-2.2583	-2.725	-2.0146	-3.1375	-2.2667	-2.3625	-3.1979	-2.1729	-2.6271	-2.8771	-2.0708	-3.0062	-2.4562	-2.2938	-2.9542	-2.1896	143.597	392.923	326.769	254.853	130.320	243.462	186.671	90.552	270.796	342.498	375.641	112.960	119.546	93.873	313.546	287.229	0.00029945	0.00059488	0.00049897	571.16	1.0204e-05	6.5748e-06	512.46	204.25	6.807e-06	8.1869e-06	191.18	73.103	77.76	30.57	9.9649e-06	31.882	0.025387	0.045609	0.012631	725.57	0.00044157	0.00051598	663.73	263.15	0.00044602	0.00051126	273.12	102.75	105.42	40.907	0.00046647	44.741	275.224	207.194	120.714	97.616	201.558	165.060	95.913	103.387	324.293	234.120	100.077	105.697	108.257	113.440	329.923	109.122	-8191	255	
38777.820	1	1	0	0	0.1169	0.22828	0.17182	0.22744	0.3302	0.13665	0.11134	0.18129	0.2772	0.27435	0.14153	0.19613	0.15936	0.30298	0.2583	0.27027	-2.2354	-2.7333	-2.1479	-2.8479	-2.35	-2.2396	-3.1167	-2.4292	-2.6312	-2.7167	-2.2167	-2.9042	-2.6562	-2.2375	-3.0938	-2.2729	408.239	436.341	427.965	111.393	330.132	338.900	396.751	86.694	171.176	389.641	289.614	228.351	302.037	375.993	174.676	362.157	0.00045598	0.00057764	0.0002925	567.86	1.6685e-05	4.2121e-06	505.1	204.64	6.8752e-06	8.8904e-06	189.53	72.605	77.499	30.494	1.0428e-05	31.626	0.025386	0.045344	0.012647	723.32	0.00044019	0.00051573	658.64	262.46	0.00044707	0.00051122	271.57	102.17	105.4	40.869	0.00047474	44.754	261.289	228.976	126.019	97.658	286.587	334.048	95.883	103.215	246.975	299.447	100.201	105.406	107.824	113.326	252.963	109.195	-8191	255	
38777.914	1	1	0	0	0.14947	0.046562	0.24224	0.20346	0.23011	0.17231	0.23851	0.13807	0.17867	0.1593	0.036929	0.20372	0.20752	0.10229	0.11653	0.21443	-2.1625	-2.8146	-2.1292	-2.7896	-2.6896	-2.15	-3.0438	-2.3896	-2.5896	-2.8937	-2.2479	-2.7812	-2.6583	-2.1833	-2.7708	-2.4792	270.470	202.091	290.092	401.663	164.028	419.155	380.850	325.336	217.556	151.387	85.471	362.032	420.858	344.240	238.312	369.029	0.00056046	4.5302e-05	0.00025666	570.29	1.4498e-05	1.3514e-05	507.52	204.21	5.3462e-06	1.1616e-05	188.68	71.508	77.205	30.412	7.9849e-06	31.493	0.025904	0.046162	0.012874	727.2	0.0004434	0.00051996	660.42	262.76	0.00044707	0.00051567	272.8	102.24	105.41	40.801	0.00048285	44.765	294.983	329.385	362.305	97.487	316.401	201.345	95.967	103.332	413.137	282.348	100.127	104.798	107.790	113.158	255.370	109.401	-8191	255	
38778.012	1	1	0	0	0.20252	0.39743	0.099772	0.30032	0.39406	0.13011	0.35142	0.20968	0.16395	0.2358	0.23722	0.20328	0.32338	0.21459	0.16931	0.090785	-1.9042	-2.9688	-2.2	-2.8146	-2.6667	-2.1333	-3.1562	-2.3438	-2.2729	-3.0479	-2.1708	-2.5229	-2.6896	-2.1667	-2.8937	-2.5354	172.666	131.038	320.070	397.205	195.100	415.734	400.776	99.166	170.221	237.563	87.455	175.199	396.896	429.945	328.784	394.369	0.00070031	0.0011617	0.00041393	568.57	4.3143e-06	1.247e-05	503.76	203.13	9.5606e-06	7.0413e-06	188.63	72.193	77.15	30.549	1.062e-05	31.403	0.0263	0.047013	0.01315	726.72	0.00045233	0.00053027	662.77	262.48	0.00045691	0.00052995	273.61	102.88	105.79	41.079	0.00049783	45.114	250.583	434.939	172.031	97.349	106.732	211.521	96.278	102.973	173.426	95.860	100.022	105.218	107.917	113.365	166.506	109.088	-8191	255	
38778.133	1	1	0	0	0.16666	0.17688	0.035314	0.12387	0.014664	0.16254	0.15824	0.019543	0.22054	0.12346	0.17262	0.30128	0.049237	0.043272	0.14788	0.23481	-1.7979	-2.8812	-2.2021	-2.6354	-2.7062	-2.1	-2.8854	-2.7604	-2.3375	-3.0979	-2.2542	-2.5271	-2.8104	-2.2188	-2.7812	-2.7333	182.942	308.061	129.944	201.346	216.797	172.136	397.383	152.140	393.346	265.388	89.327	418.199	121.245	437.113	247.911	285.896	0.00053299	0.0001279	0.00026691	568.76	6.3235e-06	7.5199e-06	511.56	203.01	4.5727e-06	9.7841e-07	189.14	72.764	77.308	30.432	4.3978e-06	31.539	0.02661	0.047914	0.013262	728.76	0.00045518	0.0005336	666.55	263.4	0.00046022	0.00053112	275.08	103.19	105.91	41.012	0.00049317	45.169	282.485	229.794	258.980	97.677	363.429	373.466	95.607	102.970	172.952	350.144	99.885	105.197	108.088	113.255	224.229	109.359	-8191	255	
38778.227	1	1	0	0	0.13326	0.23356	0.085935	0.081033	0.061866	0.22115	0.044418	0.22033	0.24577	0.13516	0.043927	0.14213	0.17206	0.057882	0.2473	0.28154	-1.7771	-2.8688	-2.1167	-2.5021	-3.0667	-2.0354	-2.8208	-2.6479	-2.2979	-2.9188	-2.6667	-2.5396	-2.9562	-2.1917	-2.7396	-2.825	360.469	384.745	128.404	386.969	280.011	98.231	381.433	424.091	199.834	390.467	384.937	436.317	385.312	218.824	438.985	386.902	0.00028006	0.00090133	0.00022292	568.56	1.253e-05	1.2894e-05	504.5	203.86	1.447e-05	9.9365e-06	190.39	71.761	77.371	30.41	9.0966e-06	31.372	0.026794	0.048227	0.01342	731.01	0.0004659	0.00054756	667.36	264.93	0.00047058	0.00054592	276.68	103.86	106.65	41.407	0.00051782	45.587	250.003	368.846	157.475	97.423	279.930	195.789	96.074	103.161	230.263	318.432	100.123	105.291	108.278	113.350	186.406	109.145	-8191	255	
38778.301	1	1	0	0	0.10244	0.27068	0.072345	0.28364	0.10579	0.22986	0.13772	0.30824	0.21978	0.041972	0.18352	0.1745	0.086735	0.11109	0.23677	0.019242	-1.6646	-2.9354	-2.5542	-2.3688	-2.9354	-2.2104	-2.7396	-2.7313	-2.0646	-2.8937	-2.5896	-2.2604	-3	-2.2	-2.6271	-2.8937	268.133	110.076	148.507	100.177	438.419	287.911	361.959	347.223	284.549	378.070	139.506	209.604	274.685	136.025	391.219	262.000	0.00056256	0.00072896	0.00015778	571.11	3.4452e-06	2.2129e-06	507.25	203.2	6.0243e-06	5.5156e-06	188.91	72.074	77.323	30.522	1.3431e-05	31.386	0.028082	0.050737	0.014092	738.5	0.00048828	0.0005758	675.74	266.76	0.00049084	0.00056917	279.44	104.58	107.59	41.665	0.00052565	45.71	271.344	162.955	166.445	97.532	96.376	243.682	95.976	102.993	252.267	326.641	100.364	105.020	108.185	113.383	350.515	109.149	-8191	255	
38778.398	1	1	0	0	0.39142	0.29369	0.051106	0.18445	0.20702	0.08745	0.29317	0.22893	0.30182	0.26681	0.1815	0.13931	0.057261	0.28781	0.2153	0.13194	-1.6917	-2.7896	-2.5021	-2.1125	-3.1375	-2.2708	-2.4458	-2.875	-1.9396	-2.8979	-2.6979	-2.0438	-2.8979	-2.3896	-2.4646	-2.9625	346.573	375.674	128.271	401.938	125.676	359.680	379.592	320.354	392.315	211.077	345.976	432.542	140.092	349.119	306.083	340.774	0.00061429	0.00053248	0.00021217	570.63	5.5782e-06	4.9366e-06	507.53	203.42	2.7872e-06	1.5815e-05	190.18	72.486	77.69	30.523	7.362e-06	31.897	0.028462	0.051365	0.014211	740.43	0.00049192	0.0005795	678.01	267.65	0.00049212	0.00057157	280.41	105.37	108.1	41.824	0.00052593	46.131	257.435	255.762	311.326	97.563	397.477	237.283	95.929	102.955	434.805	210.742	100.443	105.695	108.273	113.035	187.787	109.619	-8191	255	
38778.516	1	1	0	0	0.24577	0.13158	0.095389	0.21207	0.18811	0.16731	0.26216	0.14171	0.19969	0.074545	0.17856	0.34237	0.089831	0.20248	0.16634	0.082661	-1.6417	-2.7458	-2.6	-1.9146	-3.025	-2.3667	-2.4354	-3.1479	-2.2	-2.6396	-2.7417	-2.2062	-3.1	-2.5708	-2.3354	-2.9667	196.107	213.002	360.180	335.117	240.755	192.567	292.259	158.851	144.055	253.297	383.724	355.383	96.854	392.381	259.844	389.838	0.00038797	0.0013075	0.0003713	571.59	1.1994e-05	5.1371e-06	510.56	203.05	1.1995e-05	1.2028e-05	189.21	72.461	77.879	30.513	1.4985e-05	31.723	0.028478	0.051185	0.014119	739.68	0.00048716	0.00057088	676.7	266.84	0.00048876	0.00056579	280.01	105.35	108.21	41.94	0.00052715	46.186	272.942	153.475	378.964	97.332	367.545	403.140	95.861	103.273	234.856	153.372	100.307	105.061	108.131	112.999	166.248	109.217	-8191	255	
38778.613	1	1	0	0	0.16175	0.12764	0.15368	0.066652	0.14967	0.17546	0.33498	0.24533	0.13643	0.11093	0.25639	0.11881	0.25638	0.20834	0.032022	0.086479	-1.7188	-2.3312	-2.8167	-2.1792	-2.9229	-2.3312	-2.3292	-3.1333	-2.2812	-2.7062	-2.7792	-2.0333	-3.0833	-2.5167	-2.2521	-3.0729	279.884	256.964	131.957	327.130	261.496	368.285	375.794	322.503	177.759	129.288	132.420	432.919	441.895	341.994	241.437	264.775	0.00046486	0.0012886	0.00021532	567.33	7.8322e-06	7.3193e-06	508	203.07	3.7595e-06	7.8471e-06	189.16	72.583	77.428	30.665	3.8193e-06	31.547	0.028614	0.051465	0.014238	737.11	0.00049448	0.0005784	675.26	266.95	0.00049545	0.00057074	279.29	105.13	108.08	41.921	0.00052294	45.961	279.052	169.011	278.762	97.301	203.932	423.129	95.903	103.132	317.090	248.644	100.325	105.171	108.003	113.134	246.719	109.350	-8191	255	
38778.707	1	1	0	0	0.20332	0.082284	0.03021	0.075407	0.061343	0.15002	0.15355	0.19726	0.20604	0.12924	0.17851	0.45846	0.07399	0.01238	0.16201	0.13939	-1.7792	-2.55	-3.0042	-2.3625	-2.8833	-2.7729	-2.3625	-3.0917	-2.2396	-2.4083	-2.9792	-2.0271	-2.9167	-2.6396	-2.1396	-3.0396	97.680	183.886	227.432	348.018	365.430	119.217	328.222	158.124	255.692	229.689	443.455	362.519	360.294	110.501	172.512	135.832	0.00023331	0.00066751	0.00033632	569.21	1.291e-05	1.2886e-05	507.52	203.65	1.3404e-05	6.1275e-06	189.29	72.041	77.562	30.618	1.212e-05	31.58	0.028501	0.051032	0.014136	738.89	0.00049651	0.0005837	679.14	268.13	0.00050193	0.00057823	280.55	105.41	108.31	41.95	0.00052501	46.118	219.671	335.672	169.774	97.663	354.227	369.167	95.899	103.231	321.670	271.158	99.971	105.324	108.223	113.377	274.110	109.251	-8191	255	
38778.805	1	1	0	0	0.17268	0.2943	0.10862	0.15743	0.22058	0.16337	0.026062	0.2389	0.27423	0.18226	0.022657	0.10664	0.30921	0.1533	0.2007	0.15319	-1.8979	-2.25	-2.9479	-2.1625	-2.7354	-2.6813	-2.0542	-3.2354	-2.3854	-2.3854	-3.0292	-2.0625	-2.8646	-2.7729	-2.0146	-2.9	303.874	256.937	315.782	419.053	303.889	359.432	277.357	345.956	147.146	91.065	121.503	108.508	352.560	397.503	162.563	255.352	0.00068012	0.00023314	0.00014417	568.76	1.2779e-05	5.3746e-06	509.38	204.25	1.706e-05	4.7735e-06	189.92	72.519	77.711	30.812	2.0223e-05	31.903	0.028745	0.051393	0.014234	741.19	0.00049509	0.00058028	678.84	268.11	0.00049753	0.00057579	281.49	105.97	108.82	42.162	0.00053415	46.645	269.135	125.277	142.905	97.527	237.204	233.892	95.790	103.096	322.032	150.251	100.200	105.011	108.051	113.358	241.938	109.110	-8191	255	
#DATA ENDS
