BOXY.EXE: ISS Imagent and Oximeter Data Acquisition Program Version 0.80
Ascii Record File

#ACQ INFORMATION
2  Detector Channels 
16  External MUX Channels 
1  Auxiliary Channels 
5000  Waveform (CCF) Frequency (Hz)
1  Waveforms Skipped 
30  Waveforms Averaged 
1  Cycles Averaged 
16  Acquisitions per Waveform 
10.0806  Updata Rate (Hz) 

#FILE INFORMATION
TRUE -- External MUX Channel results are PARSED.
FALSE -- AC DC and Phase are NOT grouped.
TRUE -- Companion Program Settings File CREATED.
FALSE -- AC data not excluded
FALSE -- DC data not excluded
FALSE -- Phase data not excluded
FALSE -- Auxillary Chn. data not excluded
Tab delimiters

#CALIBRATION STATE
TRUE -- Waveform Calibration Values APPLIED.


#AUX CALIBRATION VALUES
Val Type	aux-1	

Term	1.0000e+00	
Factor	0.0000e+00	


#WF CALIBRATION VALUES
A = Detector Channel
Val Type	A-AC1	A-AC2	A-AC3	A-AC4	A-AC5	A-AC6	A-AC7	A-AC8	A-AC9	A-AC10	A-AC11	A-AC12	A-AC13	A-AC14	A-AC15	A-AC16	A-DC1	A-DC2	A-DC3	A-DC4	A-DC5	A-DC6	A-DC7	A-DC8	A-DC9	A-DC10	A-DC11	A-DC12	A-DC13	A-DC14	A-DC15	A-DC16	A-Ph1	A-Ph2	A-Ph3	A-Ph4	A-Ph5	A-Ph6	A-Ph7	A-Ph8	A-Ph9	A-Ph10	A-Ph11	A-Ph12	A-Ph13	A-Ph14	A-Ph15	A-Ph16	

Term	0.00000e+00	0.00000e+00	0.00000e+00	0.00000e+00	0.00000e+00	0.00000e+00	0.00000e+00	0.00000e+00	0.00000e+00	0.00000e+00	0.00000e+00	0.00000e+00	0.00000e+00	0.00000e+00	0.00000e+00	0.00000e+00	0.00000e+00	0.00000e+00	0.00000e+00	0.00000e+00	0.00000e+00	0.00000e+00	0.00000e+00	0.00000e+00	0.00000e+00	0.00000e+00	0.00000e+00	0.00000e+00	0.00000e+00	0.00000e+00	0.00000e+00	0.00000e+00	0.00000e+00	0.00000e+00	0.00000e+00	0.00000e+00	0.00000e+00	0.00000e+00	0.00000e+00	0.00000e+00	0.00000e+00	0.00000e+00	0.00000e+00	0.00000e+00	0.00000e+00	0.00000e+00	0.00000e+00	0.00000e+00	
Factor	1.00000e+00	1.00000e+00	1.00000e+00	1.00000e+00	1.00000e+00	1.00000e+00	1.00000e+00	1.00000e+00	1.00000e+00	1.00000e+00	1.00000e+00	1.00000e+00	1.00000e+00	1.00000e+00	1.00000e+00	1.00000e+00	1.00000e+00	1.00000e+00	1.00000e+00	1.00000e+00	1.00000e+00	1.00000e+00	1.00000e+00	1.00000e+00	1.00000e+00	1.00000e+00	1.00000e+00	1.00000e+00	1.00000e+00	1.00000e+00	1.00000e+00	1.00000e+00	X	X	X	X	X	X	X	X	X	X	X	X	X	X	X	X	

B = Detector Channel
Val Type	B-AC1	B-AC2	B-AC3	B-AC4	B-AC5	B-AC6	B-AC7	B-AC8	B-AC9	B-AC10	B-AC11	B-AC12	B-AC13	B-AC14	B-AC15	B-AC16	B-DC1	B-DC2	B-DC3	B-DC4	B-DC5	B-DC6	B-DC7	B-DC8	B-DC9	B-DC10	B-DC11	B-DC12	B-DC13	B-DC14	B-DC15	B-DC16	B-Ph1	B-Ph2	B-Ph3	B-Ph4	B-Ph5	B-Ph6	B-Ph7	B-Ph8	B-Ph9	B-Ph10	B-Ph11	B-Ph12	B-Ph13	B-Ph14	B-Ph15	B-Ph16	

Term	0.00000e+00	0.00000e+00	0.00000e+00	0.00000e+00	0.00000e+00	0.00000e+00	0.00000e+00	0.00000e+00	0.00000e+00	0.00000e+00	0.00000e+00	0.00000e+00	0.00000e+00	0.00000e+00	0.00000e+00	0.00000e+00	0.00000e+00	0.00000e+00	0.00000e+00	0.00000e+00	0.00000e+00	0.00000e+00	0.00000e+00	0.00000e+00	0.00000e+00	0.00000e+00	0.00000e+00	0.00000e+00	0.00000e+00	0.00000e+00	0.00000e+00	0.00000e+00	-1.45959e+02	-1.30980e+02	-1.25157e+02	-1.82080e+02	-7.17741e+01	-6.95097e+01	-1.55766e+02	-1.62015e+02	-7.74156e+01	-6.88670e+01	-1.70942e+02	-1.70432e+02	-1.82993e+02	-1.76724e+02	-6.90137e+01	-1.49404e+02	
Factor	2.03209e-05	1.41488e-04	3.74525e-05	1.74853e-01	1.18439e-06	1.57894e-06	1.53863e-01	4.53265e-02	1.13898e-06	1.62005e-06	7.65132e-02	2.71161e-02	3.40376e-02	8.44743e-03	1.33393e-06	1.21964e-02	1.36066e-05	2.52670e-05	7.14622e-06	9.33528e-02	2.52174e-07	2.86787e-07	7.71164e-02	2.43145e-02	2.45725e-07	2.86025e-07	3.96700e-02	1.41238e-02	1.84396e-02	4.57171e-03	2.63143e-07	6.37821e-03	X	X	X	X	X	X	X	X	X	X	X	X	X	X	X	X	



#DISTANCE SETTINGS
A = Detector Channel
A-1	A-2	A-3	A-4	A-5	A-6	A-7	A-8	A-9	A-10	A-11	A-12	A-13	A-14	A-15	A-16	

2.5000e+00	3.0000e+00	2.5000e+00	3.0000e+00	2.0000e+00	3.0000e+00	1.5000e+00	3.0000e+00	3.0000e+00	3.0000e+00	3.0000e+00	3.0000e+00	3.0000e+00	3.0000e+00	1.5000e+00	3.0000e+00	

B = Detector Channel
B-1	B-2	B-3	B-4	B-5	B-6	B-7	B-8	B-9	B-10	B-11	B-12	B-13	B-14	B-15	B-16	

1.0000e+01	1.0000e+01	1.0000e+01	1.4400e+00	1.0000e+01	1.0000e+01	1.5100e+00	1.9400e+00	1.0000e+01	1.0000e+01	1.9900e+00	2.4900e+00	2.4100e+00	2.9000e+00	1.0000e+01	2.9800e+00	




#DATA BEGINS
time	group	step	mark	flag	A-AC1	A-AC2	A-AC3	A-AC4	A-AC5	A-AC6	A-AC7	A-AC8	A-AC9	A-AC10	A-AC11	A-AC12	A-AC13	A-AC14	A-AC15	A-AC16	A-DC1	A-DC2	A-DC3	A-DC4	A-DC5	A-DC6	A-DC7	A-DC8	A-DC9	A-DC10	A-DC11	A-DC12	A-DC13	A-DC14	A-DC15	A-DC16	A-Ph1	A-Ph2	A-Ph3	A-Ph4	A-Ph5	A-Ph6	A-Ph7	A-Ph8	A-Ph9	A-Ph10	A-Ph11	A-Ph12	A-Ph13	A-Ph14	A-Ph15	A-Ph16	B-AC1	B-AC2	B-AC3	B-AC4	B-AC5	B-AC6	B-AC7	B-AC8	B-AC9	B-AC10	B-AC11	B-AC12	B-AC13	B-AC14	B-AC15	B-AC16	B-DC1	B-DC2	B-DC3	B-DC4	B-DC5	B-DC6	B-DC7	B-DC8	B-DC9	B-DC10	B-DC11	B-DC12	B-DC13	B-DC14	B-DC15	B-DC16	B-Ph1	B-Ph2	B-Ph3	B-Ph4	B-Ph5	B-Ph6	B-Ph7	B-Ph8	B-Ph9	B-Ph10	B-Ph11	B-Ph12	B-Ph13	B-Ph14	B-Ph15	B-Ph16	aux-1	digaux	

1453.847	1	1	0	256	0.069253	0.061452	0.26465	0.18393	0.20682	0.046325	0.18237	0.43941	0.064637	0.29064	0.10968	0.12206	0.17673	0.073516	0.18916	0.14841	-1.1562	-1.7938	-1.0479	-1.8396	-1.4104	-1.0792	-1.9396	-1.2167	-1.2854	-1.7229	-1.0312	-1.6833	-1.5083	-1.0104	-1.8625	-1.2875	55.290	326.146	308.330	290.817	374.184	268.490	220.977	304.036	274.536	175.337	288.125	100.627	378.898	317.253	190.018	106.755	0.00027971	0.00028924	3.2596e-05	454.52	3.2828e-06	3.8183e-06	590.85	144.47	9.0933e-07	2.6098e-06	211.78	84.923	56.884	20.637	5.0794e-06	37.452	0.0015552	0.0025919	0.00073767	438.52	2.6825e-05	3.1111e-05	567.83	140.48	2.668e-05	3.1614e-05	206.46	82.819	56.441	20.251	2.7801e-05	36.672	140.142	213.602	262.809	51.486	167.412	186.327	50.745	56.614	88.210	217.690	54.756	59.550	61.480	65.591	143.599	63.618	-8191	255	
1453.944	1	1	0	0	0.05592	0.086055	0.063537	0.22705	0.056999	0.17967	0.24425	0.0060017	0.11669	0.10419	0.045463	0.069146	0.061291	0.37165	0.22964	0.048133	-1	-1.8875	-1.0667	-1.6271	-1.6083	-0.9375	-1.8167	-1.3625	-1.1583	-1.9813	-1.1313	-1.5854	-1.6208	-0.99167	-1.7229	-1.3312	121.384	229.227	175.978	335.500	135.299	262.219	304.521	231.726	92.234	358.261	341.542	392.890	276.467	43.088	337.174	308.381	0.00029377	0.00070943	0.00018203	455.93	4.1239e-06	3.6641e-06	608.83	149.64	2.4903e-06	7.2824e-06	221.46	89.305	58.89	21.422	2.602e-06	39.458	0.0016374	0.0026556	0.00076716	444.12	2.6581e-05	3.0477e-05	584.93	145.24	2.5443e-05	2.953e-05	214.94	86.798	58.296	21.014	2.5693e-05	38.429	135.540	155.873	180.164	51.562	216.309	347.741	50.292	56.831	215.022	145.831	54.966	59.281	62.064	65.466	155.321	63.682	-8191	255	
1454.040	1	1	0	0	0.32673	0.2713	0.19852	0.18289	0.23785	0.10344	0.13928	0.12749	0.012376	0.04302	0.19234	0.16326	0.3126	0.27089	0.10612	0.23255	-0.57292	-1.875	-1.1812	-1.4688	-1.8771	-1.0625	-1.7208	-1.5333	-1	-1.8708	-1.2437	-1.4979	-1.9771	-0.93958	-1.6833	-1.6458	127.716	236.312	112.694	69.564	266.025	127.860	240.689	89.853	227.607	141.490	294.164	101.256	167.536	48.178	200.469	296.350	0.00036155	0.00060541	0.00017859	460.03	1.2964e-06	3.1374e-06	613.22	151.32	2.6961e-06	1.241e-06	222.46	92.057	61.065	21.756	2.001e-06	40.456	0.0015144	0.0024437	0.00068148	445.37	2.4055e-05	2.6815e-05	587.89	146.17	2.2332e-05	2.5316e-05	216.15	88.778	59.455	21.323	2.3173e-05	39.251	131.310	118.716	144.203	51.408	397.659	248.352	50.970	56.688	150.953	340.574	54.530	59.554	61.184	65.593	161.654	63.000	-8191	255	
1454.136	1	1	0	0	0.15018	0.26284	0.098454	0.14889	0.27131	0.029037	0.24264	0.10067	0.097206	0.13889	0.25409	0.3838	0.057685	0.32532	0.026753	0.082836	-0.84167	-1.8208	-1.2396	-1.2125	-1.7646	-1.1437	-1.6063	-1.7687	-0.97292	-1.8667	-1.4396	-1.1958	-1.8979	-1.0792	-1.3833	-1.7229	337.078	255.428	273.836	346.817	300.008	241.082	343.914	93.446	246.882	59.520	373.401	340.888	201.558	387.765	226.391	162.375	0.00035823	0.00030316	1.472e-05	458.96	2.0024e-06	3.7422e-06	603.38	151.11	3.4457e-06	3.0876e-06	223.2	90.92	59.746	21.511	2.8658e-06	39.006	0.00137	0.0022338	0.0006088	444.54	2.1531e-05	2.395e-05	581.12	145.12	2.1201e-05	2.3798e-05	214.48	87.588	58.807	20.992	2.266e-05	37.956	123.948	124.423	135.100	51.529	133.250	217.305	50.684	56.779	197.134	51.872	54.311	59.467	61.645	65.757	219.096	63.065	-8191	255	
1454.255	1	1	0	0	0.18362	0.22386	0.098739	0.18001	0.10737	0.21863	0.19702	0.26929	0.33024	0.024345	0.07279	0.19274	0.17705	0.23989	0.18651	0.041484	-0.49167	-1.8229	-1.4958	-1.1958	-1.9375	-1.0458	-1.6063	-1.7354	-0.99792	-1.9229	-1.3917	-1.2458	-1.9917	-1.1208	-1.3542	-1.7854	60.479	341.663	85.345	385.874	115.159	322.769	334.791	307.553	378.568	121.216	283.669	134.836	57.772	244.035	200.849	45.098	0.00037631	0.0003631	9.3369e-05	460.63	2.0834e-06	2.7047e-06	600.82	149.89	2.5475e-06	3.2246e-06	218.71	89.285	58.658	21.199	4.6433e-06	39.345	0.0013571	0.0021164	0.00060353	444.55	2.1164e-05	2.4389e-05	576.73	143.98	2.1701e-05	2.4154e-05	211.07	86.325	58.053	20.729	2.2761e-05	38.08	132.103	127.378	129.435	51.620	231.522	205.401	50.740	56.718	127.921	144.412	54.642	59.498	61.523	65.771	150.944	63.162	-8191	255	
1454.351	1	1	0	0	0.15894	0.19181	0.14788	0.18354	0.047614	0.087587	0.1478	0.067434	0.14582	0.17724	0.26591	0.1126	0.19777	0.08012	0.073565	0.15613	-0.62917	-1.6896	-1.5104	-0.96667	-1.8687	-1.1229	-1.3333	-1.8375	-0.97708	-1.8354	-1.7229	-0.84583	-1.9354	-1.3958	-1.1146	-2.0771	395.936	276.319	300.754	47.120	129.088	336.260	319.434	309.287	166.075	189.534	249.470	269.096	211.800	299.586	229.475	215.303	0.00034086	0.00049241	3.7725e-05	464.77	5.242e-06	4.0851e-07	610.92	151.76	3.5014e-06	2.2631e-06	223.2	90.799	60.532	21.614	6.4759e-06	39.777	0.0012899	0.0021057	0.00058365	443.75	2.074e-05	2.3313e-05	584.37	145.33	2.0141e-05	2.3198e-05	215.23	88.323	59.073	21.044	2.1149e-05	38.818	132.379	106.028	138.202	51.864	218.118	175.046	50.865	56.573	235.607	199.753	54.228	59.208	61.314	65.682	162.268	63.525	-8191	255	
1454.447	1	1	0	0	0.25832	0.11978	0.14524	0.10111	0.13079	0.31672	0.1966	0.17388	0.043961	0.17613	0.30829	0.12931	0.14047	0.09958	0.11638	0.23672	-0.6625	-1.6646	-1.6229	-0.97083	-1.6875	-1.5042	-1.4417	-1.9583	-0.88125	-1.3854	-1.7	-0.94375	-1.7917	-1.2396	-1.1771	-1.9	342.645	147.447	382.158	172.901	69.832	368.344	212.244	172.959	356.341	131.981	128.936	351.299	170.683	344.114	147.531	85.018	0.0003435	0.00036944	4.9462e-05	463.22	2.5998e-06	6.0068e-06	613.12	149.41	2.4833e-06	1.9636e-06	219.29	89.549	59.303	21.174	3.6661e-06	38.903	0.0012738	0.0019609	0.00055602	447.86	2.013e-05	2.1852e-05	585.17	144.12	2.0154e-05	2.2906e-05	211.43	86.659	57.979	20.655	2.0124e-05	37.874	134.511	68.502	38.879	51.112	245.844	278.775	50.632	56.801	162.031	146.009	54.542	58.606	61.503	65.309	220.412	63.487	-8191	255	
1454.543	1	1	0	0	0.10109	0.25755	0.18208	0.43109	0.15686	0.13254	0.085868	0.4004	0.060995	0.23717	0.26286	0.17011	0.2938	0.36288	0.24162	0.1193	-0.67292	-1.5354	-1.7167	-0.91875	-1.6354	-1.4625	-1.0604	-1.9021	-1.0354	-1.2917	-1.8083	-1.1708	-1.6812	-1.6083	-1.0875	-1.9062	117.823	226.467	226.187	377.242	173.356	178.805	252.020	356.645	380.553	206.941	357.954	278.433	46.326	41.792	257.301	336.472	0.0003503	0.00045686	5.5479e-05	458.87	4.4911e-06	4.7326e-06	598.28	147.39	3.1731e-06	4.0564e-06	214.65	87.285	58.1	20.649	2.6083e-06	37.842	0.001208	0.0019725	0.000551	440.94	1.9787e-05	2.1616e-05	571.65	141.84	1.8701e-05	2.1044e-05	206.49	84.222	56.506	20.258	2.0556e-05	36.79	139.903	128.580	119.264	51.516	162.067	147.020	50.644	56.749	203.336	292.187	54.739	58.974	61.530	65.557	200.235	63.409	-8191	255	
1454.639	1	1	0	0	0.11579	0.14095	0.051003	0.38811	0.20099	0.04383	0.33778	0.14303	0.2193	0.19956	0.37937	0.18719	0.11808	0.087801	0.35092	0.18392	-0.825	-1.1875	-1.9646	-0.79375	-1.7292	-1.5208	-1.0917	-1.8312	-1.1729	-1.2333	-1.8458	-1.2062	-1.5271	-1.7687	-0.9625	-1.9083	315.620	177.023	320.138	113.578	305.257	153.322	286.531	46.652	169.426	282.498	386.712	280.739	94.591	97.534	188.390	257.126	0.00023216	0.00038263	4.5993e-05	448.32	2.4566e-06	1.0494e-06	583.3	144.38	2.5335e-06	8.7224e-07	204.93	82.494	54.819	19.326	1.2316e-06	35.05	0.0011795	0.0018743	0.00053726	433.69	1.9193e-05	2.1205e-05	558.41	139.27	1.9028e-05	2.1694e-05	198.32	79.679	53.812	18.956	1.9298e-05	34.141	133.718	115.387	149.964	51.528	97.945	322.694	50.991	56.444	211.681	340.638	54.794	58.375	61.775	65.866	99.805	63.231	-8191	255	
1454.736	1	1	0	0	0.12558	0.10329	0.13843	0.22536	0.19999	0.030921	0.068216	0.21453	0.019421	0.19653	0.1301	0.47621	0.14521	0.092087	0.091354	0.27815	-1.0312	-1.0333	-1.7167	-1.0792	-1.5146	-1.6708	-1.1021	-1.8312	-1.4937	-1.2687	-1.9562	-1.3521	-1.4208	-1.6812	-0.95833	-1.8687	98.592	390.603	164.414	165.367	312.632	127.073	339.564	325.129	178.998	224.432	308.855	78.784	59.661	227.087	180.241	61.813	0.00025037	0.00034931	5.0068e-05	443.36	3.1419e-06	2.5742e-06	566.96	139.68	3.2901e-06	2.7761e-06	200.83	79.962	53.758	19.49	2.4357e-06	35.923	0.0011137	0.0017767	0.00048496	425.49	1.7697e-05	1.9923e-05	544.9	134.49	1.7008e-05	1.9303e-05	194.03	77.336	52.744	18.995	1.7626e-05	34.833	125.617	139.800	71.455	52.002	139.511	180.201	50.467	56.292	211.502	262.156	54.719	58.482	62.017	65.289	353.311	63.558	-8191	255	
1454.832	1	1	0	0	0.11061	0.12146	0.1582	0.23525	0.25189	0.24598	0.096774	0.16746	0.27988	0.1718	0.12823	0.25631	0.14293	0.29343	0.069013	0.14681	-1.0375	-0.96042	-1.6104	-1.1958	-1.2437	-1.8333	-0.93958	-1.6125	-1.6333	-1.1354	-2.1562	-1.2687	-1.3979	-1.8563	-0.99167	-1.7729	218.834	149.186	138.893	373.124	277.609	333.752	109.583	191.693	390.797	77.380	53.561	107.221	180.263	298.249	365.240	98.389	0.00026692	0.00035508	5.7195e-05	440.58	2.996e-06	3.2686e-06	573.49	139.78	1.8866e-06	5.2726e-07	203.08	80.08	53.76	19.509	2.0772e-06	34.471	0.001066	0.0016873	0.00047327	425.89	1.7209e-05	1.9419e-05	550.64	135.24	1.7003e-05	1.9154e-05	195.73	77.943	52.82	19.007	1.7515e-05	33.721	124.480	120.405	111.338	51.310	176.055	178.663	50.559	56.354	99.452	107.168	54.453	58.883	61.803	65.925	200.722	63.275	-8191	255	
1454.951	1	1	0	0	0.017396	0.10533	0.086456	0.40196	0.08119	0.28645	0.1138	0.46708	0.27527	0.13365	0.19508	0.15982	0.15612	0.19997	0.036858	0.044619	-1.2188	-1.1792	-1.7167	-1.3687	-1.1396	-1.975	-1.2375	-1.7417	-1.4688	-1.1917	-1.8104	-1.5208	-1.1521	-2.0125	-1.0146	-1.5792	45.214	314.231	385.923	56.401	217.798	385.666	363.692	53.906	376.547	316.144	192.155	76.616	124.109	317.038	268.041	385.780	0.00028906	0.0001889	0.0002085	431.66	2.6803e-06	6.3765e-06	551.87	135.75	2.6038e-06	5.7573e-06	191.31	74.253	50.729	18.393	3.1994e-06	32.994	0.0010705	0.0016551	0.00047292	416.64	1.6643e-05	1.8614e-05	529.45	130.87	1.6481e-05	1.944e-05	184.83	72.063	49.954	17.966	1.8013e-05	32.127	138.545	139.456	135.204	51.300	231.640	157.041	50.601	56.429	175.658	146.044	54.518	58.908	61.881	65.814	129.287	63.324	-8191	255	
1455.047	1	1	0	0	0.10746	0.10666	0.12957	0.11011	0.12928	0.14279	0.30242	0.22221	0.27078	0.080917	0.078564	0.059156	0.25396	0.18906	0.23343	0.069824	-1.3292	-0.92708	-1.7646	-1.5625	-1.1167	-1.9937	-1.2188	-1.4604	-1.8771	-1.0312	-1.7729	-1.5417	-1.2667	-1.975	-1.1667	-1.2792	383.690	377.659	303.594	379.754	152.231	298.049	363.924	299.434	46.616	64.751	80.890	361.568	374.934	333.610	276.246	298.513	0.00025601	0.0002548	9.6767e-05	429.71	5.192e-06	6.2258e-06	552.45	134.69	3.0419e-06	1.6442e-06	194.3	77.249	51.953	18.868	5.2291e-06	34.276	0.0010498	0.0017556	0.00049108	412.85	1.7597e-05	2.05e-05	529.45	131.29	1.8149e-05	2.0959e-05	187.81	74.65	50.979	18.469	1.9579e-05	33.3	134.154	75.561	96.401	50.922	192.160	204.406	50.521	56.677	183.989	239.343	54.149	58.836	61.271	65.571	203.646	63.737	-8191	255	
1455.120	1	1	0	0	0.16619	0.22499	0.3311	0.18856	0.14741	0.14997	0.090327	0.011494	0.061114	0.20624	0.17283	0.26122	0.19994	0.30054	0.17155	0.32292	-1.3396	-0.94167	-1.6729	-1.6333	-1.1417	-1.7917	-1.2521	-1.2729	-1.9396	-1.3042	-1.7687	-1.6917	-1.1688	-1.7833	-1.1854	-0.98542	58.141	46.393	147.648	288.149	350.583	142.807	257.276	315.629	290.062	136.012	304.851	49.422	57.388	395.623	271.303	347.379	0.00028847	0.00021183	0.00010887	435.57	5.0625e-06	4.1039e-06	568.02	139.35	2.46e-06	5.5109e-06	202.28	80.41	54.291	19.763	1.1963e-06	36.052	0.0011484	0.0018342	0.00051678	419.6	1.9269e-05	2.0929e-05	544.67	135.14	1.8546e-05	2.1447e-05	195.98	78.393	53.425	19.433	2.0361e-05	35.284	141.999	76.585	125.798	51.166	200.367	189.081	50.614	56.322	194.050	213.603	54.193	59.165	62.155	65.705	235.195	63.463	-8191	255	
1455.216	1	1	0	0	0.17853	0.21594	0.1141	0.37494	0.26933	0.14572	0.35588	0.027074	0.13934	0.21874	0.14719	0.18009	0.36259	0.1873	0.29926	0.18759	-1.6104	-1.0021	-1.4333	-1.5396	-1.0833	-1.8125	-1.4542	-1.3021	-1.8354	-1.1583	-1.5104	-1.7812	-0.95208	-1.7375	-1.3646	-1.1542	52.211	193.717	283.320	322.658	179.664	282.078	389.749	195.243	106.449	321.563	300.841	261.189	82.279	392.384	370.171	216.801	0.00028432	0.00046412	0.00018368	442.02	2.5646e-06	1.5529e-06	584.62	144.05	3.9274e-06	6.1501e-06	210.74	85.706	57.016	20.92	5.0673e-06	38.581	0.0012398	0.0019546	0.000551	426.4	2.0539e-05	2.2524e-05	560.38	139.45	1.9211e-05	2.2347e-05	205.15	83.546	56.318	20.572	2.157e-05	37.571	125.205	121.782	129.561	51.289	169.710	364.264	50.618	56.258	210.879	136.688	54.443	59.070	61.984	65.958	192.790	63.352	-8191	255	
1455.335	1	1	0	0	0.12049	0.090335	0.19157	0.09513	0.14906	0.059449	0.042091	0.25331	0.23893	0.076155	0.25729	0.10699	0.067277	0.22133	0.081129	0.12649	-1.6	-1.0708	-1.6354	-2.0208	-1.0354	-1.925	-1.6313	-1.1688	-2.0563	-1.1583	-1.4667	-1.9292	-1.0417	-1.8104	-1.5604	-1.1146	324.854	285.082	333.447	58.423	290.163	39.134	43.752	348.417	193.035	257.824	284.838	254.806	107.943	347.648	100.407	335.166	0.00029068	0.00028677	0.00011918	447.39	3.5221e-06	6.2408e-06	585.09	145.45	1.5207e-06	4.2426e-06	214.27	88.151	58.859	21.573	5.4925e-06	39.079	0.0012882	0.0020849	0.00058465	431.34	2.041e-05	2.3248e-05	562.59	140.93	2.0373e-05	2.4214e-05	207.22	84.951	57.695	21.064	2.2267e-05	38.075	136.778	156.404	114.799	51.605	238.460	151.821	50.626	56.296	225.422	210.744	54.868	58.783	61.724	66.237	244.313	63.735	-8191	255	
1455.431	1	1	0	0	0.18868	0.2834	0.40013	0.099316	0.14914	0.24838	0.28205	0.31635	0.12217	0.2618	0.3175	0.22721	0.28873	0.25256	0.10354	0.20749	-1.5	-1.2354	-1.3708	-1.9083	-1.1521	-1.7583	-1.8646	-0.96458	-1.8542	-1.3667	-1.2437	-1.9354	-1.0208	-1.7292	-1.5104	-1.0083	366.146	326.268	379.765	60.560	358.118	200.899	336.487	270.393	369.082	81.978	324.697	217.098	120.873	332.440	193.769	385.177	0.00035074	0.00034409	0.00015597	453.53	2.6452e-06	1.3542e-06	595.76	148.59	1.4589e-06	5.3684e-06	222.54	91.347	60.268	22.936	8.1224e-06	41.848	0.0013254	0.0021831	0.00063173	436.89	2.286e-05	2.4663e-05	574.88	144.1	2.2546e-05	2.5413e-05	214.54	88.526	59.551	22.518	2.4125e-05	40.898	139.452	122.490	126.335	50.986	177.225	323.426	50.326	57.113	193.749	158.962	54.744	59.173	61.145	65.747	184.181	63.458	-8191	255	
1455.527	1	1	0	0	0.20174	0.070598	0.18852	0.21877	0.21498	0.24555	0.25205	0.032522	0.10762	0.14859	0.11446	0.26179	0.32472	0.22555	0.1107	0.13248	-1.4438	-1.4292	-1.1479	-1.9167	-1.2583	-1.3979	-1.7417	-1.0688	-1.6375	-1.4125	-1.3021	-1.8813	-1.0917	-1.6354	-1.8271	-1.0396	369.569	184.943	336.045	107.894	161.288	150.965	295.595	169.544	348.211	64.712	108.633	45.586	398.837	74.253	146.477	364.629	0.00039843	0.00021315	0.00015309	462.65	2.8811e-06	5.6027e-06	624.4	153.78	4.0633e-06	6.8446e-06	231.41	96.611	64.572	26.048	5.1183e-06	45.441	0.0014721	0.0023389	0.00065849	444.73	2.4177e-05	2.727e-05	599.58	149.62	2.3744e-05	2.7108e-05	225.91	94.465	63.425	25.538	2.6236e-05	44.205	138.427	196.361	121.833	51.368	212.428	123.040	50.279	56.901	180.626	196.107	54.737	59.368	61.908	65.769	181.570	63.254	-8191	255	
1455.624	1	1	0	0	0.0311	0.22208	0.21722	0.12616	0.084337	0.30838	0.11412	0.10208	0.18608	0.13337	0.14192	0.27438	0.12931	0.3901	0.11864	0.054101	-1.2313	-1.3979	-1.1646	-1.875	-1.0979	-1.25	-1.9167	-1.1583	-1.7271	-1.6917	-0.97708	-2.0229	-1.3875	-1.3229	-1.9104	-1.0688	192.288	91.128	68.620	350.510	111.150	107.407	38.905	283.985	358.457	380.214	265.846	248.684	162.440	294.966	74.022	122.675	0.00035376	0.00032264	9.8911e-05	450.42	1.1712e-06	7.1184e-06	585.4	142.52	1.6971e-06	3.5348e-06	201.44	80.754	53.683	20.891	3.2896e-06	35.906	0.0015502	0.0025155	0.00072643	434.66	2.6334e-05	3.0954e-05	564.09	138.87	2.8084e-05	3.2155e-05	196.67	78.663	53.753	20.731	3.3099e-05	34.965	141.294	381.097	383.010	51.820	256.010	167.124	50.259	56.407	200.900	158.915	54.547	59.261	61.136	65.956	181.361	63.264	-8191	255	
1455.744	1	1	0	0	0.21588	0.11605	0.14476	0.14257	0.24663	0.15856	0.090792	0.4747	0.25618	0.087517	0.26336	0.063081	0.11992	0.23662	0.26119	0.11453	-1.2021	-1.5354	-1.1479	-1.7771	-1.1917	-1.3521	-1.7833	-1.1583	-1.4458	-1.8	-1.0083	-1.7938	-1.5812	-1.275	-1.825	-1.0708	311.992	215.947	337.714	311.035	232.121	318.051	111.965	165.441	374.428	45.451	52.017	230.519	60.520	88.923	278.660	72.549	0.0002925	0.00063834	0.00012027	415.61	2.7612e-06	4.601e-06	530.3	127.54	2.5725e-06	9.6426e-07	179.67	68.896	46.692	17.827	7.9774e-06	30.562	0.0019111	0.0032952	0.00097976	405.97	3.4863e-05	3.996e-05	514.54	125.15	3.5316e-05	4.0967e-05	175.49	67.695	47.352	17.889	3.9676e-05	30.434	131.758	85.090	147.635	51.233	228.979	205.098	49.967	56.778	162.962	380.597	54.218	58.890	61.671	65.589	230.261	63.526	-8191	255	
1455.816	1	1	0	0	0.20661	0.38583	0.13763	0.25728	0.089634	0.069561	0.12069	0.092333	0.18054	0.26558	0.10527	0.14387	0.41808	0.081355	0.33172	0.13142	-1.1021	-1.8646	-0.8875	-1.8062	-1.5833	-1.25	-1.9979	-1.2833	-1.3271	-1.9771	-0.96042	-1.7375	-1.3292	-0.94583	-1.8604	-1.2	215.457	375.021	75.534	101.851	114.940	175.590	336.883	201.067	218.886	66.003	387.990	379.207	245.891	71.328	292.028	368.392	0.00021926	0.00044726	0.00013588	397.5	5.1353e-06	5.8158e-06	522.8	122.81	1.8319e-06	2.6967e-06	173.58	66.838	45.933	17.371	1.696e-06	30.282	0.0021726	0.0038371	0.0010764	389.47	3.7332e-05	4.2062e-05	504.76	120.33	3.504e-05	4.0242e-05	171.42	65.859	46.09	17.285	3.4073e-05	29.939	143.172	377.758	172.341	51.392	187.243	49.253	50.120	56.337	64.935	200.851	54.535	59.053	61.080	65.517	144.120	63.688	-8191	255	
1455.937	1	1	0	0	0.20855	0.14192	0.20387	0.20631	0.0054932	0.19405	0.24673	0.1096	0.11317	0.2145	0.04745	0.10215	0.12183	0.16265	0.28401	0.15141	-1.1083	-1.875	-0.94583	-1.7208	-1.6542	-1.2687	-1.9312	-1.1979	-1.1833	-1.9167	-0.98125	-1.4833	-1.7563	-1.1542	-1.7979	-1.3937	71.394	46.954	63.924	375.606	259.676	230.853	170.648	323.340	260.614	149.267	194.832	163.926	46.693	348.914	74.506	181.755	0.00022494	0.00042776	6.0724e-05	395.83	2.8856e-06	2.4973e-06	525.13	123.72	5.4826e-06	4.6355e-06	180.25	68.541	46.639	17.569	1.0252e-06	31.193	0.00183	0.00306	0.00086463	386.64	2.8856e-05	3.2102e-05	506.11	120.41	2.5849e-05	2.9489e-05	175.51	67.1	46.268	17.312	2.4174e-05	30.588	142.458	172.389	98.150	51.574	123.778	160.710	50.510	56.798	203.615	115.091	54.368	59.519	62.255	65.928	342.609	63.716	-8191	255	
1456.031	1	1	0	0	0.19114	0.20907	0.053062	0.22653	0.10907	0.13803	0.19179	0.022945	0.38831	0.15051	0.1668	0.15374	0.36324	0.3664	0.1252	0.11549	-0.83542	-1.8792	-1.1479	-1.6458	-1.6854	-0.925	-1.8542	-1.4604	-0.975	-1.8813	-1.2354	-1.6104	-1.9042	-0.97708	-1.8417	-1.4521	390.529	333.349	165.495	78.943	138.697	319.436	315.812	269.305	392.783	182.425	300.960	394.228	371.004	310.132	96.264	393.744	0.0002756	0.00032648	1.1355e-05	404.82	3.8042e-06	3.2526e-06	545.11	128.12	3.4975e-06	2.8384e-06	186.05	70.193	47.304	17.349	2.4147e-06	30.851	0.0013468	0.0022719	0.00063042	393.42	2.2541e-05	2.4916e-05	521.68	123.76	2.17e-05	2.5717e-05	179	68.4	46.819	17.148	2.4783e-05	30.373	124.353	300.491	297.070	51.857	165.153	152.421	50.549	55.981	189.574	212.847	54.219	59.433	61.876	65.995	262.973	63.562	-8191	255	
1456.127	1	1	0	0	0.15109	0.11847	0.14408	0.21996	0.19328	0.14061	0.13212	0.19911	0.1122	0.1779	0.11605	0.19277	0.36628	0.30009	0.047899	0.13425	-0.66458	-1.8271	-1.1125	-1.3771	-1.85	-1.1792	-1.8188	-1.4875	-1.3021	-1.9833	-1.3438	-1.3563	-1.8271	-1.1583	-1.6521	-1.4562	138.286	44.709	338.124	107.459	311.949	130.578	379.749	381.715	89.746	337.597	204.850	243.512	398.013	358.802	52.064	273.859	0.00026151	0.00052149	5.9246e-05	410.77	3.6609e-06	1.4062e-06	542.96	128.56	1.2664e-06	2.3906e-06	185.59	71.185	47.487	17.446	6.4531e-06	31.103	0.0014502	0.0024825	0.00068525	397.51	2.3436e-05	2.6461e-05	519.83	124.34	2.3365e-05	2.6936e-05	180	69.42	47.331	17.168	2.5999e-05	30.57	145.289	88.561	114.903	51.303	175.675	66.481	50.518	56.583	75.003	307.458	54.281	59.433	61.776	65.789	179.233	63.355	-8191	255	
1456.225	1	1	0	0	0.20852	0.16553	0.27188	0.13971	0.11835	0.31278	0.10479	0.27326	0.2329	0.18949	0.040708	0.11449	0.21776	0.35896	0.12276	0.15661	-0.74167	-2.0125	-1.3625	-1.4188	-1.9042	-1.1292	-1.6333	-1.7563	-0.94375	-1.8583	-1.5271	-1.2437	-1.8354	-1.0729	-1.6688	-1.7021	223.871	202.039	133.137	74.155	383.726	75.520	262.026	160.734	216.685	158.722	88.832	60.753	169.968	332.259	144.470	70.872	0.00021339	0.00032733	2.6891e-05	411.53	4.7764e-06	2.5697e-06	544.42	128.72	2.8054e-06	3.4992e-06	185.24	72.432	48.168	17.54	7.2957e-06	31.723	0.0015219	0.0025839	0.00074007	399.38	2.6987e-05	3.0292e-05	525.29	125.39	2.6846e-05	3.0933e-05	181.54	70.461	48.173	17.481	3.1655e-05	31.272	139.827	129.708	97.352	51.699	196.930	150.016	50.683	56.534	212.974	106.257	54.522	58.974	61.913	66.031	150.141	63.317	-8191	255	
1456.344	1	1	0	0	0.10662	0.21874	0.21562	0.059547	0.142	0.07923	0.14187	0.32135	0.10756	0.25019	0.32832	0.04501	0.061772	0.31793	0.259	0.19366	-0.59792	-1.7167	-1.4625	-1.1688	-1.9417	-1.1375	-1.3979	-1.7771	-0.82917	-1.8583	-1.525	-1.1521	-1.9833	-1.1875	-1.3104	-1.9062	329.801	104.209	276.307	209.593	100.886	333.096	357.401	72.016	121.220	307.092	50.700	56.788	397.692	275.084	81.748	280.519	0.00025393	0.00027877	4.483e-05	416.17	4.0344e-06	6.7197e-06	550.84	130.19	5.1267e-06	2.7214e-06	190.23	73.306	48.727	17.829	2.9394e-06	32.533	0.0018234	0.0031336	0.0009158	406.02	3.2988e-05	3.8174e-05	535.82	127.91	3.4074e-05	3.9361e-05	186.54	72.247	49.333	17.901	3.6587e-05	32.244	146.973	255.419	127.262	51.755	169.367	204.766	50.764	56.522	209.872	191.728	54.569	59.183	62.168	65.667	177.050	63.647	-8191	255	
1456.416	1	1	0	0	0.15997	0.31126	0.14976	0.19178	0.23637	0.053312	0.1369	0.34048	0.28535	0.19368	0.3072	0.079503	0.28618	0.15199	0.19076	0.22794	-0.39792	-1.7479	-1.4458	-0.91667	-1.7708	-1.1354	-1.5021	-2.0333	-1.0146	-1.7667	-1.5375	-0.99792	-1.9729	-1.2521	-1.2125	-1.9417	305.389	231.183	355.973	247.577	326.712	169.728	383.974	300.323	377.017	378.027	59.370	370.272	204.067	72.879	151.150	346.366	0.00025413	0.00057542	0.00013331	420.91	6.657e-06	5.6244e-06	558.51	133.46	3.9413e-06	3.2799e-06	193.16	75.007	50.389	18.988	2.3837e-06	34.179	0.0020464	0.0036029	0.00098987	410.94	3.5858e-05	4.074e-05	540.61	129.43	3.4819e-05	3.9688e-05	189.26	74.001	50.893	18.916	3.628e-05	33.687	126.102	89.022	84.540	51.449	221.053	191.629	50.460	57.047	223.407	221.084	54.886	59.474	61.382	66.087	137.385	63.820	-8191	255	
1456.512	1	1	0	0	0.14705	0.091001	0.030839	0.027663	0.16475	0.36999	0.11392	0.17609	0.16086	0.090582	0.15973	0.08464	0.090091	0.33832	0.23749	0.048592	-0.65	-1.65	-1.5042	-0.99375	-2.0167	-1.2375	-1.2771	-2.0125	-0.85	-1.5771	-1.7417	-1.0458	-1.7104	-1.3667	-1.1458	-1.8542	366.920	307.003	365.626	278.787	95.633	254.286	296.459	63.377	81.572	112.114	379.642	107.595	395.515	288.920	234.213	345.057	0.00027233	0.00021166	1.0344e-05	422.01	2.5506e-06	2.2487e-06	556.78	133.59	3.1783e-07	1.1289e-05	192.91	76.881	51.913	19.816	3.3576e-06	35.528	0.0020194	0.003429	0.00097405	411.46	3.427e-05	3.934e-05	539.7	130.58	3.4564e-05	3.9236e-05	189.46	75.451	51.934	19.787	3.7371e-05	34.921	131.805	89.256	215.695	51.910	151.876	212.002	50.589	56.721	39.602	219.829	54.952	59.421	62.047	66.229	298.977	64.003	-8191	255	
1456.632	1	1	0	0	0.14743	0.26301	0.082428	0.29186	0.2568	0.20615	0.059336	0.10121	0.017492	0.15318	0.048083	0.19476	0.17857	0.12832	0.26386	0.14232	-0.75	-1.5646	-1.7271	-0.98333	-1.8563	-1.5521	-1.0625	-1.9354	-1.0875	-1.4833	-1.9292	-1.0604	-1.9146	-1.6	-1.0958	-2.0938	221.008	303.558	355.503	397.620	383.659	359.342	169.811	261.580	160.928	162.590	258.784	283.318	324.839	240.224	237.210	366.822	0.00027163	0.00032743	0.00015891	420.98	5.071e-06	4.534e-06	558.19	135	6.0212e-06	2.5684e-06	196.46	77.733	51.649	20.127	6.657e-06	35.637	0.0020928	0.0035715	0.0010175	410.79	3.5566e-05	4.034e-05	541.23	131.33	3.5031e-05	4.0463e-05	192.06	76.522	52.265	20.022	3.8899e-05	35.233	146.023	271.861	82.785	51.720	121.519	165.806	50.847	56.653	157.944	253.335	54.726	59.468	62.323	65.848	223.684	63.601	-8191	255	
1456.729	1	1	0	0	0.12896	0.16762	0.047311	0.28379	0.13498	0.087095	0.37836	0.23447	0.086985	0.092333	0.11959	0.1487	0.24404	0.11757	0.16939	0.21583	-0.82083	-1.2729	-1.9958	-0.96875	-1.7417	-1.7625	-1.1958	-2.0229	-1.3125	-1.3937	-1.8917	-1.2021	-1.8292	-1.7875	-1.0083	-1.8958	143.506	267.638	348.452	95.873	198.705	294.307	314.062	324.130	360.550	138.833	339.241	344.643	287.934	365.053	140.386	50.079	0.00032989	0.00018837	0.00017353	424.62	5.3405e-06	3.1151e-06	569.96	134.79	8.6864e-07	1.016e-06	197.56	78.613	51.41	20.423	5.6611e-06	36.48	0.0021196	0.0037208	0.0010676	415.88	3.9126e-05	4.4036e-05	551.76	132.14	3.9045e-05	4.5728e-05	193.78	77.157	52.552	20.379	4.2278e-05	35.967	125.491	352.513	85.469	51.862	191.092	168.068	50.928	56.727	313.413	266.326	53.960	58.975	61.864	66.342	220.385	63.893	-8191	255	
1456.825	1	1	0	0	0.0099351	0.13578	0.17805	0.25474	0.13006	0.49844	0.16781	0.17126	0.1958	0.15007	0.050753	0.15357	0.16615	0.14225	0.092635	0.20637	-1.0917	-1.4	-1.9021	-1.2292	-1.6083	-1.9146	-0.975	-1.8875	-1.4479	-0.93958	-1.8375	-1.0812	-1.4354	-1.7687	-0.95208	-1.9542	191.948	331.581	146.958	370.639	306.174	92.836	376.916	370.750	392.507	45.061	312.902	395.093	89.316	265.636	347.991	322.799	0.00033351	0.00098693	4.485e-05	420.79	3.0508e-06	6.652e-06	567.55	134.46	9.8697e-07	5.4558e-06	198.53	78.767	52.015	21.228	5.5334e-06	37.397	0.0022994	0.0040219	0.00113	413.88	3.9521e-05	4.4393e-05	550.84	132.06	3.8102e-05	4.4211e-05	194.32	77.507	53.12	21.161	4.1352e-05	36.889	142.203	90.708	392.978	51.751	222.049	197.856	50.921	57.157	356.242	186.086	54.958	59.313	62.227	66.170	175.778	63.378	-8191	255	
1456.921	1	1	0	0	0.042675	0.023845	0.18501	0.28984	0.21564	0.19934	0.058416	0.14133	0.28975	0.051486	0.087861	0.21695	0.081986	0.28721	0.038096	0.16127	-1.2979	-1.0854	-1.9771	-1.3229	-1.4604	-1.9417	-1.1167	-1.9792	-1.6354	-1.3146	-1.9417	-1.4333	-1.4583	-1.9875	-1.0417	-1.7729	381.092	98.644	90.274	319.178	254.385	227.251	157.106	129.211	63.834	324.192	71.174	385.197	332.298	327.292	361.461	298.585	0.00032285	0.00050218	0.00016688	421.88	4.9808e-06	2.406e-06	567.25	135.89	2.0081e-06	5.4353e-06	197.23	79.21	53.318	21.81	7.139e-06	38.337	0.002259	0.0039957	0.0011002	411.98	3.9012e-05	4.4224e-05	549.57	132.21	3.8234e-05	4.3617e-05	194.02	77.669	53.587	21.678	3.9435e-05	37.723	128.621	107.699	173.466	51.409	202.313	200.389	50.880	56.565	90.330	264.428	54.710	59.625	62.161	66.238	208.494	63.815	-8191	255	
1457.017	1	1	0	0	0.046584	0.090362	0.35909	0.084095	0.10876	0.10327	0.20848	0.034438	0.18589	0.43736	0.17687	0.25563	0.13103	0.18286	0.27035	0.14958	-1.1479	-1.1604	-1.8438	-1.325	-1.4146	-1.775	-1.3208	-1.6604	-1.8292	-1.225	-1.6521	-1.6646	-1.4021	-2.0396	-1.0354	-1.6583	93.792	42.114	343.672	75.716	49.492	118.747	94.074	232.351	87.085	351.541	208.615	389.672	312.622	370.410	360.701	262.032	0.00031011	0.00041041	8.325e-05	419.7	1.4839e-06	1.2827e-06	573.82	136.54	2.1387e-06	2.2884e-06	203.56	82.822	55.007	23.358	4.0071e-06	40.882	0.002179	0.0036732	0.0010371	409.21	3.6141e-05	3.9629e-05	552.76	133.96	3.4431e-05	3.9724e-05	198.74	80.984	55.106	23.247	3.7228e-05	40.351	142.192	61.801	142.756	51.643	46.710	244.222	50.731	56.862	156.407	276.415	54.567	59.526	61.688	66.108	220.390	63.348	-8191	255	
1457.111	1	1	0	0	0.026242	0.076094	0.082717	0.19822	0.23202	0.036447	0.073497	0.39081	0.14893	0.15059	0.05247	0.26249	0.17882	0.29589	0.41981	0.19217	-1.4188	-1.1083	-1.7354	-1.4708	-1.0938	-2.0958	-1.2292	-1.5292	-1.8292	-1.0688	-1.9146	-1.7083	-1.1812	-2.0563	-1.1479	-1.4479	58.769	42.458	238.610	266.598	211.980	218.217	75.338	262.895	359.404	87.901	72.967	232.047	297.858	307.736	370.703	221.336	0.0002724	0.00021459	0.00021955	422.97	2.5592e-06	3.3155e-06	583.32	139.31	4.9312e-06	5.6739e-06	208.52	84.884	56.128	24.269	1.8346e-06	41.688	0.0021072	0.003567	0.0010083	411.08	3.5863e-05	4.0884e-05	565.05	136.47	3.5483e-05	4.1197e-05	204.07	83.413	56.576	24.067	3.8331e-05	41.149	135.840	78.285	166.257	51.497	181.652	384.287	50.613	56.880	212.068	185.449	55.084	59.591	62.143	66.049	254.491	63.459	-8191	255	
1457.208	1	1	0	0	0.09808	0.11525	0.11367	0.09746	0.215	0.24786	0.42215	0.096612	0.13595	0.099678	0.16099	0.21469	0.093555	0.094526	0.19386	0.33292	-1.4917	-1.2313	-1.775	-1.575	-1.0375	-1.9833	-1.525	-1.4479	-1.8104	-1.0958	-1.7875	-1.7854	-0.88125	-1.9125	-1.4833	-1.3396	199.515	40.553	112.414	295.258	185.608	366.485	353.519	70.480	290.722	223.852	96.165	329.816	319.753	335.058	332.675	84.494	0.00037447	0.00039078	0.00020761	417.4	3.6414e-06	7.4384e-06	576.08	139.06	5.6096e-06	1.4464e-06	204.2	83.752	55.204	23.677	3.0549e-06	41.051	0.002215	0.0038163	0.001067	407.6	3.8483e-05	4.3953e-05	560.69	135.81	3.836e-05	4.4569e-05	200.72	81.998	55.849	23.596	4.2787e-05	40.368	129.883	80.863	128.197	51.675	220.553	344.529	50.193	56.847	190.944	121.868	54.289	58.648	60.911	66.010	212.827	63.324	-8191	255	
1457.328	1	1	0	0	0.13674	0.31325	0.24092	0.14658	0.20357	0.18782	0.37716	0.17809	0.097442	0.25631	0.09234	0.3724	0.11325	0.23545	0.25665	0.1874	-1.575	-1.1667	-1.6083	-1.7979	-0.93958	-1.875	-1.7042	-1.1437	-1.9688	-1.1125	-1.5729	-1.9229	-1.3312	-1.925	-1.6271	-1.1333	110.817	206.311	190.664	340.310	218.443	172.073	337.116	55.243	188.428	338.144	288.296	259.760	114.130	366.287	339.559	350.194	0.00032275	0.00019413	6.0122e-05	411.91	2.4787e-06	7.4385e-06	574.66	137.18	9.113e-07	2.1428e-06	206.12	83.452	55.719	24.269	9.2921e-06	42.393	0.0024049	0.0040702	0.001162	403.68	4.1916e-05	4.6733e-05	557.4	135.16	3.9485e-05	4.5818e-05	201.47	82.448	56.421	24.191	4.1139e-05	41.704	134.377	53.357	135.353	51.259	172.466	171.036	50.241	56.921	70.272	203.782	54.237	58.856	61.912	65.957	151.809	63.319	-8191	255	
1457.424	1	1	0	0	0.13459	0.049282	0.062615	0.21059	0.1121	0.10265	0.23412	0.14412	0.1321	0.11665	0.094062	0.11134	0.23577	0.29385	0.27698	0.1522	-1.375	-1.1521	-1.4333	-1.9146	-1.1229	-1.8167	-1.5688	-1.1042	-2.1375	-1.1542	-1.3229	-1.9125	-1.0938	-1.975	-1.6729	-1.3	56.962	116.578	351.434	268.612	337.204	281.495	40.539	254.739	339.267	98.911	88.048	52.907	327.127	332.160	268.991	66.123	0.00036845	0.00055603	0.00012898	415.66	5.3793e-06	1.7604e-06	583.97	139.48	6.4146e-06	4.8414e-06	208.31	85.587	56.977	24.921	3.6812e-06	43.133	0.0023026	0.0039253	0.0010954	406.04	3.9344e-05	4.3639e-05	563.51	137.16	3.8146e-05	4.4316e-05	204.77	84.466	57.292	24.694	4.101e-05	42.537	127.798	147.542	155.454	51.191	186.802	310.289	50.417	56.665	200.386	306.607	54.438	59.561	61.663	65.731	175.371	63.374	-8191	255	
1457.519	1	1	0	0	0.070916	0.044041	0.1313	0.12348	0.15609	0.094413	0.34875	0.09681	0.12856	0.093251	0.21422	0.28233	0.19252	0.068876	0.093956	0.13154	-1.7792	-1.3125	-1.1958	-2	-1.0292	-1.6792	-1.6063	-1.2854	-2.0333	-1.3042	-1.4312	-2.0021	-1.0312	-1.6292	-1.675	-1.0458	44.214	298.391	283.488	231.899	349.234	234.056	331.368	195.165	268.605	204.450	251.634	303.395	338.660	292.380	313.087	298.710	0.00050097	0.00036434	7.4639e-05	413.29	1.3318e-06	5.9774e-06	581.11	139.46	1.8399e-06	2.9483e-06	206.91	84.48	56.169	24.801	3.102e-06	42.569	0.0023593	0.0039374	0.0011449	405.86	4.0681e-05	4.6044e-05	562.76	136.44	3.9673e-05	4.5371e-05	203.77	84.111	57.076	24.619	4.3494e-05	42.235	137.128	63.076	388.198	52.052	198.461	129.632	50.320	56.936	109.863	260.139	54.402	59.157	61.651	65.595	127.697	63.621	-8191	255	
1457.617	1	1	0	0	0.19181	0.1951	0.28402	0.12228	0.051564	0.31413	0.17578	0.21618	0.16605	0.25346	0.12927	0.088496	0.012397	0.093698	0.17556	0.24232	-1.6021	-1.3937	-1.2229	-2.0083	-1.0771	-1.5063	-1.7938	-1.0479	-1.6667	-1.3708	-1.075	-2.0583	-1	-1.4146	-1.6896	-1.3333	199.664	261.307	76.700	269.315	205.013	107.656	171.140	387.759	178.573	391.687	252.607	365.394	370.096	209.371	99.674	276.993	0.00036823	0.00028607	7.9638e-05	406.49	2.2437e-06	6.841e-06	571.55	136.51	4.6579e-06	4.058e-06	199.05	82.464	54.571	23.794	1.8208e-06	41.166	0.0024601	0.0043073	0.0011966	401.03	4.3806e-05	4.8026e-05	553.04	133.82	4.0795e-05	4.7565e-05	196.93	81.185	55.387	23.605	4.4653e-05	40.428	129.187	55.866	122.767	51.393	224.576	328.425	50.737	56.979	122.388	257.867	54.565	59.253	61.738	65.684	281.494	63.028	-8191	255	
1457.711	1	1	0	0	0.11046	0.077816	0.21847	0.24772	0.13662	0.2372	0.15849	0.15711	0.28786	0.094369	0.11344	0.31923	0.1557	0.084911	0.078861	0.3368	-1.5	-1.4396	-1.0125	-1.9292	-1.1354	-1.4875	-1.9896	-0.99167	-1.7542	-1.6458	-1.0625	-1.9917	-1.2958	-1.3771	-1.8687	-1.3396	257.290	131.572	103.435	71.028	267.718	320.329	345.965	81.847	300.508	219.991	112.603	61.909	104.066	306.657	288.663	251.582	0.00038117	0.0003547	8.7143e-05	396.79	5.1226e-06	6.7646e-06	552.81	130.59	2.2989e-06	4.5848e-06	192.4	79.013	52.384	22.601	4.5299e-06	38.995	0.0024383	0.0043546	0.0011981	391.39	4.3811e-05	4.823e-05	536.34	129.21	4.2583e-05	5.0382e-05	190.55	78.245	53.396	22.534	4.7781e-05	38.717	130.955	246.361	229.497	51.771	144.278	161.658	50.456	57.052	85.214	194.860	54.976	59.214	61.638	65.838	186.601	63.643	-8191	255	
1457.807	1	1	0	0	0.29502	0.20867	0.19474	0.11662	0.14114	0.15062	0.25298	0.10402	0.1022	0.11011	0.050395	0.13567	0.083409	0.17096	0.1469	0.024543	-1.1854	-1.6667	-1.0938	-1.9854	-1.2938	-1.2687	-2.0292	-1.2875	-1.5896	-1.8229	-1.1958	-2.125	-1.4875	-1.0938	-1.8271	-1.1542	240.944	99.439	80.229	86.045	279.638	196.249	131.679	106.084	248.182	344.836	246.679	98.802	227.429	338.230	58.768	45.177	0.00029559	0.00062788	5.0732e-05	391.59	5.2771e-06	2.3102e-06	543.02	128.93	2.9059e-06	3.2067e-06	191.24	78.129	51.177	22.185	2.831e-06	38.947	0.0026212	0.0045713	0.0013267	387.79	4.666e-05	5.3471e-05	530.83	127.62	4.6143e-05	5.3216e-05	189.23	77.245	52.696	22.234	4.9718e-05	38.646	128.314	133.093	207.507	51.512	188.893	137.387	50.151	56.604	322.657	83.570	54.793	59.347	62.545	66.025	190.633	63.043	-8191	255	
1457.903	1	1	0	0	0.15368	0.13961	0.1144	0.086876	0.10085	0.10694	0.32168	0.21841	0.15632	0.14656	0.19502	0.11933	0.15678	0.11472	0.38398	0.14106	-1.3	-1.6917	-0.97917	-1.8083	-1.4792	-1.2229	-2.1292	-1.0958	-1.5375	-1.7104	-1.1083	-1.8542	-1.5646	-1.1167	-1.8792	-1.2583	240.506	131.387	154.532	120.916	176.727	327.904	273.436	358.993	328.567	379.859	358.539	368.742	164.322	127.414	127.748	311.651	0.00032322	0.00041126	0.00015817	388.93	8.4894e-06	3.3348e-06	552.7	130.73	7.4159e-06	8.9725e-06	192.9	79.036	52.68	22.478	7.8669e-06	39.621	0.0027225	0.0047269	0.0013793	388.09	4.9982e-05	5.6551e-05	540.1	129.58	5.126e-05	6.0232e-05	193.33	78.704	54.082	22.636	5.918e-05	39.464	143.402	231.851	355.025	51.422	240.860	283.013	50.390	56.687	155.273	222.162	54.576	59.590	62.271	65.924	111.870	63.262	-8191	255	
1458.024	1	1	0	0	0.16631	0.17139	0.11456	0.30221	0.37065	0.13389	0.03242	0.2474	0.11692	0.34232	0.25909	0.202	0.16234	0.091952	0.12566	0.27562	-1.2104	-1.8396	-1.0167	-1.7812	-1.6042	-1.2667	-1.9875	-1.2833	-1.3167	-1.7292	-1.2437	-1.7313	-1.7062	-1.2667	-1.9167	-1.2646	171.202	183.120	308.851	125.078	317.353	47.032	286.465	352.650	343.884	106.505	40.224	220.846	396.586	74.400	294.775	325.414	0.00031174	0.00046606	0.00011875	395.96	5.2375e-06	3.6137e-06	563.48	133.17	2.9723e-06	5.4497e-06	199.04	81.96	53.769	23.716	2.838e-06	41.957	0.0032613	0.0056924	0.0016087	395.93	5.6975e-05	6.2448e-05	548.71	131.28	5.3501e-05	6.1391e-05	196.81	81.168	55.403	23.78	5.5778e-05	41.507	125.231	165.350	187.744	51.936	182.635	239.501	50.228	56.834	237.568	209.175	54.991	59.429	62.449	65.786	162.578	63.232	-8191	255	
1458.120	1	1	0	0	0.27205	0.14478	0.16651	0.23858	0.15169	0.078123	0.093978	0.076951	0.089694	0.30257	0.019662	0.29239	0.19612	0.15974	0.2929	0.22738	-0.90625	-1.9417	-1.0729	-1.3646	-1.6083	-1.1375	-2.0125	-1.4	-1.0792	-1.9813	-1.1063	-1.6104	-1.7188	-1	-1.8875	-1.7188	331.575	95.382	128.162	100.704	371.533	171.166	337.061	387.398	107.572	376.085	250.524	356.816	75.457	213.549	54.171	209.075	0.00036337	0.00076816	9.863e-05	398.43	1.8878e-06	5.7312e-06	577.77	137.84	7.0646e-06	3.66e-06	208.81	86.749	57.135	25.256	6.9661e-06	44.618	0.0030884	0.0053916	0.0014828	399.4	5.2027e-05	5.928e-05	559.59	135.91	5.0665e-05	5.6663e-05	205.87	85.67	57.813	25.142	5.1253e-05	44.069	128.945	91.465	125.420	51.386	230.039	161.261	50.625	56.998	174.197	160.406	54.754	58.791	62.364	65.878	160.149	63.276	-8191	255	
1458.216	1	1	0	0	0.11996	0.036282	0.23278	0.18031	0.071946	0.2251	0.10195	0.27041	0.27033	0.018085	0.14308	0.07426	0.12083	0.3058	0.030905	0.093663	-0.67917	-1.95	-1.0333	-1.6854	-1.9062	-0.97708	-1.6854	-1.5021	-1.0896	-1.9542	-1.2563	-1.3813	-1.9583	-1.1229	-1.6875	-1.6562	316.693	288.858	86.934	352.387	172.026	117.577	342.813	87.715	310.537	247.377	257.442	65.493	79.413	395.637	354.605	275.239	0.0003756	0.00047945	0.00011317	411.89	3.0794e-06	1.6616e-06	595.89	145.11	2.0322e-06	4.5442e-06	218.57	92.405	60.642	26.64	1.9559e-06	47.576	0.0028218	0.0049205	0.0013725	409.28	4.8217e-05	5.5079e-05	578.11	142.41	4.5937e-05	5.3546e-05	216.66	90.5	60.873	26.494	4.8314e-05	46.818	126.533	196.596	214.744	51.390	89.202	154.865	51.056	56.822	196.278	209.674	54.733	59.144	62.067	65.506	238.360	63.494	-8191	255	
1458.288	1	1	0	0	0.2561	0.20074	0.28859	0.062919	0.10448	0.10448	0.18432	0.16077	0.10033	0.21346	0.085249	0.25027	0.2086	0.096993	0.055764	0.17024	-0.61667	-1.8229	-1.1729	-1.2271	-1.6771	-1.1146	-1.8687	-1.8167	-1.1125	-1.8583	-1.3937	-1.3188	-2.0521	-1.1417	-1.3771	-1.875	288.551	310.123	320.559	328.768	212.777	197.756	214.791	43.309	310.391	311.026	147.465	44.278	356.328	82.298	279.585	146.368	0.00038416	0.00041454	0.00016285	430.04	4.1749e-07	7.3475e-06	632.85	156.68	2.7951e-06	7.1524e-06	240.81	100.47	64.503	29.265	1.0668e-05	51.206	0.0025974	0.0043689	0.001217	422.26	4.1859e-05	4.7553e-05	612.9	153.11	4.0578e-05	4.6542e-05	235	98.982	65.083	28.83	4.3809e-05	50.404	135.544	119.731	86.579	51.831	131.584	215.203	50.606	57.026	124.329	130.422	54.728	59.335	61.409	65.523	224.923	63.259	-8191	255	
1458.409	1	1	0	0	0.10884	0.026337	0.17593	0.25606	0.10779	0.26932	0.084969	0.026376	0.083979	0.035953	0.14239	0.2833	0.1669	0.17772	0.11127	0.050262	-0.66458	-1.9271	-1.4813	-1.3438	-2.0375	-1.1521	-1.5438	-1.8583	-0.83542	-1.7917	-1.4188	-1.2083	-1.7208	-1.1854	-1.3896	-1.9125	60.514	228.271	355.533	284.779	284.078	48.869	116.236	304.942	267.392	74.369	388.537	283.668	46.176	392.370	384.791	275.961	0.00037834	0.00045644	0.00014455	438.41	4.0733e-06	5.1769e-06	642.87	160.71	7.5234e-06	1.5396e-06	244.31	103.07	66.66	29.418	4.4629e-06	51.547	0.0024582	0.0042006	0.0011716	431.07	4.1041e-05	4.6833e-05	621.87	157.01	3.9979e-05	4.657e-05	239.17	100.72	66.259	29.052	4.2448e-05	50.749	128.373	105.991	111.623	51.764	185.796	190.798	50.892	56.732	216.643	239.313	54.532	59.198	62.070	65.522	183.374	63.202	-8191	255	
1458.505	1	1	0	0	0.21248	0.25742	0.099622	0.35001	0.22577	0.19203	0.28496	0.28004	0.15607	0.39319	0.33893	0.14851	0.1682	0.25602	0.1153	0.15176	-0.62292	-1.9542	-1.5146	-1.0208	-1.7771	-1.0083	-1.2917	-1.825	-0.96458	-1.8104	-1.675	-1.2229	-1.9667	-1.3792	-1.1604	-2.1792	91.158	49.545	134.593	268.135	209.776	93.687	45.897	357.895	64.282	207.060	289.505	119.383	389.304	393.594	245.873	329.807	0.00034957	0.00049927	0.00014457	444.28	3.2374e-06	1.2663e-06	648.63	165.9	4.2583e-06	1.1122e-05	253.08	105.8	67.88	30.018	9.0391e-06	53.206	0.0024266	0.0040402	0.0011477	435.51	4.0033e-05	4.5428e-05	628.77	161.13	3.9209e-05	4.5437e-05	246.56	103.64	68.206	29.523	4.3321e-05	52.143	121.472	175.613	134.523	51.343	240.845	147.593	50.574	56.785	229.352	221.429	54.901	59.040	61.944	65.589	196.082	62.971	-8191	255	
1458.599	1	1	0	0	0.19779	0.17326	0.12247	0.24758	0.1516	0.24311	0.24982	0.10332	0.19514	0.15199	0.14324	0.090673	0.20339	0.18601	0.10906	0.23644	-0.71875	-1.7042	-1.7396	-0.87708	-2.0583	-1.3583	-1.1396	-1.8646	-1.1333	-1.6583	-1.8333	-0.96875	-1.7938	-1.4958	-1.05	-2.0583	105.737	270.585	95.306	44.236	154.187	257.731	220.109	334.779	251.355	176.746	72.185	251.664	292.765	237.892	169.444	337.244	0.00041721	0.00033003	0.00014375	446.8	7.6821e-06	4.7038e-06	665.83	167.82	5.6103e-06	7.8398e-06	255.54	107.32	69.087	30.092	6.5573e-06	53.668	0.0024236	0.0040156	0.0011078	439.73	3.9663e-05	4.5124e-05	641.45	163.48	3.8663e-05	4.4948e-05	250.66	105.26	68.843	29.596	4.2055e-05	52.498	129.605	137.908	147.183	52.065	165.548	176.527	50.620	56.871	214.195	132.184	55.011	59.395	62.076	65.560	172.230	63.303	-8191	255	
1458.697	1	1	0	0	0.22121	0.052332	0.14563	0.073112	0.1925	0.10355	0.20958	0.21976	0.038871	0.23445	0.048528	0.15816	0.25494	0.23836	0.21558	0.26476	-0.74375	-1.3813	-1.7437	-0.94792	-1.9167	-1.4229	-1.2458	-2.0312	-1.2979	-1.5167	-2.0167	-0.90833	-1.7479	-1.6333	-1.1938	-2.0958	197.740	90.429	172.292	349.560	287.915	240.983	363.179	373.158	294.785	241.856	180.016	372.923	379.234	301.293	222.574	333.543	0.00044405	0.00014494	8.9652e-05	450.36	6.0127e-06	1.285e-05	662.86	168.8	4.2822e-06	9.6515e-06	256.71	107.01	68.384	29.494	2.2e-06	52.775	0.0024437	0.0040768	0.0011572	440.59	4.1049e-05	4.7234e-05	644.5	164.46	4.0027e-05	4.7013e-05	251.38	105.09	68.467	29.042	4.2124e-05	51.736	130.620	86.124	197.855	51.554	132.760	128.406	50.777	56.667	174.983	220.843	55.109	59.248	62.260	65.481	276.890	63.566	-8191	255	
1458.816	1	1	0	0	0.0976	0.082022	0.19475	0.097147	0.10632	0.10186	0.19759	0.33525	0.18178	0.11139	0.26533	0.19724	0.43168	0.1387	0.058627	0.18084	-0.88125	-1.3458	-1.9146	-1.1771	-1.5958	-1.65	-1.1313	-1.7896	-1.3979	-1.0958	-1.9312	-1.1625	-1.7042	-1.6146	-1.0854	-1.9583	192.600	215.605	125.877	354.296	135.673	306.703	320.799	321.239	307.997	308.707	382.361	274.137	209.452	63.707	91.008	375.459	0.00041234	0.00067802	0.00015955	448.86	1.9513e-06	6.1521e-06	662.94	166.97	1.8678e-06	1.2221e-06	253.03	105.4	67.547	29.048	1.3259e-06	51.859	0.0024034	0.0040351	0.0011111	440.61	3.9464e-05	4.4387e-05	639.04	162.72	3.8495e-05	4.3223e-05	247.05	103.12	67.466	28.535	3.994e-05	50.803	141.489	68.526	168.198	51.865	242.033	193.888	50.841	56.711	162.587	329.830	54.852	59.434	62.531	65.787	323.382	63.488	-8191	255	
1458.912	1	1	0	0	0.20023	0.32442	0.25354	0.23878	0.12638	0.2626	0.052676	0.25852	0.025686	0.081407	0.18698	0.20919	0.25098	0.42699	0.1796	0.19877	-1.0979	-1.075	-1.9208	-1.2167	-1.4688	-1.8625	-1.025	-1.9188	-1.4792	-1.1292	-2.2167	-0.9625	-1.3708	-1.7271	-0.94583	-1.8125	307.142	201.534	193.818	374.374	76.858	162.560	302.267	338.344	240.249	235.165	131.252	255.301	285.246	336.901	155.090	263.348	0.00041835	0.00050229	5.5156e-05	449.17	3.8886e-06	1.8097e-06	654.32	166.14	4.4754e-06	8.2619e-06	250.62	104.61	66.929	28.633	8.8856e-06	50.782	0.002336	0.0038624	0.0011001	437.86	3.9223e-05	4.3767e-05	632.45	161.82	3.8534e-05	4.458e-05	245.3	102.63	66.92	28.318	4.0855e-05	50.308	128.050	127.697	60.442	51.261	197.459	180.865	50.534	56.757	222.495	293.819	54.853	58.945	62.166	65.739	176.339	63.693	-8191	255	
1459.008	1	1	0	0	0.032081	0.45564	0.21315	0.22054	0.13564	0.24522	0.15378	0.27383	0.022182	0.27235	0.050979	0.20585	0.32338	0.26395	0.1306	0.070565	-1.0833	-0.95625	-1.9104	-1.0917	-1.4208	-1.8438	-0.975	-1.9625	-1.5438	-1.1375	-1.9625	-1.4292	-1.4375	-1.925	-0.69792	-1.7979	139.723	186.034	237.659	379.547	314.140	333.194	187.702	334.532	355.778	206.053	266.106	393.598	66.359	70.719	311.297	148.450	0.00036986	0.00024285	0.00014347	443.72	5.5005e-06	9.4126e-06	656.91	166.04	6.3897e-06	3.2248e-06	253.91	105.36	66.938	28.499	7.5492e-06	51.193	0.0023241	0.0039201	0.0010911	437	3.9805e-05	4.5185e-05	634.31	161.44	3.8851e-05	4.4637e-05	248.34	103.11	67.041	28.195	4.1593e-05	50.537	136.321	101.137	172.016	51.762	122.478	246.215	50.703	57.119	210.364	255.487	55.021	59.459	62.581	65.662	173.746	63.540	-8191	255	
1459.104	1	1	0	0	0.17531	0.16515	0.28847	0.14474	0.096408	0.16438	0.33726	0.35679	0.23298	0.18344	0.28698	0.047449	0.12087	0.10624	0.15514	0.022956	-1.1854	-1.1313	-1.8354	-1.3146	-1.3729	-1.9937	-1.05	-1.7563	-1.6875	-1.1021	-2.0875	-1.4854	-1.2188	-1.9625	-1.1167	-1.5	60.374	358.838	267.980	42.945	296.215	195.016	294.827	328.229	92.690	116.731	172.288	317.888	275.904	210.821	287.546	300.806	0.00043089	0.00011355	0.00011668	450.86	1.1171e-06	5.8279e-07	660.11	166.31	3.5075e-06	5.6781e-06	251.75	103.98	65.767	27.769	9.2234e-07	49.761	0.0023815	0.0040673	0.0011491	441.29	4.2162e-05	4.6932e-05	638.14	162.19	4.0277e-05	4.6954e-05	247.27	101.74	66.103	27.413	4.3752e-05	49.04	124.873	355.170	154.902	51.315	255.679	245.508	50.967	57.113	259.679	137.872	54.812	59.316	62.335	65.692	155.848	63.526	-8191	255	
1459.200	1	1	0	0	0.13355	0.23542	0.14629	0.16464	0.3297	0.15921	0.052236	0.086463	0.22742	0.2834	0.14462	0.13865	0.25247	0.057427	0.061779	0.11765	-1.2417	-1.0187	-1.9688	-1.5271	-1.175	-1.9667	-1.4292	-1.5771	-1.7708	-1.1	-1.8458	-1.5604	-1.175	-2.1521	-1.1979	-1.5812	80.065	256.526	289.247	312.850	66.409	267.911	394.069	380.005	340.765	90.593	279.799	385.542	45.225	152.425	185.928	40.877	0.00033673	0.00056064	0.00016653	452.41	5.0843e-06	4.5913e-06	652.61	163.53	6.7749e-06	1.0836e-06	246.02	100.82	63.626	26.464	4.4446e-06	48.168	0.0024278	0.0041931	0.0011722	442.89	4.1289e-05	4.7207e-05	631.15	159.62	4.13e-05	4.8416e-05	240.81	98.465	64.262	26.308	4.4649e-05	47.225	126.816	264.412	131.937	51.720	203.277	195.607	50.925	57.013	219.776	203.508	55.016	59.142	62.127	65.696	189.348	63.361	-8191	255	
1459.297	1	1	0	0	0.17309	0.13787	0.25487	0.15914	0.20661	0.090316	0.16403	0.1346	0.1351	0.12934	0.096973	0.12867	0.25703	0.075701	0.078408	0.066163	-1.4604	-1.0479	-1.7042	-1.7062	-1.1437	-2.0125	-1.4958	-1.4833	-1.8792	-0.90833	-1.8583	-1.7458	-1.0438	-2	-1.4458	-1.5083	300.059	184.505	114.498	162.773	353.170	285.964	63.142	278.751	67.591	258.615	289.361	173.903	398.116	392.698	116.327	211.360	0.00038208	0.00050762	0.00011999	447.52	5.2087e-06	2.7501e-06	648.83	162.94	2.1009e-06	3.739e-06	246.14	99.95	63.146	25.968	3.7759e-06	47.63	0.0025217	0.0043906	0.0012335	437.7	4.3459e-05	4.9662e-05	627.61	159.16	4.4098e-05	5.1615e-05	240.82	98.109	64.013	25.822	4.9063e-05	46.773	129.566	174.611	126.015	51.988	181.058	202.330	50.809	56.894	205.571	126.774	55.458	59.234	61.964	66.021	166.887	63.842	-8191	255	
1459.417	1	1	0	0	0.23532	0.16321	0.14047	0.094555	0.21005	0.098364	0.23346	0.38464	0.13578	0.26178	0.18103	0.41745	0.28991	0.14143	0.25231	0.37713	-1.5104	-0.97708	-1.4229	-1.7625	-0.89583	-1.9271	-1.3833	-1.2583	-1.8813	-1.1917	-1.5667	-1.725	-1.0146	-1.8104	-1.3771	-1.2604	183.405	367.388	319.293	198.761	212.960	363.246	322.168	395.635	398.260	199.034	357.524	371.239	81.128	62.562	57.718	366.284	0.00040181	0.00038619	5.838e-05	448.9	4.0012e-06	4.2305e-06	654.2	163.37	4.0569e-06	3.9374e-06	246.8	99.614	64.017	25.673	6.9177e-06	47.406	0.0026964	0.0047725	0.0013556	441.07	4.7889e-05	5.3029e-05	632.63	160.06	4.5061e-05	5.3068e-05	242.91	98.06	64.324	25.562	4.8882e-05	46.486	127.707	162.815	64.883	51.785	135.693	267.032	50.554	56.930	196.279	212.443	55.369	59.437	61.927	65.853	216.806	63.686	-8191	255	
1459.512	1	1	0	0	0.097369	0.10183	0.13409	0.35225	0.059472	0.12736	0.12154	0.20043	0.21295	0.17266	0.049523	0.15814	0.32415	0.16268	0.069559	0.20573	-1.5667	-1.1542	-1.5583	-1.8646	-0.96042	-1.9229	-1.6292	-1.1542	-1.9604	-1.2229	-1.5938	-1.9125	-1.2604	-1.5979	-1.7521	-1.2396	102.598	127.915	149.867	351.127	378.785	169.836	283.405	89.431	290.820	140.853	361.535	261.153	384.378	58.665	47.207	358.305	0.00044083	0.00082203	0.00010689	457.71	3.9053e-06	4.3228e-06	659.66	164.21	8.9014e-07	4.1402e-06	249.03	100.72	63.391	25.66	4.5988e-06	46.762	0.0026874	0.0045814	0.0012995	446.81	4.5559e-05	5.0894e-05	640.46	160.34	4.4215e-05	5.1557e-05	244.81	99.099	64.234	25.425	4.7566e-05	46.045	139.687	59.519	177.940	51.997	233.457	101.193	50.774	57.172	278.010	289.897	54.873	59.451	62.369	65.873	264.996	63.660	-8191	255	
1459.585	1	1	0	0	0.11443	0.14829	0.13175	0.14662	0.15816	0.28983	0.087328	0.094035	0.021684	0.30711	0.10528	0.040116	0.07952	0.27823	0.084839	0.28483	-1.5812	-1.2375	-1.3896	-1.8917	-1.1812	-1.8146	-1.7271	-1.2938	-1.8625	-1.3479	-1.4542	-1.9312	-1.0958	-1.6854	-1.9083	-1.2104	225.547	236.546	230.676	167.827	311.059	198.065	317.746	377.153	247.410	141.026	362.920	306.326	133.318	60.335	193.168	347.517	0.00041611	0.00061682	0.00015994	453.05	2.5648e-06	6.5849e-06	656.99	163.09	8.6098e-07	5.3633e-06	247.66	98.835	62.95	24.802	2.5509e-06	45.607	0.0026399	0.0044316	0.0012822	445.07	4.4899e-05	4.9993e-05	634.58	159.57	4.291e-05	4.9662e-05	242.29	97.067	63.533	24.735	4.5449e-05	45.032	134.487	39.287	84.250	51.980	84.351	240.549	50.677	56.580	159.708	170.380	54.966	59.413	61.788	65.638	207.119	63.856	-8191	255	
1459.704	1	1	0	0	0.23417	0.075009	0.078135	0.15754	0.080328	0.1254	0.021521	0.083224	0.21729	0.083677	0.17014	0.39043	0.40949	0.16444	0.18756	0.17807	-1.3937	-1.3146	-1.2396	-2.1625	-1.0396	-1.7042	-1.9833	-1.1125	-2.0854	-1.4521	-1.375	-2.0292	-1.3438	-1.7542	-1.8042	-0.99792	336.149	304.592	141.594	279.090	243.757	97.535	284.732	343.347	372.251	73.918	206.869	367.132	222.521	60.901	59.542	359.473	0.00041469	0.00071834	0.00016821	455.18	4.04e-06	5.8004e-06	653.57	162.46	4.0882e-06	4.1524e-06	248.11	98.493	62.428	24.61	5.1806e-06	44.699	0.0025251	0.0043563	0.0012171	445.67	4.4137e-05	4.9859e-05	634.15	159.3	4.2849e-05	5.02e-05	242.24	97.044	63.049	24.464	4.709e-05	44.325	137.653	112.306	98.636	51.363	229.781	156.384	50.866	56.717	172.136	296.703	54.844	59.142	62.231	66.325	149.712	63.490	-8191	255	
1459.800	1	1	0	0	0.096522	0.25963	0.25831	0.081579	0.26128	0.23192	0.23238	0.16811	0.10532	0.095315	0.18144	0.26857	0.040431	0.20093	0.31486	0.076978	-1.5521	-1.4792	-1.075	-2.1875	-1.3354	-1.6021	-1.9208	-1.0667	-1.7375	-1.5104	-1.3458	-1.9042	-1.3042	-1.3479	-1.8625	-1.2167	320.026	195.512	316.148	381.784	158.431	276.245	393.857	134.946	100.612	362.262	320.462	336.330	256.315	382.679	62.866	360.243	0.00036987	0.00079378	4.076e-05	455.41	4.4954e-06	2.8644e-06	654.07	161.11	9.0817e-06	1.0309e-05	247.28	98.143	61.9	23.997	6.6906e-06	44.923	0.0025878	0.0044102	0.0012229	446.97	4.397e-05	5.0587e-05	636.31	158.67	4.3393e-05	5.3146e-05	242.17	96.314	62.87	24.093	5.0645e-05	44.071	145.210	82.008	236.422	51.630	179.463	194.632	50.837	56.557	202.660	158.394	54.466	59.006	61.986	65.544	102.864	63.585	-8191	255	
1459.896	1	1	0	0	0.14977	0.093236	0.30526	0.066883	0.13637	0.096652	0.10285	0.25992	0.077231	0.053805	0.11467	0.16721	0.096195	0.045472	0.25174	0.23163	-1.4646	-1.5375	-1.1458	-2.1	-1.3104	-1.2958	-2.1083	-1.225	-1.5771	-1.8813	-1.0021	-1.9104	-1.2437	-1.1625	-2.0021	-1.0771	281.861	187.088	67.110	53.676	374.335	260.913	382.242	61.988	178.059	326.453	56.322	38.321	350.305	241.717	109.436	279.297	0.00036241	0.0007964	0.00010697	454.94	3.6941e-06	5.0105e-06	662.24	161.03	3.8462e-06	2.006e-06	245.86	97.507	61.483	23.923	3.1519e-06	44.219	0.0028168	0.0049846	0.0013826	449.32	4.9866e-05	5.5989e-05	642.26	158.42	4.7443e-05	5.5063e-05	242.07	96.005	62.447	23.995	4.9732e-05	43.81	140.323	102.928	241.403	51.139	143.056	160.534	50.577	56.251	150.873	196.350	54.479	59.122	61.930	65.617	207.890	63.245	-8191	255	
1459.992	1	1	0	0	0.1337	0.31149	0.25635	0.2258	0.2969	0.1274	0.2371	0.064592	0.15807	0.20135	0.23777	0.13896	0.15078	0.17331	0.25424	0.23138	-1.0938	-1.7708	-0.92917	-1.9083	-1.6812	-1.1583	-2.1188	-1.4542	-1.6208	-1.9417	-1.1771	-1.8188	-1.5542	-1.3854	-2.1104	-1.4146	96.372	233.913	46.221	82.827	334.305	87.052	261.823	261.613	41.496	368.911	342.182	134.019	396.239	384.634	230.957	157.999	0.00034694	0.00050507	0.00026844	456.42	2.3387e-06	4.1737e-06	649.8	160.4	2.1384e-06	1.2812e-06	243.95	95.865	60.782	23.52	5.069e-06	43.392	0.0027425	0.0046946	0.001348	448.69	4.6658e-05	5.2679e-05	633.99	157.74	4.5345e-05	5.0893e-05	239.39	94.961	61.681	23.59	4.7391e-05	42.966	140.210	83.811	129.008	51.602	230.579	165.549	50.260	56.708	246.652	114.338	54.429	59.275	61.919	65.634	187.298	63.065	-8191	255	
1460.113	1	1	0	0	0.1485	0.39465	0.12794	0.11332	0.055401	0.073854	0.079244	0.088129	0.059858	0.11546	0.36046	0.042213	0.078833	0.30466	0.13484	0.064018	-1.1875	-1.8792	-1.1042	-1.9146	-1.6708	-1.1437	-1.9604	-1.4333	-1.3646	-1.9833	-0.96667	-1.7208	-1.8792	-1.3396	-2.1479	-1.4854	173.874	346.449	130.338	350.255	141.285	268.547	97.587	353.055	60.314	328.247	45.782	89.919	295.009	382.523	83.861	186.789	0.00035584	0.00056966	9.0139e-05	456.02	6.242e-06	1.1977e-06	651.69	159.69	6.6609e-06	2.5277e-06	243.89	96.954	62.469	23.436	9.9304e-06	43.925	0.0026036	0.0044131	0.0012708	446.57	4.3803e-05	4.9967e-05	632.69	156.52	4.2836e-05	4.8979e-05	239.83	95.193	62.07	23.378	4.3406e-05	43.034	125.451	145.683	58.822	51.658	145.117	214.474	50.496	56.742	190.960	240.431	54.558	59.214	62.027	66.038	147.330	63.532	-8191	255	
1460.209	1	1	0	0	0.11305	0.25702	0.038369	0.27703	0.287	0.13359	0.22088	0.35715	0.02682	0.1816	0.22514	0.32787	0.11922	0.086106	0.23237	0.11635	-0.96042	-2.05	-1.0708	-1.7062	-1.7854	-1.0438	-1.9688	-1.475	-1.2625	-1.7896	-1.2542	-1.5833	-1.6938	-1.0312	-1.9583	-1.7042	171.586	75.003	273.848	365.150	327.271	373.524	333.325	40.068	278.758	365.856	339.736	54.091	194.027	328.310	330.245	235.047	0.0003449	0.00028566	0.00014361	456.07	3.6997e-06	5.8121e-06	659.12	161.84	8.5764e-07	4.878e-06	247.13	97.831	61.795	23.312	7.0446e-06	43.818	0.0024619	0.0041388	0.0011875	447.93	4.211e-05	4.8339e-05	638.13	157.94	4.2183e-05	4.8208e-05	241.48	95.746	61.967	23.231	4.562e-05	42.967	142.571	171.064	95.302	51.461	221.426	114.887	50.618	56.884	172.363	188.515	54.777	59.344	61.609	65.735	166.094	63.389	-8191	255	
1460.281	1	1	0	0	0.11817	0.16906	0.15484	0.13167	0.37107	0.081152	0.43778	0.26088	0.21011	0.09468	0.21987	0.023989	0.24621	0.10674	0.40265	0.15779	-0.87708	-2.0354	-1.1479	-1.5312	-1.7792	-0.99583	-2.0354	-1.6042	-1.0729	-2.0792	-1.2062	-1.4458	-1.9813	-1.1958	-1.7375	-1.8958	213.617	273.082	286.415	380.836	47.318	253.989	332.436	290.352	121.267	39.548	52.017	260.228	316.147	318.139	99.650	48.205	0.00036246	0.0002067	8.4717e-05	461.21	3.4023e-06	7.8228e-06	664.29	162.99	3.8557e-06	2.7525e-06	247.4	97.476	61.181	23.155	5.9785e-06	43.212	0.0025031	0.0043032	0.0012334	452.52	4.3275e-05	4.9188e-05	642.63	158.82	4.132e-05	4.692e-05	242.04	95.917	61.511	23.016	4.2665e-05	42.468	137.062	324.775	163.098	51.735	190.130	346.399	50.523	56.663	192.570	285.470	54.874	59.048	61.260	65.531	169.799	63.256	-8191	255	
1460.377	1	1	0	0	0.15567	0.20805	0.17223	0.29569	0.14889	0.36246	0.055849	0.1748	0.12818	0.14788	0.22249	0.45613	0.16119	0.26253	0.19658	0.1938	-0.75625	-1.9667	-1.2812	-1.3583	-1.8875	-1.1271	-1.9896	-1.6708	-1.0104	-1.9167	-1.4438	-1.5771	-2.0729	-1.0187	-1.7042	-1.7958	273.474	392.887	283.372	69.226	194.755	288.506	387.836	294.210	175.448	353.743	74.766	378.496	394.319	74.087	100.529	259.739	0.00035224	0.00039728	9.2483e-06	457.8	2.649e-06	2.6133e-06	652.66	161.45	1.4322e-06	5.8923e-06	245.66	97.693	62.063	23.26	3.5512e-06	43.117	0.0023977	0.003943	0.0011131	450.66	3.8483e-05	4.4101e-05	634.33	158	3.8316e-05	4.2726e-05	240.08	95.491	61.729	23.028	3.9384e-05	42.557	142.073	71.109	370.519	52.045	182.264	209.855	50.501	56.651	397.477	111.076	54.976	58.929	61.652	66.155	151.271	63.604	-8191	255	
1460.496	1	1	0	0	0.1723	0.13783	0.052887	0.3177	0.10588	0.17198	0.095671	0.14103	0.24633	0.044879	0.26869	0.31392	0.25549	0.19878	0.17859	0.3496	-0.67708	-1.9021	-1.4479	-1.0292	-1.8542	-1.1979	-1.625	-1.9521	-1.0875	-1.7021	-1.5854	-1.2521	-2.0375	-1.1229	-1.4604	-1.9937	304.765	95.354	391.908	281.929	327.549	390.405	396.306	349.992	54.408	321.190	323.606	346.471	95.589	95.616	151.300	282.806	0.0003199	0.00046885	7.9017e-05	459.61	3.3394e-06	4.2851e-06	657.87	161.04	3.486e-06	7.5196e-06	244.82	96.322	61.281	23.022	1.9193e-06	42.956	0.0022371	0.0038088	0.0010933	448.87	3.9423e-05	4.4795e-05	633.46	156.96	3.921e-05	4.5268e-05	239.36	94.758	61.431	22.847	4.3182e-05	42.502	149.957	277.154	46.755	51.499	191.699	221.183	50.582	56.659	167.725	239.507	54.912	58.866	61.882	65.912	191.527	64.139	-8191	255	
1460.592	1	1	0	0	0.302	0.16365	0.11907	0.41853	0.2374	0.2585	0.26688	0.056532	0.14825	0.23226	0.26918	0.20935	0.054027	0.19238	0.051851	0.091508	-0.72708	-1.8	-1.5583	-1.2083	-1.9937	-0.96875	-1.4312	-1.8188	-0.99583	-1.6583	-1.8937	-1.2521	-2.1208	-1.2208	-1.3792	-1.9875	52.097	273.127	43.435	343.677	314.027	50.105	310.903	188.841	239.153	398.355	389.480	371.640	329.748	308.743	55.189	111.493	0.00038471	0.00018583	0.00014244	463.79	4.1683e-06	5.2863e-06	661.2	162.16	2.3467e-06	3.6552e-06	246.03	98.124	62.102	23.266	4.9902e-06	43.428	0.0023982	0.004162	0.0011876	451.37	4.1546e-05	4.7014e-05	639.62	158.49	3.995e-05	4.6589e-05	242.16	96.364	62.121	23.145	4.2392e-05	43.075	131.123	179.815	170.552	51.719	172.888	206.062	50.596	56.715	390.149	136.847	54.763	59.483	62.088	65.611	177.564	63.554	-8191	255	
1460.690	1	1	0	0	0.20785	0.089252	0.18367	0.10931	0.27306	0.11375	0.34583	0.091181	0.22226	0.33421	0.32852	0.082498	0.13614	0.34655	0.35558	0.050109	-0.67083	-1.5708	-1.5271	-1.0125	-1.9917	-1.3104	-1.425	-2.0708	-1.0688	-1.6896	-1.7729	-1.2396	-1.8854	-1.3875	-1.3667	-2.1646	110.928	259.787	147.004	47.166	178.915	394.213	308.362	112.949	306.481	378.305	67.486	166.200	72.064	81.643	71.231	236.934	0.00040815	0.00043121	8.922e-05	464.69	5.699e-06	1.8793e-06	660.54	163.45	5.6431e-06	8.9365e-06	248.73	97.825	61.562	22.87	6.1258e-06	43.161	0.0023951	0.004058	0.0011513	454.32	3.9995e-05	4.602e-05	644.85	159.06	3.8936e-05	4.4038e-05	242.59	96.277	61.684	22.768	4.052e-05	42.228	139.570	43.700	76.362	51.790	150.357	209.263	50.567	56.680	189.499	255.888	54.541	59.386	62.375	65.663	203.521	63.920	-8191	255	
1460.809	1	1	0	0	0.12525	0.28714	0.22915	0.071332	0.27176	0.16517	0.40871	0.26895	0.20269	0.13189	0.093603	0.35439	0.067135	0.30905	0.20987	0.21061	-0.71458	-1.6562	-1.7083	-1.0792	-1.8146	-1.375	-1.1437	-1.9271	-1.2354	-1.6063	-1.9146	-1.1667	-1.8958	-1.4875	-1.1313	-2.0104	373.636	278.650	245.126	354.704	326.132	109.480	308.233	331.692	284.927	244.501	305.341	376.205	80.105	262.080	92.148	323.428	0.00035168	0.00063678	0.00018444	467.49	3.4188e-06	6.7187e-06	658.69	162.31	3.1997e-06	6.7214e-06	245.07	96.441	60.225	22.175	3.7659e-06	41.852	0.0022634	0.0038284	0.0010833	453.66	3.8424e-05	4.3215e-05	636.4	157.61	3.7265e-05	4.2907e-05	238.66	94.385	60.553	22.112	4.0022e-05	41.216	123.106	104.507	151.226	51.978	179.994	258.868	50.740	56.890	238.227	187.345	54.964	59.351	61.848	66.002	151.505	63.917	-8191	255	
1460.880	1	1	0	0	0.23317	0.15749	0.11198	0.33698	0.063264	0.0351	0.099019	0.17932	0.23363	0.12904	0.051896	0.35092	0.1244	0.062707	0.071369	0.29965	-1.0042	-1.3583	-1.8896	-1.1271	-1.6854	-1.6917	-1.2958	-2.0021	-1.2188	-1.4312	-2.0146	-1.3354	-1.5917	-1.6667	-1.0271	-2.125	176.331	39.147	215.811	128.914	320.133	206.227	367.652	370.838	110.073	227.135	54.582	267.324	258.866	72.025	238.048	293.393	0.00031601	0.00033174	0.00012731	459.07	6.0678e-06	6.4233e-06	652.38	159.75	1.9975e-06	4.4749e-06	241.05	95.57	60.377	22.124	4.4266e-06	41.531	0.0022725	0.0037874	0.0010839	450.25	3.7963e-05	4.3491e-05	630.74	155.87	3.8011e-05	4.412e-05	236.77	93.492	60.424	21.923	4.0376e-05	40.957	130.216	243.396	166.216	52.143	178.504	196.658	50.238	56.502	179.614	189.186	55.043	59.090	62.577	65.841	243.931	64.021	-8191	255	
1460.977	1	1	0	0	0.11363	0.09344	0.20911	0.085338	0.23384	0.44161	0.23069	0.28313	0.28654	0.061698	0.20268	0.20547	0.12121	0.34026	0.23168	0.32038	-0.95833	-1.15	-2.0479	-1.0979	-1.8125	-1.8875	-1.1146	-2.0062	-1.5292	-1.2563	-1.8917	-1.15	-1.6354	-1.7	-0.92917	-2.05	381.333	304.611	303.044	128.842	86.393	70.621	250.039	377.403	203.808	300.716	346.292	313.719	374.966	305.849	118.287	360.346	0.00025317	0.00072023	0.00014675	462.73	1.8327e-06	5.4639e-06	656.98	159.69	5.0862e-06	7.8519e-06	244.07	96.318	60.919	21.889	2.3658e-06	42.388	0.0022472	0.0038972	0.0011075	452.81	3.8348e-05	4.4668e-05	634.24	155.82	3.7462e-05	4.3591e-05	238.86	93.99	60.679	21.849	3.9705e-05	41.381	127.334	145.789	142.634	51.814	156.809	220.068	50.727	57.068	142.935	153.183	54.771	59.426	61.944	66.404	207.172	64.016	-8191	255	
1461.097	1	1	0	0	0.14186	0.12257	0.25448	0.10097	0.165	0.32402	0.27264	0.1098	0.16881	0.13931	0.24273	0.1462	0.33854	0.20878	0.019081	0.12062	-0.83542	-1.0562	-1.9875	-1.15	-1.5479	-1.7687	-0.96875	-1.8188	-1.35	-1.1917	-2.0458	-1.4813	-1.3813	-1.7146	-1.1521	-1.8354	387.303	171.480	265.097	73.789	231.878	279.097	337.635	263.530	64.138	120.190	393.575	126.951	60.050	293.545	208.522	292.228	0.00030462	0.00055733	0.00019075	469.3	2.3296e-06	3.3113e-06	659.52	160.92	6.027e-06	3.7698e-06	245.02	96.666	61.166	22.092	4.9099e-06	42.033	0.0022203	0.0037803	0.0010668	455.99	3.7713e-05	4.2517e-05	639.34	156.85	3.5021e-05	4.1912e-05	239.63	94.499	60.869	21.92	3.6862e-05	41.399	129.732	157.891	102.983	50.998	197.425	244.713	50.666	57.080	173.111	200.772	54.258	59.506	61.863	65.903	329.421	64.005	-8191	255	
1461.193	1	1	0	0	0.16186	0.2255	0.30895	0.16385	0.037294	0.20487	0.37858	0.2938	0.19874	0.22517	0.19685	0.23616	0.033263	0.14204	0.1747	0.42064	-1.4667	-0.8875	-1.9104	-1.1458	-1.3042	-1.8458	-1.1187	-1.75	-1.7479	-1.075	-1.9771	-1.3937	-1.4062	-2.0917	-0.98542	-1.8188	172.075	152.635	323.204	47.935	229.587	379.088	301.420	385.579	135.455	187.879	311.348	396.711	340.500	199.863	356.221	274.011	0.00035162	0.00034589	8.9294e-05	467.22	1.7371e-06	4.9566e-06	653.39	160.75	2.6443e-06	3.1405e-06	244.66	96.196	60.717	21.951	4.9256e-06	41.851	0.0020986	0.0034804	0.00097906	454.02	3.51e-05	3.9079e-05	632.9	156.11	3.3504e-05	3.9978e-05	237.35	94.05	60.281	21.819	3.7294e-05	40.913	138.110	119.696	218.214	51.435	165.917	239.867	50.686	56.386	205.782	173.138	55.012	59.186	61.994	66.256	230.896	63.926	-8191	255	
1461.290	1	1	0	0	0.13154	0.15263	0.15644	0.21397	0.090705	0.084908	0.11593	0.18843	0.17371	0.087197	0.04377	0.15058	0.10098	0.10342	0.24303	0.15179	-1.2188	-1.0125	-1.8583	-1.3729	-1.1938	-1.9479	-1.2417	-1.5417	-1.6833	-1.025	-1.9708	-1.4083	-0.95	-1.9792	-1.0479	-1.6208	301.519	137.726	147.087	309.479	285.468	394.438	230.075	82.437	97.225	235.385	375.274	196.697	81.477	350.698	166.091	295.015	0.0003729	0.00026728	0.00010005	465.52	5.6774e-06	3.6802e-06	657.39	160.4	4.1859e-06	2.9586e-06	245.69	96.397	60.788	22.066	4.9739e-06	41.684	0.0021214	0.0035776	0.0010009	452.98	3.5242e-05	3.9701e-05	631.76	155.75	3.4759e-05	4.0676e-05	238.01	94.274	60.553	21.91	3.7067e-05	41.089	129.540	121.710	104.098	51.544	232.421	126.623	50.797	56.737	165.877	237.263	54.800	59.068	61.538	65.776	172.419	63.871	-8191	255	
1461.410	1	1	0	0	0.12055	0.065312	0.26967	0.10543	0.1048	0.22622	0.52388	0.29871	0.16232	0.13073	0.19768	0.22095	0.076869	0.24613	0.088876	0.087381	-1.4062	-0.96042	-1.7875	-1.6021	-1.0208	-1.9667	-1.3687	-1.3833	-1.9958	-1.0104	-1.8687	-1.8229	-1.1729	-1.7792	-1.1562	-1.5833	398.877	140.779	371.414	109.965	131.457	213.410	323.120	298.612	234.122	268.345	359.893	377.004	91.440	380.024	286.428	221.590	0.00036692	0.00055485	0.00011941	466.36	5.5915e-06	1.2318e-06	661.93	161.21	3.2433e-06	7.7441e-06	244.37	96.679	60.782	22.083	4.3969e-06	41.809	0.0020902	0.0036058	0.0010172	454.47	3.6608e-05	4.1162e-05	637.25	156.85	3.6043e-05	4.0699e-05	239.25	94.873	60.845	21.838	3.8151e-05	41.296	136.970	145.714	380.332	51.784	204.197	347.149	50.824	56.910	236.623	165.147	55.122	59.532	61.909	66.164	208.914	63.746	-8191	255	
1461.482	1	1	0	0	0.28325	0.21285	0.17846	0.18488	0.038027	0.30772	0.24026	0.088205	0.3146	0.049228	0.26989	0.23099	0.25099	0.13288	0.043336	0.25327	-1.5812	-1.0958	-1.625	-1.8271	-0.96458	-2.0167	-1.4458	-1.2375	-1.8937	-1.0417	-1.6938	-1.7604	-0.96042	-1.9396	-1.4438	-1.4188	76.014	55.208	267.783	368.799	367.450	124.405	281.211	355.718	355.365	170.742	275.173	247.352	260.514	104.322	193.831	47.219	0.00036735	0.00057193	0.00024455	466.49	2.7457e-06	7.4432e-06	664.02	161.85	5.5997e-06	2.7795e-06	245.43	96.361	60.393	21.643	4.5353e-06	41.615	0.0021612	0.0037013	0.0010459	455.21	3.6697e-05	4.2003e-05	639.82	157	3.5307e-05	4.1601e-05	239.36	94.449	60.626	21.564	3.7077e-05	40.666	135.724	138.146	128.234	51.331	103.709	178.734	50.834	57.095	203.885	232.255	54.961	59.187	61.977	65.984	158.987	63.743	-8191	255	
1461.578	1	1	0	0	0.38623	0.045914	0.23458	0.15108	0.079406	0.35706	0.1791	0.40021	0.24714	0.096772	0.22182	0.052036	0.085637	0.18677	0.078615	0.088351	-1.6	-1.0063	-1.4792	-1.75	-1.1104	-1.9604	-1.5667	-1.1979	-1.9271	-1.2292	-1.5604	-2.0021	-1.0604	-1.825	-1.5271	-1.075	347.174	362.220	73.703	347.249	354.857	318.399	252.233	287.895	328.954	367.369	277.382	390.741	284.755	261.680	207.143	288.524	0.00038191	0.00027389	6.0967e-05	470.92	4.1831e-06	5.547e-06	655.41	159.36	6.085e-06	3.0348e-06	242.02	95.343	59.973	21.596	7.7904e-06	40.907	0.0020984	0.0034944	0.00098155	455.89	3.5668e-05	3.8934e-05	631.62	155.31	3.3568e-05	3.8935e-05	235.76	93.057	60.034	21.227	3.5823e-05	40.079	132.489	162.689	165.682	51.666	210.033	192.631	50.228	56.843	208.523	189.884	54.664	58.821	61.650	65.831	205.746	63.580	-8191	255	
1461.672	1	1	0	0	0.028432	0.23075	0.11098	0.32532	0.37908	0.16781	0.38303	0.10759	0.24676	0.071504	0.25999	0.089591	0.16048	0.11317	0.10785	0.22667	-1.4521	-0.94375	-1.525	-1.9708	-0.94792	-1.6396	-1.7563	-0.95833	-1.9271	-1.2958	-1.4667	-2.0667	-1.0375	-1.6479	-1.6187	-0.98333	230.508	103.491	122.397	278.371	382.564	235.275	39.326	65.840	234.930	102.508	369.202	284.761	362.897	315.242	217.298	239.777	0.00030391	0.00055524	0.00017892	467.71	4.737e-06	2.4883e-06	658.7	158.65	4.2627e-06	1.8501e-06	241.33	95.492	59.913	21.226	3.8801e-06	40.546	0.0020236	0.0034327	0.00099187	454.81	3.4176e-05	3.8787e-05	630.94	154.66	3.3349e-05	3.9473e-05	235.63	93.333	59.934	21.036	3.6967e-05	39.825	123.999	102.560	115.199	51.243	174.385	394.046	50.651	57.101	133.068	201.200	55.289	59.356	61.779	66.485	255.372	63.455	-8191	255	
1461.770	1	1	0	0	0.24492	0.27719	0.20751	0.31281	0.2584	0.25808	0.59082	0.19679	0.085466	0.056987	0.078429	0.17816	0.18741	0.087472	0.12266	0.066874	-1.4979	-1.1083	-1.4625	-1.8937	-1.0375	-1.5271	-1.9104	-1.1833	-1.8521	-1.3958	-1.2188	-1.8479	-1.2125	-1.5	-1.5104	-1.0333	179.408	252.087	258.771	277.394	362.204	40.230	265.867	343.316	89.091	237.052	80.685	212.273	242.766	113.795	245.318	49.477	0.00036977	0.00017954	6.9941e-05	469.96	2.5564e-06	8.2027e-06	659.76	158.72	3.009e-06	1.9243e-06	242.9	95.628	60.026	21.298	5.982e-06	40.868	0.0020462	0.0034754	0.00098594	457.58	3.4854e-05	3.8555e-05	636.07	154.86	3.3815e-05	3.9456e-05	237.02	93.543	60.052	21.12	3.6106e-05	40.16	140.223	64.675	154.175	51.526	273.425	213.166	50.670	56.649	165.579	148.031	54.836	58.976	62.070	66.208	173.812	63.681	-8191	255	
1461.889	1	1	0	0	0.085426	0.22887	0.16841	0.14493	0.078094	0.11868	0.40574	0.13731	0.099501	0.25582	0.13654	0.26501	0.10047	0.22304	0.10531	0.0492	-1.45	-1.5583	-1.0688	-1.9042	-1.0354	-1.5542	-1.9188	-1.0792	-1.8271	-1.4667	-1.2917	-2.1417	-1.2521	-1.2854	-1.8604	-1	197.209	167.787	90.808	264.023	125.322	123.402	380.463	139.977	194.939	224.830	156.638	297.352	290.732	395.171	382.078	56.766	0.00034004	0.00071122	0.00012186	473.55	4.2586e-07	5.9351e-06	668.04	161.2	3.7123e-06	4.4565e-06	246.56	96.981	61.142	21.502	4.6662e-06	40.985	0.0020172	0.0034575	0.00096818	459.4	3.4499e-05	3.8996e-05	641.22	156.22	3.3315e-05	3.8351e-05	239.12	94.534	60.376	21.253	3.5021e-05	40.288	128.659	161.286	130.320	51.082	395.145	220.060	50.205	56.497	218.289	318.560	55.281	59.222	61.590	65.293	249.322	62.780	-8191	255	
1461.985	1	1	0	0	0.047446	0.077579	0.067968	0.24535	0.15956	0.16019	0.1229	0.18433	0.22953	0.1285	0.52159	0.17449	0.17818	0.10523	0.26865	0.14621	-1.325	-1.5146	-1.2	-2.1063	-1.1521	-1.3979	-2.0979	-0.9125	-1.725	-1.7437	-1.2188	-2.3021	-1.375	-1.3312	-1.9	-1.2167	124.104	112.608	270.327	376.007	317.557	281.679	286.630	229.098	160.806	118.180	370.510	265.605	67.985	148.813	46.265	273.185	0.00031651	0.00044672	0.00011933	468.4	5.4417e-06	4.6731e-06	657.12	160.25	3.1017e-06	1.9503e-06	240.49	95.25	60.579	21.294	2.9924e-06	40.596	0.0020128	0.0034222	0.00097503	457.63	3.5126e-05	3.8682e-05	633.41	154.8	3.341e-05	3.9294e-05	235.26	92.829	60.052	21.085	3.5923e-05	39.752	124.343	134.893	123.527	51.418	155.168	176.096	49.954	55.912	125.584	168.479	54.590	58.753	60.892	65.417	142.979	63.283	-8191	255	
1462.081	1	1	0	0	0.26143	0.26069	0.088728	0.14518	0.39512	0.14526	0.2343	0.16283	0.095684	0.15777	0.28868	0.17814	0.097504	0.085514	0.092087	0.041215	-1.1875	-1.7396	-0.95	-1.9604	-1.5229	-1.3375	-2.2479	-1.1896	-1.7167	-1.8021	-1.1458	-2.1396	-1.6104	-1.2771	-2.025	-1.3771	223.248	304.744	42.855	45.353	122.307	187.905	271.554	397.082	291.061	315.416	336.359	293.020	100.841	83.527	247.053	279.575	0.00034846	0.00037386	9.731e-05	469.44	4.9143e-06	4.4394e-06	656.09	158.78	3.1607e-07	5.2499e-06	242.77	95.298	59.815	21.281	4.486e-06	40.187	0.0020496	0.0034472	0.00097025	457.31	3.4876e-05	3.8873e-05	631.83	154.52	3.4472e-05	3.9641e-05	235.3	93.092	59.69	21.116	3.7324e-05	39.769	142.540	169.324	39.496	51.102	239.801	171.039	50.139	55.843	258.238	144.918	54.083	58.639	61.488	65.576	188.728	62.825	-8191	255	
1462.178	1	1	0	0	0.227	0.16603	0.21385	0.25859	0.14981	0.11658	0.27126	0.23706	0.04737	0.062915	0.16322	0.33127	0.19538	0.17345	0.10894	0.20844	-0.93542	-1.7188	-0.89167	-1.7292	-1.5938	-0.98125	-2.0208	-1.4083	-1.3125	-2.1375	-1.1521	-1.7583	-1.4667	-1.0958	-1.8937	-1.3792	63.508	191.668	240.679	76.866	111.265	102.101	234.635	362.043	85.127	101.898	337.716	342.124	245.349	364.473	355.295	345.721	0.00033893	0.00041396	0.00018287	472.02	6.5598e-06	6.1171e-06	658.81	158.95	5.2914e-06	8.9583e-06	242.58	95.67	60.282	21.276	8.6399e-06	40.693	0.0021638	0.0036427	0.0010324	459.12	3.76e-05	4.2364e-05	635	155.03	3.7291e-05	4.2221e-05	236.85	93.623	60.094	21.167	3.9286e-05	40.107	127.906	205.593	185.422	51.033	195.033	117.374	50.315	56.123	180.626	173.275	54.416	58.854	61.192	65.555	165.967	63.054	-8191	255	
1462.274	1	1	0	0	0.14296	0.12661	0.21566	0.32729	0.30443	0.1192	0.26438	0.15329	0.22189	0.25767	0.19783	0.1262	0.21023	0.12774	0.0306	0.24759	-0.99583	-2.0396	-1.2271	-1.7125	-1.7021	-1.1771	-2.0083	-1.5083	-1.3104	-2.0104	-1.3833	-1.6604	-1.6583	-1.0104	-1.9937	-1.4271	332.682	80.464	126.886	356.966	149.163	335.593	90.925	82.805	384.085	273.850	232.276	360.191	292.988	362.104	316.396	287.671	0.00036503	0.00055799	8.9143e-05	468.71	9.0852e-07	6.8009e-06	664.08	159.76	3.0112e-06	3.6429e-06	242.53	95.164	59.217	20.832	5.0583e-06	39.992	0.0021816	0.0037201	0.001068	459.92	3.723e-05	4.2633e-05	640.77	155.33	3.6821e-05	4.1761e-05	237.45	93.322	59.66	20.777	3.8779e-05	39.449	128.576	143.585	57.753	51.236	256.176	191.353	50.419	56.341	150.100	190.779	54.425	58.629	61.500	65.932	197.786	63.043	-8191	255	
1462.370	1	1	0	0	0.29541	0.11966	0.056781	0.22735	0.090323	0.25858	0.22185	0.1774	0.10288	0.049895	0.43492	0.055233	0.34333	0.034448	0.059596	0.096988	-0.83125	-2.0458	-1.0979	-1.5833	-1.8146	-1.025	-1.9479	-1.4438	-1.275	-2.0333	-1.0167	-1.6542	-1.75	-0.8875	-1.8354	-1.5438	222.983	295.057	128.174	272.584	43.987	345.047	242.173	357.993	216.287	296.598	204.991	266.277	42.829	332.156	266.417	178.962	0.00035563	0.00057004	3.2993e-05	470	1.6394e-06	4.9012e-06	654.67	157.28	2.496e-06	1.3105e-06	236.4	92.588	58.292	20.439	4.2259e-06	38.931	0.0021845	0.003606	0.0010335	458.51	3.6896e-05	4.1836e-05	632.11	153.71	3.5319e-05	4.0837e-05	232.32	90.805	58.339	20.249	3.8014e-05	38.249	141.502	245.379	280.756	51.765	112.422	119.374	50.273	56.410	216.394	145.628	54.662	58.782	60.726	65.416	217.276	63.330	-8191	255	
1462.491	1	1	0	0	0.15877	0.19876	0.20851	0.1544	0.22786	0.13587	0.15286	0.1562	0.11553	0.26602	0.1977	0.30905	0.053034	0.25542	0.15678	0.077619	-0.75417	-1.7292	-1.2313	-1.3188	-1.7687	-1.1396	-1.9438	-1.5896	-1.0979	-1.925	-1.4375	-1.4292	-1.8104	-1.1437	-1.625	-1.9083	337.408	265.200	266.011	326.606	261.712	248.496	274.012	67.189	162.439	128.605	94.148	89.517	367.833	374.283	76.666	260.999	0.00031155	0.00044284	0.00010704	465.29	3.2071e-06	6.5766e-06	651.42	157.12	4.8263e-06	3.058e-06	236.39	90.728	57.639	20.288	3.4553e-06	38.614	0.0020866	0.0036032	0.0010049	453.79	3.6022e-05	4.1211e-05	626.89	152.04	3.593e-05	4.1316e-05	230.22	89.62	57.871	20.171	3.8997e-05	38.041	136.421	139.233	202.071	50.982	218.809	156.818	50.838	56.415	179.081	202.821	54.428	58.848	61.174	65.774	194.995	63.250	-8191	255	
1462.587	1	1	0	0	0.20732	0.14175	0.23843	0.29536	0.11192	0.026204	0.13516	0.091564	0.077804	0.064561	0.11409	0.2855	0.2264	0.2714	0.21994	0.24997	-0.525	-1.9	-1.1875	-1.3042	-1.9667	-1.0375	-1.6021	-1.7458	-1.075	-1.8813	-1.3292	-1.3479	-1.8875	-1.2917	-1.5375	-1.7188	396.247	68.493	299.005	45.491	278.762	60.031	284.878	300.065	226.567	322.740	263.195	45.937	366.317	339.854	144.635	346.594	0.0002536	0.0001999	7.3774e-05	462.06	2.5594e-06	1.1355e-06	647.95	155.82	4.2088e-07	2.2593e-06	235.51	91.543	57.329	20.245	2.508e-06	38.717	0.0022146	0.0037675	0.0010709	455.01	3.8163e-05	4.3927e-05	628.51	152.11	3.9004e-05	4.5577e-05	231.41	90.187	57.992	20.191	4.2352e-05	38.487	137.989	50.570	114.039	51.731	242.022	248.814	50.631	56.470	305.232	379.817	54.693	59.318	61.723	65.273	189.580	63.412	-8191	255	
1462.681	1	1	0	0	0.19384	0.41704	0.14068	0.28566	0.027195	0.048814	0.033352	0.45415	0.13067	0.14854	0.15962	0.21403	0.094864	0.20169	0.13817	0.14891	-0.6375	-1.95	-1.4229	-0.925	-1.7958	-1.0292	-1.5688	-1.9417	-1.1292	-1.85	-1.6146	-1.2042	-1.9479	-1.1521	-1.3854	-1.975	152.417	217.099	39.926	114.442	305.755	211.370	376.523	333.411	203.773	50.906	377.156	337.368	199.289	362.633	332.416	355.344	0.00032903	0.0008132	4.4079e-05	467.71	2.361e-06	2.6472e-06	661.76	157.32	2.7177e-06	9.303e-06	239.5	93.364	58.076	20.588	7.3905e-06	39.17	0.0023802	0.0041446	0.0011365	459.43	4.1976e-05	4.4914e-05	636.62	153.33	4.0673e-05	4.6654e-05	234.01	91.537	58.437	20.384	4.2613e-05	38.63	132.715	145.716	151.135	51.310	93.290	220.362	50.701	56.333	269.114	212.901	54.730	59.233	61.920	65.297	202.679	63.207	-8191	255	
1462.777	1	1	0	0	0.093994	0.25607	0.088235	0.27394	0.24108	0.11868	0.24006	0.2005	0.38534	0.24343	0.26695	0.11415	0.044411	0.22504	0.17577	0.11679	-0.7	-1.7042	-1.4979	-1.0938	-1.9479	-1.4354	-1.5729	-1.9417	-1.1521	-1.5979	-1.7958	-1.0646	-2.0604	-1.3021	-1.4062	-1.9333	108.807	332.214	218.527	136.462	337.056	49.575	65.596	62.449	284.688	305.323	352.115	216.126	181.041	71.782	206.768	135.202	0.00035984	0.00058177	0.00014448	467.11	1.3826e-06	2.8617e-06	650.59	153.94	1.6393e-06	3.2825e-06	230.82	89.775	57.076	19.744	8.5696e-06	37.417	0.002378	0.0041458	0.0011719	457.98	4.1664e-05	4.737e-05	627.28	151.09	3.9695e-05	4.5879e-05	227.1	88.396	57.457	19.647	4.1689e-05	36.984	125.699	116.535	127.674	51.295	187.894	174.662	50.489	56.267	212.046	343.788	54.377	58.866	61.873	65.312	200.630	63.141	-8191	255	
1462.873	1	1	0	0	0.2105	0.095852	0.09528	0.13342	0.24271	0.14503	0.21706	0.30573	0.079113	0.23517	0.33836	0.16354	0.14445	0.21261	0.17553	0.12736	-0.94792	-1.6667	-1.8229	-1.3896	-1.9833	-1.2792	-1.3354	-2.0104	-1.2292	-1.6688	-1.7313	-1.1562	-2.0667	-1.5854	-1.2417	-2.1	275.442	161.664	372.750	366.573	136.914	107.117	332.586	323.805	285.248	388.515	63.088	180.236	393.464	147.666	244.826	226.483	0.00025294	0.00084862	0.00012067	467.45	2.0748e-06	6.0987e-06	641.84	152.31	6.3381e-06	5.0982e-06	228.88	88.464	56.254	19.22	2.3445e-06	36.583	0.0023128	0.0039415	0.0011463	456.53	4.0126e-05	4.5674e-05	620.12	149.37	3.9748e-05	4.629e-05	224.2	86.919	56.629	19.218	4.3412e-05	36.247	134.565	169.081	113.889	51.563	204.974	140.629	50.621	56.304	123.150	100.826	54.551	58.875	61.597	65.519	111.010	63.101	-8191	255	
1462.970	1	1	0	0	0.081673	0.088056	0.089833	0.23907	0.033302	0.24935	0.069617	0.49418	0.2812	0.35132	0.046994	0.26966	0.2334	0.076238	0.043108	0.44855	-0.8625	-1.5667	-1.8125	-0.99583	-1.7833	-1.6271	-1.1792	-1.8312	-1.0896	-1.4208	-1.8708	-1.2812	-1.6667	-1.6958	-1.3729	-2.0187	131.462	332.523	304.661	274.940	391.536	336.977	331.124	354.268	115.969	394.226	151.586	350.148	74.329	99.721	131.930	305.365	0.00032427	0.00020012	5.4208e-05	461.7	3.8956e-06	5.5767e-06	640.59	151.74	4.1289e-06	5.5788e-07	228.17	88.106	56.108	19.038	1.7493e-06	36.975	0.0024012	0.0041305	0.0011715	453.82	4.0672e-05	4.5917e-05	618.92	148.38	4.0138e-05	4.693e-05	224.25	86.71	56.28	19.107	4.2932e-05	36.318	140.774	293.109	275.993	51.423	275.450	218.155	50.283	56.290	234.300	255.642	54.319	58.820	61.502	65.631	279.321	63.410	-8191	255	
1463.066	1	1	0	0	0.21278	0.049844	0.18838	0.019502	0.11049	0.12779	0.10199	0.22959	0.31811	0.17166	0.062343	0.11527	0.21529	0.17055	0.11725	0.088564	-0.93542	-1.45	-2.0667	-1.0521	-1.5688	-1.65	-1.1938	-1.9271	-1.2604	-1.2625	-1.9417	-1.1375	-1.6479	-1.875	-0.95	-2.0312	386.839	206.342	211.357	54.970	383.684	163.263	359.054	383.092	388.452	72.683	349.534	324.228	382.022	386.004	285.638	198.981	0.00030702	0.00031786	0.00010523	467.75	6.171e-06	6.3919e-06	638.09	150.99	4.3611e-06	3.2947e-06	229.84	88.669	55.804	19.188	4.5377e-06	36.773	0.0024021	0.0041075	0.001165	456.95	4.1083e-05	4.6498e-05	621.3	148.72	4.0473e-05	4.6864e-05	225.9	87.202	56.488	19.143	4.2148e-05	36.244	131.832	387.609	63.841	51.438	109.309	175.231	50.571	56.325	218.869	111.217	54.095	58.616	61.801	65.178	201.095	63.408	-8191	255	
1463.186	1	1	0	0	0.041272	0.13237	0.1081	0.11892	0.06515	0.30838	0.31192	0.24037	0.18881	0.12542	0.10961	0.032139	0.30021	0.32081	0.29067	0.11655	-0.8875	-1.075	-1.9521	-1.1104	-1.4896	-1.7854	-1.1354	-2.0021	-1.4146	-1.0271	-1.9604	-1.1479	-1.6792	-1.9708	-1.0625	-1.925	205.736	117.392	312.311	352.188	388.314	369.709	325.029	366.339	83.791	374.679	192.721	110.346	265.702	109.119	310.690	244.626	0.00029709	0.00044277	0.00017526	469.94	5.677e-06	6.0986e-06	638.8	151.68	3.6182e-06	4.073e-06	225.7	87.914	55.441	18.939	5.2737e-06	36.318	0.0023799	0.0040499	0.0011297	457.15	4.0888e-05	4.6044e-05	617.28	148.46	3.9272e-05	4.5956e-05	221.75	86.154	56.223	18.913	4.2995e-05	35.841	129.627	107.089	103.589	51.646	223.438	125.772	50.459	55.865	152.826	233.376	54.560	58.729	61.355	65.189	211.929	63.387	-8191	255	
1463.282	1	1	0	0	0.28812	0.25479	0.067521	0.15458	0.18457	0.19938	0.17143	0.33276	0.061471	0.10955	0.28808	0.13399	0.35875	0.23693	0.16642	0.25412	-0.91458	-1.0917	-1.9104	-1.325	-1.2396	-1.9979	-1.2313	-1.7687	-1.5896	-1.2437	-1.875	-1.45	-1.2188	-1.8917	-1.1167	-1.8708	229.411	116.728	111.757	186.966	163.437	337.619	293.210	45.399	237.628	357.623	68.600	326.116	100.792	197.691	93.132	77.568	0.00025338	0.0005781	0.0001024	467.39	2.1079e-06	6.3003e-06	633.57	152.49	3.3079e-06	4.1118e-06	227.35	88.124	55.954	19.341	6.0709e-06	36.821	0.002296	0.0040193	0.0011324	454.96	4.0003e-05	4.473e-05	613.49	148.71	3.881e-05	4.4901e-05	222.61	86.89	56.503	19.221	4.1098e-05	36.381	151.008	102.407	394.018	50.933	208.899	212.751	50.611	56.451	180.272	175.891	53.715	58.328	61.613	64.742	156.039	63.590	-8191	255	
1463.379	1	1	0	0	0.064875	0.086449	0.028594	0.0912	0.1151	0.26535	0.28788	0.059632	0.13029	0.11316	0.19118	0.14841	0.14004	0.31348	0.2279	0.11987	-1.3375	-0.89583	-1.9708	-1.2646	-1.1667	-1.8583	-1.0312	-1.6917	-1.7479	-0.975	-1.7833	-1.4042	-1.2125	-1.8917	-1.1896	-1.3167	374.669	50.233	58.490	324.841	261.332	69.322	324.867	354.619	242.378	154.093	394.242	78.250	173.507	48.896	120.069	54.236	0.00027989	0.00028728	0.00011991	466.58	5.6604e-06	9.1755e-06	638.91	152.95	5.6644e-06	7.7423e-07	230.73	89.612	56.955	19.485	2.572e-06	37.814	0.0022418	0.0040698	0.0011302	455.33	3.9859e-05	4.4621e-05	618.94	149.53	3.9951e-05	4.5965e-05	225.98	88.171	57.542	19.526	4.3429e-05	37.334	127.511	144.232	61.229	51.087	202.971	163.023	49.901	56.497	189.936	165.202	54.331	58.754	61.167	65.316	159.976	63.148	-8191	255	
1463.450	1	1	0	0	0.13655	0.15042	0.29792	0.26296	0.20381	0.15248	0.096693	0.28079	0.30594	0.15998	0.045449	0.19584	0.092076	0.079624	0.097055	0.18834	-1.1354	-1.1313	-1.8354	-1.4667	-1.1521	-2.1521	-1.3062	-1.5333	-1.8979	-1.1396	-1.8813	-1.6271	-1.1667	-2.1167	-1.1396	-1.4146	256.866	380.287	44.863	97.041	175.414	363.462	86.054	362.921	90.938	182.864	369.533	46.935	277.944	397.083	47.283	373.696	0.00026692	0.00043564	9.4195e-05	468.83	4.9864e-06	5.3136e-06	644.45	152.72	3.8595e-06	5.0847e-06	231.38	91.194	57.005	19.645	4.3214e-06	37.55	0.002319	0.0041648	0.0011692	458.73	4.266e-05	4.8176e-05	624.44	149.78	4.1187e-05	4.875e-05	227.33	89.072	57.908	19.642	4.4161e-05	37.154	131.906	144.129	77.613	51.138	194.056	189.214	50.340	55.872	139.221	129.724	53.962	58.499	60.715	65.272	113.001	63.341	-8191	255	
1463.569	1	1	0	0	0.13451	0.3233	0.27259	0.055319	0.23964	0.22761	0.27876	0.12501	0.14513	0.31772	0.29475	0.1316	0.20689	0.32118	0.24367	0.25924	-1.5021	-1.1063	-1.7708	-1.7354	-1.0375	-1.8937	-1.5063	-1.3	-1.9792	-1.1604	-1.8854	-1.9792	-1.1229	-1.8542	-1.4292	-1.3937	60.661	378.683	279.726	229.522	358.103	265.508	265.001	160.009	260.603	274.660	81.086	375.043	41.060	397.542	150.203	329.701	0.00037035	9.8501e-05	4.7966e-05	466.44	2.7594e-06	9.2045e-06	634.66	151.36	3.2842e-06	3.8822e-06	224.86	87.165	55.492	18.958	3.1988e-06	35.71	0.0024166	0.0042685	0.0012247	457.43	4.224e-05	4.7623e-05	615.99	148.2	4.1322e-05	4.86e-05	220.78	85.867	56.375	18.922	4.3065e-05	35.452	138.961	319.488	213.577	51.298	214.345	179.146	50.148	56.187	188.365	260.964	54.320	58.952	61.001	65.305	156.717	63.312	-8191	255	
1463.665	1	1	0	0	0.23593	0.10888	0.18263	0.16631	0.051196	0.089597	0.21854	0.10425	0.15176	0.10801	0.16605	0.28832	0.15142	0.033744	0.20687	0.1016	-1.4667	-1.2375	-1.6979	-1.7563	-1.2083	-1.8542	-1.6938	-1.2938	-2.1208	-1.1229	-1.5562	-1.8354	-1.1271	-1.9021	-1.3042	-1.1938	152.036	246.482	144.571	310.972	358.754	324.340	316.919	201.050	325.148	129.158	315.943	279.495	95.109	393.686	110.953	288.315	0.00032084	0.00029532	0.00025243	461.65	3.4028e-06	1.7621e-06	628.57	149.4	2.403e-06	1.3332e-06	222.17	86.267	54.928	18.518	4.2485e-06	35.37	0.0024036	0.0042164	0.0011732	452.96	4.2293e-05	4.7068e-05	608.02	146.21	4.1188e-05	4.7717e-05	218.33	84.741	55.306	18.641	4.3527e-05	35.064	137.201	252.851	133.326	51.462	194.060	157.201	50.358	56.220	137.787	64.972	54.723	58.632	60.731	65.757	163.042	62.849	-8191	255	
#DATA ENDS
