BOXY.EXE: ISS Imagent and Oximeter Data Acquisition Program Version 0.80
Ascii Record File

#ACQ INFORMATION
2  Detector Channels 
16  External MUX Channels 
1  Auxiliary Channels 
5000  Waveform (CCF) Frequency (Hz)
1  Waveforms Skipped 
30  Waveforms Averaged 
1  Cycles Averaged 
16  Acquisitions per Waveform 
10.0806  Updata Rate (Hz) 

#FILE INFORMATION
TRUE -- External MUX Channel results are PARSED.
FALSE -- AC DC and Phase are NOT grouped.
TRUE -- Companion Program Settings File CREATED.
FALSE -- AC data not excluded
FALSE -- DC data not excluded
FALSE -- Phase data not excluded
FALSE -- Auxillary Chn. data not excluded
Tab delimiters

#CALIBRATION STATE
TRUE -- Waveform Calibration Values APPLIED.


#AUX CALIBRATION VALUES
Val Type	aux-1	

Term	1.0000e+00	
Factor	0.0000e+00	


#WF CALIBRATION VALUES
A = Detector Channel
Val Type	A-AC1	A-AC2	A-AC3	A-AC4	A-AC5	A-AC6	A-AC7	A-AC8	A-AC9	A-AC10	A-AC11	A-AC12	A-AC13	A-AC14	A-AC15	A-AC16	A-DC1	A-DC2	A-DC3	A-DC4	A-DC5	A-DC6	A-DC7	A-DC8	A-DC9	A-DC10	A-DC11	A-DC12	A-DC13	A-DC14	A-DC15	A-DC16	A-Ph1	A-Ph2	A-Ph3	A-Ph4	A-Ph5	A-Ph6	A-Ph7	A-Ph8	A-Ph9	A-Ph10	A-Ph11	A-Ph12	A-Ph13	A-Ph14	A-Ph15	A-Ph16	

Term	0.00000e+00	0.00000e+00	0.00000e+00	0.00000e+00	0.00000e+00	0.00000e+00	0.00000e+00	0.00000e+00	0.00000e+00	0.00000e+00	0.00000e+00	0.00000e+00	0.00000e+00	0.00000e+00	0.00000e+00	0.00000e+00	0.00000e+00	0.00000e+00	0.00000e+00	0.00000e+00	0.00000e+00	0.00000e+00	0.00000e+00	0.00000e+00	0.00000e+00	0.00000e+00	0.00000e+00	0.00000e+00	0.00000e+00	0.00000e+00	0.00000e+00	0.00000e+00	0.00000e+00	0.00000e+00	0.00000e+00	0.00000e+00	0.00000e+00	0.00000e+00	0.00000e+00	0.00000e+00	0.00000e+00	0.00000e+00	0.00000e+00	0.00000e+00	0.00000e+00	0.00000e+00	0.00000e+00	0.00000e+00	
Factor	1.00000e+00	1.00000e+00	1.00000e+00	1.00000e+00	1.00000e+00	1.00000e+00	1.00000e+00	1.00000e+00	1.00000e+00	1.00000e+00	1.00000e+00	1.00000e+00	1.00000e+00	1.00000e+00	1.00000e+00	1.00000e+00	1.00000e+00	1.00000e+00	1.00000e+00	1.00000e+00	1.00000e+00	1.00000e+00	1.00000e+00	1.00000e+00	1.00000e+00	1.00000e+00	1.00000e+00	1.00000e+00	1.00000e+00	1.00000e+00	1.00000e+00	1.00000e+00	X	X	X	X	X	X	X	X	X	X	X	X	X	X	X	X	

B = Detector Channel
Val Type	B-AC1	B-AC2	B-AC3	B-AC4	B-AC5	B-AC6	B-AC7	B-AC8	B-AC9	B-AC10	B-AC11	B-AC12	B-AC13	B-AC14	B-AC15	B-AC16	B-DC1	B-DC2	B-DC3	B-DC4	B-DC5	B-DC6	B-DC7	B-DC8	B-DC9	B-DC10	B-DC11	B-DC12	B-DC13	B-DC14	B-DC15	B-DC16	B-Ph1	B-Ph2	B-Ph3	B-Ph4	B-Ph5	B-Ph6	B-Ph7	B-Ph8	B-Ph9	B-Ph10	B-Ph11	B-Ph12	B-Ph13	B-Ph14	B-Ph15	B-Ph16	

Term	0.00000e+00	0.00000e+00	0.00000e+00	0.00000e+00	0.00000e+00	0.00000e+00	0.00000e+00	0.00000e+00	0.00000e+00	0.00000e+00	0.00000e+00	0.00000e+00	0.00000e+00	0.00000e+00	0.00000e+00	0.00000e+00	0.00000e+00	0.00000e+00	0.00000e+00	0.00000e+00	0.00000e+00	0.00000e+00	0.00000e+00	0.00000e+00	0.00000e+00	0.00000e+00	0.00000e+00	0.00000e+00	0.00000e+00	0.00000e+00	0.00000e+00	0.00000e+00	-1.87371e+02	-1.31415e+02	-1.24710e+02	-1.81212e+02	-8.07949e+01	-6.74275e+01	-1.55456e+02	-1.62015e+02	-9.23945e+01	-6.70536e+01	-1.73412e+02	-1.69810e+02	-1.82477e+02	-1.77077e+02	-7.58515e+01	-1.50119e+02	
Factor	3.52827e-05	1.83162e-04	4.58643e-05	1.76287e-01	1.75150e-06	1.83731e-06	1.73502e-01	5.45191e-02	1.85534e-06	1.98930e-06	9.22526e-02	3.05655e-02	2.59148e-02	9.60100e-03	1.73032e-06	1.38546e-02	2.41229e-05	6.45515e-05	1.83404e-05	8.97248e-02	5.50687e-07	7.47304e-07	8.30404e-02	2.77852e-02	5.42900e-07	7.52593e-07	4.57615e-02	1.51588e-02	1.33721e-02	4.94815e-03	6.11691e-07	6.91172e-03	X	X	X	X	X	X	X	X	X	X	X	X	X	X	X	X	



#DISTANCE SETTINGS
A = Detector Channel
A-1	A-2	A-3	A-4	A-5	A-6	A-7	A-8	A-9	A-10	A-11	A-12	A-13	A-14	A-15	A-16	

2.5000e+00	3.0000e+00	2.5000e+00	3.0000e+00	2.0000e+00	3.0000e+00	1.5000e+00	3.0000e+00	3.0000e+00	3.0000e+00	3.0000e+00	3.0000e+00	3.0000e+00	3.0000e+00	1.5000e+00	3.0000e+00	

B = Detector Channel
B-1	B-2	B-3	B-4	B-5	B-6	B-7	B-8	B-9	B-10	B-11	B-12	B-13	B-14	B-15	B-16	

1.0000e+01	1.0000e+01	1.0000e+01	1.4400e+00	1.0000e+01	1.0000e+01	1.5100e+00	1.9400e+00	1.0000e+01	1.0000e+01	1.9900e+00	2.4900e+00	2.4100e+00	2.9000e+00	1.0000e+01	2.9800e+00	




#DATA BEGINS
time	group	step	mark	flag	A-AC1	A-AC2	A-AC3	A-AC4	A-AC5	A-AC6	A-AC7	A-AC8	A-AC9	A-AC10	A-AC11	A-AC12	A-AC13	A-AC14	A-AC15	A-AC16	A-DC1	A-DC2	A-DC3	A-DC4	A-DC5	A-DC6	A-DC7	A-DC8	A-DC9	A-DC10	A-DC11	A-DC12	A-DC13	A-DC14	A-DC15	A-DC16	A-Ph1	A-Ph2	A-Ph3	A-Ph4	A-Ph5	A-Ph6	A-Ph7	A-Ph8	A-Ph9	A-Ph10	A-Ph11	A-Ph12	A-Ph13	A-Ph14	A-Ph15	A-Ph16	B-AC1	B-AC2	B-AC3	B-AC4	B-AC5	B-AC6	B-AC7	B-AC8	B-AC9	B-AC10	B-AC11	B-AC12	B-AC13	B-AC14	B-AC15	B-AC16	B-DC1	B-DC2	B-DC3	B-DC4	B-DC5	B-DC6	B-DC7	B-DC8	B-DC9	B-DC10	B-DC11	B-DC12	B-DC13	B-DC14	B-DC15	B-DC16	B-Ph1	B-Ph2	B-Ph3	B-Ph4	B-Ph5	B-Ph6	B-Ph7	B-Ph8	B-Ph9	B-Ph10	B-Ph11	B-Ph12	B-Ph13	B-Ph14	B-Ph15	B-Ph16	aux-1	digaux	

424.680	1	1	0	256	0.20109	0.1537	0.18648	0.18288	0.18677	0.20519	0.15991	0.18337	0.24186	0.15407	0.086661	0.29035	0.31555	0.15241	0.28433	0.27038	-3.6562	-3.7833	-4.3042	-4.0854	-3.9917	-4.2562	-3.9396	-4.3021	-4.0292	-3.8812	-4.3083	-4.1146	-4.0333	-4.5667	-3.7667	-4.1083	340.975	289.842	402.353	64.030	210.027	174.254	337.439	340.996	133.522	311.150	403.616	377.966	387.981	356.597	368.467	376.315	0.00083318	0.00032471	0.00010208	1381.5	7.2086e-06	4.3377e-06	1380.6	368.48	7.675e-06	3.5697e-06	417.95	141.21	122.97	41.884	7.1834e-06	51.864	0.00072022	0.00075203	0.0001972	1408.8	7.5238e-06	7.5571e-06	1406	377.23	7.708e-06	8.6203e-06	428.57	144.44	126.33	43.249	7.534e-06	53.601	99.513	143.518	143.760	68.361	187.876	218.235	68.139	73.260	197.140	176.918	72.546	76.880	77.352	82.031	196.349	80.916	-8191	255	
424.799	1	1	0	0	0.12223	0.2126	0.060832	0.062963	0.20918	0.14821	0.10811	0.12556	0.27297	0.12031	0.1584	0.15815	0.22798	0.22096	0.19683	0.2727	-3.7875	-3.7313	-4.1979	-4.0771	-3.9458	-4.3458	-4.05	-4.3	-4.15	-3.8729	-4.3229	-4.2583	-4.0667	-4.325	-4.0729	-4.2354	193.700	104.623	85.988	344.575	138.591	139.814	166.246	382.887	335.847	91.216	303.888	399.851	385.283	387.573	100.292	351.105	0.00086874	0.0006056	0.00012698	1380.8	6.2591e-06	3.9842e-06	1378.8	367.98	7.1694e-06	6.7756e-06	417.63	141.1	123.12	41.899	5.6604e-06	51.856	0.00074178	0.00076386	0.00019991	1409.2	7.7234e-06	7.7377e-06	1404.6	377.15	7.5678e-06	8.4808e-06	428.02	144.3	126.32	43.224	7.5009e-06	53.507	98.546	154.761	157.950	68.253	207.121	216.204	68.219	73.205	199.067	196.432	72.387	76.968	77.616	81.801	202.113	81.049	-8191	255	
424.872	1	1	0	0	0.17328	0.18118	0.24499	0.22422	0.042452	0.20243	0.23298	0.10233	0.064867	0.088058	0.27614	0.067922	0.022053	0.14766	0.24245	0.27863	-3.8958	-3.9437	-4.3354	-4.3083	-4	-4.3604	-4.1042	-4.2625	-4.15	-3.9	-4.3604	-4.2896	-3.7792	-4.4708	-3.9854	-4.1312	285.312	381.895	282.501	388.274	225.798	297.812	312.006	356.742	253.495	290.759	281.040	284.355	111.431	325.398	333.791	327.353	0.00087093	0.00051093	0.00012658	1377.7	5.8644e-06	4.8119e-06	1378.2	368.28	6.3867e-06	4.5742e-06	416.03	141.12	123.39	41.802	4.6334e-06	51.64	0.00071756	0.0007332	0.00019063	1405.7	7.611e-06	7.9884e-06	1402	376.9	7.5587e-06	8.2033e-06	427.23	144.44	126.32	43.19	7.1581e-06	53.503	99.608	142.648	161.746	68.463	205.224	205.917	68.188	73.137	193.983	201.740	72.337	76.984	77.399	81.965	191.449	81.032	-8191	255	
424.968	1	1	0	0	0.153	0.17167	0.14777	0.20209	0.057121	0.11581	0.308	0.25733	0.095309	0.038733	0.25164	0.16409	0.0099312	0.091346	0.093197	0.18075	-3.9208	-3.8917	-4.1146	-4.2021	-3.8229	-4.275	-4.1792	-4.0312	-4.3688	-4.0625	-4.2521	-4.5437	-3.8187	-4.425	-3.9917	-3.975	333.300	191.233	331.947	308.309	121.908	246.968	411.156	343.555	73.617	202.257	304.332	348.101	146.083	402.014	183.195	333.135	0.00086598	0.00046729	0.00011013	1380.2	4.3917e-06	4.0523e-06	1375.5	368.59	7.6911e-06	4.3761e-06	418.03	140.46	123.75	41.829	5.5409e-06	51.96	0.00073535	0.00077005	0.0001865	1407.2	7.7544e-06	7.6334e-06	1402.1	376.56	7.6979e-06	8.2236e-06	427.48	144.25	126.32	43.191	7.6066e-06	53.61	99.025	130.094	135.884	68.498	210.808	214.261	68.310	72.965	177.955	209.171	72.569	76.804	77.458	82.191	204.970	81.175	-8191	255	
425.087	1	1	0	0	0.11457	0.26649	0.24316	0.029558	0.052488	0.069687	0.10184	0.040187	0.16983	0.1677	0.14927	0.17772	0.089536	0.16298	0.068283	0.055436	-4.0104	-3.8104	-4.1312	-4.3583	-3.7917	-4.3042	-4.1813	-4.0813	-4.3021	-3.9	-4.15	-4.3417	-3.7958	-4.3833	-4.1625	-3.85	79.978	221.239	244.352	381.321	255.173	259.767	298.193	403.165	400.885	334.942	387.189	331.854	393.666	91.095	211.400	107.736	0.0008575	0.0005951	0.0001332	1382.9	6.0986e-06	4.5554e-06	1380.3	368.52	7.6148e-06	5.5857e-06	417.52	140.68	123.51	41.873	6.237e-06	51.927	0.00070479	0.000702	0.00020954	1407	7.8668e-06	7.5011e-06	1402.6	376.86	7.4423e-06	8.1735e-06	428.08	144.4	126.39	43.21	8.073e-06	53.605	101.714	135.207	158.630	68.451	203.448	217.982	68.158	73.208	194.416	205.486	72.517	76.791	77.323	82.017	206.023	81.062	-8191	255	
425.183	1	1	0	0	0.25603	0.044677	0.052498	0.094121	0.15484	0.11626	0.19226	0.037783	0.052028	0.24008	0.38269	0.14313	0.0995	0.20107	0.054115	0.26707	-3.975	-3.8	-3.8688	-4.3187	-3.9417	-4.3042	-4.3833	-3.8896	-4.4271	-4.1021	-4.0563	-4.4917	-4.05	-4.3458	-4.1125	-3.8396	212.430	299.536	247.163	408.379	400.644	323.375	360.799	366.014	373.640	199.488	386.030	295.077	73.597	389.570	120.705	360.492	0.00083563	0.00046087	0.00012918	1380	6.295e-06	4.6399e-06	1376.5	369.79	9.72e-06	6.1874e-06	417.34	141.94	123.96	42.091	6.3955e-06	51.828	0.00071544	0.00074073	0.00021317	1408.9	7.9379e-06	7.7268e-06	1405.1	377.68	7.854e-06	8.5513e-06	428.42	144.97	126.73	43.344	8.0437e-06	53.617	99.343	147.617	139.702	68.482	202.297	197.778	67.978	73.050	183.512	211.686	72.288	76.691	77.434	81.978	195.967	80.982	-8191	255	
425.279	1	1	0	0	0.25103	0.17082	0.15205	0.15732	0.092915	0.13138	0.20344	0.055947	0.15917	0.12192	0.26384	0.42701	0.1948	0.26094	0.14906	0.13812	-3.9979	-4.0312	-4.0938	-4.4521	-3.775	-4.3125	-4.4479	-4.0458	-4.2937	-4.0125	-3.8771	-4.5333	-3.9562	-4.325	-4.3313	-3.9146	189.407	82.844	295.337	116.685	292.950	290.017	370.117	279.745	273.250	270.690	312.190	337.723	108.252	379.629	226.019	65.023	0.00089233	0.00067879	0.00016926	1387.2	5.7345e-06	4.3649e-06	1384.9	369.89	7.0987e-06	5.3069e-06	416.77	141.38	124.52	41.988	5.5538e-06	51.899	0.00073419	0.00076776	0.00022326	1413.9	7.8106e-06	8.3636e-06	1410.2	378.59	7.6391e-06	8.2315e-06	428.51	145.04	126.93	43.342	7.929e-06	53.698	100.716	140.683	150.847	68.244	194.498	211.482	68.088	72.928	183.412	216.694	72.405	76.787	77.365	82.020	198.712	81.006	-8191	255	
425.400	1	1	0	0	0.098943	0.17342	0.12407	0.16806	0.16616	0.15153	0.11722	0.19286	0.050723	0.18151	0.16957	0.088512	0.22704	0.16331	0.0060119	0.25221	-3.9062	-4.0979	-3.7271	-4.4125	-3.9729	-4.3042	-4.3562	-3.8708	-4.4021	-4.1729	-3.9958	-4.3521	-3.9417	-4.0875	-4.2458	-3.8417	274.731	131.962	64.622	387.606	374.438	94.180	380.732	371.000	239.497	249.540	400.453	108.216	76.729	56.449	274.182	361.444	0.00084431	0.00059687	9.6795e-05	1387.9	6.0829e-06	5.045e-06	1385.7	369.86	6.5311e-06	6.6328e-06	418.91	141.7	123.54	42.059	5.8655e-06	51.942	0.00071756	0.00075445	0.00021191	1414.9	7.5272e-06	8.1939e-06	1410.5	378.2	7.3823e-06	8.578e-06	428.89	144.78	126.77	43.311	8.0463e-06	53.71	101.046	151.622	149.357	68.426	191.789	206.717	68.058	73.162	195.760	204.200	72.467	76.727	77.272	82.126	213.619	81.196	-8191	255	
425.496	1	1	0	0	0.15239	0.16296	0.12908	0.46107	0.13758	0.11689	0.21079	0.19352	0.19093	0.21664	0.28755	0.044078	0.13166	0.058356	0.17053	0.22417	-3.9625	-4.025	-3.7812	-4.6854	-4.0104	-4.1896	-4.4354	-3.9104	-4.2083	-4.2708	-3.8521	-4.3521	-4.0354	-4.0792	-4.4604	-3.9188	256.433	387.994	239.369	350.952	101.661	302.345	327.375	385.264	333.068	245.179	67.373	255.204	278.418	293.066	255.336	343.214	0.0008767	0.00048954	0.00015538	1389.3	6.0929e-06	4.307e-06	1384.7	369.1	7.3282e-06	5.7387e-06	418.1	141.67	123.86	41.873	5.6425e-06	51.891	0.00072766	0.00075619	0.00022146	1413.9	8.0963e-06	8.0647e-06	1410.8	378.21	7.4287e-06	8.556e-06	428.9	144.9	126.8	43.322	7.706e-06	53.67	99.605	132.402	146.354	68.564	209.146	193.536	68.007	72.956	184.036	201.985	72.363	76.768	77.204	82.143	190.090	80.987	-8191	255	
425.568	1	1	0	0	0.23527	0.27593	0.2951	0.23593	0.1605	0.067686	0.26855	0.25386	0.085929	0.09905	0.18245	0.10195	0.3304	0.26922	0.25145	0.21066	-3.8979	-4.1896	-3.7896	-4.6375	-3.9542	-3.85	-4.4854	-4.0188	-4.1729	-4.3521	-3.85	-4.3917	-3.9813	-3.9583	-4.325	-3.9979	265.029	184.113	114.302	401.316	141.255	315.353	374.502	290.322	226.484	302.200	353.044	359.399	405.881	401.314	379.942	79.740	0.00085276	0.0005495	0.00013931	1387.2	4.8779e-06	5.4102e-06	1384.3	369.08	7.7495e-06	4.5136e-06	416.55	142.04	124	41.815	6.2047e-06	51.805	0.00073766	0.00070792	0.00021072	1414.9	7.7693e-06	8.0974e-06	1408.8	377.61	7.4931e-06	8.1703e-06	428.86	145	126.75	43.276	7.6003e-06	53.67	101.069	145.171	166.162	68.431	205.068	208.765	68.287	73.175	190.375	213.896	72.429	76.967	77.241	82.041	205.807	81.026	-8191	255	
425.689	1	1	0	0	0.041181	0.039035	0.090264	0.10455	0.070172	0.2187	0.062809	0.16531	0.21636	0.11929	0.16564	0.26938	0.31172	0.20205	0.072868	0.17506	-3.7271	-4.2771	-3.8604	-4.4062	-4.1583	-3.9292	-4.4313	-4.0125	-4.1125	-4.3	-3.8875	-4.3688	-4.0708	-3.8771	-4.3604	-3.9583	352.255	191.413	185.694	321.164	268.956	389.800	360.398	303.407	311.043	376.321	64.483	363.929	390.010	323.880	160.698	345.137	0.00083682	0.00045793	0.00011492	1385.3	6.9201e-06	4.664e-06	1387.4	371.36	7.0825e-06	5.0113e-06	419.46	142.02	123.98	41.972	5.2073e-06	51.984	0.00072685	0.00072849	0.00020866	1413.5	7.8175e-06	8.4788e-06	1411.3	378.66	7.63e-06	8.7489e-06	428.51	145.03	126.88	43.342	7.3212e-06	53.713	100.306	138.116	154.821	68.300	200.714	209.358	68.050	73.070	188.988	218.181	72.413	77.107	77.533	82.067	193.315	80.879	-8191	255	
425.783	1	1	0	0	0.19426	0.28864	0.20992	0.23861	0.2342	0.13534	0.057766	0.24262	0.089526	0.11521	0.011517	0.23238	0.13172	0.20349	0.17609	0.169	-3.6375	-4.4688	-3.8583	-4.1521	-4.1875	-3.8146	-4.5771	-4.1646	-4.1521	-4.3667	-3.8771	-4.3604	-4.4083	-3.7917	-4.2937	-4.1167	100.602	266.527	316.430	361.838	76.545	304.893	228.175	329.205	56.554	183.867	361.797	328.472	151.115	348.724	290.968	376.074	0.00083219	0.00062636	0.00015873	1384.9	5.9247e-06	3.0514e-06	1388.7	370.42	5.6745e-06	5.0247e-06	420.31	141.76	123.71	41.881	4.9731e-06	51.977	0.00075198	0.0007492	0.00021924	1414.4	7.5983e-06	8.3932e-06	1411.5	378.75	7.9478e-06	8.3256e-06	429.71	144.94	126.87	43.303	7.3441e-06	53.714	99.073	144.068	147.836	68.254	187.833	198.414	68.237	73.002	189.062	208.780	72.299	76.904	77.181	81.738	201.824	81.203	-8191	255	
425.879	1	1	0	0	0.11897	0.27276	0.092006	0.28501	0.055626	0.13262	0.082522	0.2606	0.099728	0.15477	0.04031	0.105	0.088794	0.14413	0.13872	0.02532	-3.5458	-4.5146	-3.9333	-4.1687	-4.1792	-3.8729	-4.4812	-4.2479	-3.8417	-4.3771	-4.1188	-4.1312	-4.3104	-3.9771	-4.175	-4.1896	287.110	402.840	344.122	386.847	112.999	77.557	380.280	346.340	230.830	339.538	192.166	356.085	331.841	294.020	260.150	212.128	0.00083588	0.0005652	0.00013448	1392.7	7.1638e-06	5.1117e-06	1387.3	370.36	6.9422e-06	4.2523e-06	419.28	142.26	123.64	41.717	5.1853e-06	51.932	0.00073856	0.00072284	0.00021898	1418.6	7.8071e-06	8.5815e-06	1413.1	378.58	7.7126e-06	7.7721e-06	429.45	145.03	126.81	43.258	7.8475e-06	53.643	100.272	150.457	153.942	68.549	186.000	205.944	68.181	73.148	195.945	216.019	72.273	76.972	77.254	81.792	196.733	81.307	-8191	255	
425.975	1	1	0	0	0.17938	0.064897	0.31068	0.43774	0.092587	0.022557	0.23242	0.037269	0.089462	0.1732	0.21125	0.053608	0.2198	0.017559	0.11295	0.1932	-3.5229	-4.5208	-3.8333	-4.3167	-4.2792	-3.9062	-4.4542	-4.3625	-3.9354	-4.4333	-3.9833	-4.1542	-4.3271	-4.0833	-4.1583	-4.2146	399.846	341.048	90.235	379.111	255.412	198.137	354.156	178.084	71.347	85.566	115.113	181.735	101.981	230.189	254.691	402.682	0.00085801	0.00051287	0.00011691	1384	6.8717e-06	4.5149e-06	1383.5	369.68	6.2842e-06	6.314e-06	416.85	141.25	123.61	41.709	6.0194e-06	51.695	0.00074359	0.00067483	0.0002069	1415.3	7.6006e-06	8.1238e-06	1410.7	378.42	7.5565e-06	7.9116e-06	428.32	144.74	126.68	43.181	7.1275e-06	53.556	100.283	142.646	147.214	68.668	195.260	215.771	68.166	73.189	194.711	211.562	72.528	76.765	77.390	81.941	194.043	80.943	-8191	255	
426.096	1	1	0	0	0.076003	0.28226	0.090752	0.40175	0.10515	0.14426	0.28752	0.065906	0.26402	0.11602	0.24396	0.229	0.099502	0.28627	0.10487	0.16957	-3.4896	-4.2937	-3.9333	-4.2167	-4.2333	-4.0938	-4.3354	-4.225	-3.9083	-4.4688	-4.1375	-3.975	-4.4062	-3.9354	-4.2958	-4.2875	263.417	334.473	114.044	366.634	302.451	123.798	367.343	206.043	188.399	229.824	275.806	358.855	168.601	387.789	386.215	379.240	0.00080719	0.00061923	0.00012742	1384.8	4.9527e-06	5.5692e-06	1385	370.1	7.107e-06	4.9449e-06	418.83	141.69	123.95	41.767	5.1576e-06	51.833	0.00072519	0.00066475	0.00020125	1413.6	7.2347e-06	7.6427e-06	1410.9	378.48	7.647e-06	8.2487e-06	428.59	144.73	126.71	43.287	7.4677e-06	53.633	99.459	142.720	154.544	68.507	199.655	208.055	68.258	72.858	187.462	192.434	72.374	77.047	77.459	82.129	206.906	80.949	-8191	255	
426.168	1	1	0	0	0.12025	0.20165	0.23401	0.15554	0.092463	0.12388	0.10651	0.12419	0.30276	0.091719	0.16855	0.16938	0.30607	0.30167	0.1592	0.11137	-3.4208	-4.6312	-3.8937	-4.1438	-4.3688	-3.8375	-4.2375	-4.5229	-3.9667	-4.5104	-4.1	-4	-4.5875	-3.9562	-4.0813	-4.4458	353.910	273.854	244.980	395.440	223.519	217.648	280.757	390.712	128.889	96.149	394.691	350.644	394.943	408.171	338.682	141.476	0.00087907	0.00047731	0.00015915	1386.4	5.8382e-06	4.6651e-06	1384.4	370.23	6.5889e-06	5.4035e-06	419.56	141.58	124.05	41.903	5.9333e-06	51.886	0.00074851	0.00069595	0.0002079	1416.6	7.4848e-06	8.2437e-06	1412.4	378.73	8.0044e-06	8.255e-06	429.81	145.2	126.94	43.324	7.5174e-06	53.688	99.540	148.714	148.976	68.278	199.626	200.528	68.124	73.230	193.587	209.245	72.669	76.991	77.686	81.934	208.448	81.032	-8191	255	
426.264	1	1	0	0	0.16549	0.21332	0.07691	0.15796	0.12617	0.11347	0.10426	0.078886	0.079698	0.10078	0.18849	0.31454	0.17549	0.14025	0.38588	0.30296	-3.3229	-4.3917	-3.9667	-3.9896	-4.4271	-4.0896	-4.3333	-4.5687	-4.0417	-4.325	-4.2271	-3.9708	-4.4854	-4.0229	-4.1979	-4.4667	106.644	153.952	107.953	111.430	107.728	147.579	349.651	127.888	366.579	295.431	392.379	380.305	91.939	329.522	206.338	389.586	0.00080845	0.00054364	0.00012686	1389.7	6.4724e-06	5.0511e-06	1386.8	370.64	7.3529e-06	6.5834e-06	418.05	141.57	124.02	41.783	5.7237e-06	51.795	0.00073032	0.00073777	0.0002108	1419.4	7.2347e-06	7.9884e-06	1414.9	379.48	7.3574e-06	7.3519e-06	429.38	145.04	126.98	43.195	7.4397e-06	53.753	99.483	143.685	145.600	68.542	203.532	199.403	68.051	72.948	183.464	204.580	72.487	76.781	77.512	81.881	206.723	81.023	-8191	255	
426.360	1	1	0	0	0.22125	0.16343	0.22945	0.28914	0.20963	0.24204	0.091967	0.078434	0.19845	0.030893	0.045622	0.10841	0.21885	0.25862	0.17277	0.096533	-3.4542	-4.0208	-4.1958	-3.8354	-4.1979	-3.9417	-4.1354	-4.425	-3.9271	-4.175	-4.2125	-3.8979	-4.4167	-4.0833	-4.0729	-4.6479	331.491	248.037	256.749	82.846	125.762	342.335	409.752	182.758	76.604	337.379	152.797	388.098	56.356	396.260	254.782	336.103	0.00082061	0.00066919	0.00013532	1389.3	5.715e-06	4.8314e-06	1391	370.46	6.6675e-06	5.7229e-06	417.9	141.5	123.44	41.744	5.7509e-06	52.114	0.00072419	0.00064511	0.00019078	1417.2	7.0064e-06	7.7486e-06	1415.2	378.9	7.3518e-06	7.7188e-06	428.88	145.01	126.89	43.214	7.3326e-06	53.829	96.461	151.814	150.615	68.433	210.158	211.679	68.156	73.117	195.219	219.470	72.501	77.045	77.377	82.037	189.939	81.096	-8191	255	
426.480	1	1	0	0	0.16254	0.2005	0.15131	0.36198	0.1574	0.17588	0.25396	0.22096	0.11689	0.22234	0.12427	0.19076	0.11048	0.17269	0.29198	0.19408	-3.4813	-4.1687	-4.25	-4.0729	-4.3187	-4.1	-4.0979	-4.3896	-4.0521	-4.2375	-4.3604	-3.8979	-4.5104	-4.1708	-3.8396	-4.4021	131.532	290.620	214.053	363.031	312.159	406.141	320.151	377.021	226.358	344.217	400.269	387.159	411.201	382.126	188.903	398.056	0.00083427	0.00053253	0.00012901	1389.3	5.6852e-06	4.2049e-06	1385	370.75	6.3025e-06	3.8096e-06	419.84	141.61	123.75	41.836	4.497e-06	51.946	0.00070811	0.00069339	0.00018772	1419.5	6.9823e-06	7.3952e-06	1414.2	379.59	7.3201e-06	7.562e-06	429.95	145.07	127.02	43.27	7.3059e-06	53.834	101.398	148.899	150.834	68.460	203.919	208.415	68.058	73.049	183.806	196.586	72.555	76.802	77.420	82.173	203.212	81.309	-8191	255	
426.577	1	1	0	0	0.040569	0.10684	0.17228	0.21026	0.099559	0.097644	0.22397	0.1864	0.1025	0.045641	0.1727	0.1248	0.29627	0.10052	0.18357	0.15777	-3.5667	-3.8792	-4.2729	-4.0062	-4.2708	-4.2208	-4.1146	-4.5125	-3.9417	-4.0604	-4.3562	-3.9146	-4.3667	-4.4979	-3.8917	-4.4833	99.445	303.011	282.712	366.420	231.735	293.126	114.576	359.357	392.595	149.820	308.690	167.189	399.404	72.735	412.975	251.571	0.00088005	0.00043895	0.00014879	1391.3	7.1675e-06	5.2415e-06	1387.3	371.85	9.0431e-06	5.6098e-06	420.81	141.36	123.94	41.823	5.7255e-06	52.191	0.00073077	0.00069178	0.00019628	1420.2	7.4205e-06	7.4388e-06	1416.3	379.36	7.2613e-06	8.0716e-06	430.75	144.97	127.17	43.326	7.5659e-06	53.976	98.959	139.515	152.470	68.448	191.747	196.323	68.152	73.146	194.738	214.705	72.442	76.988	77.494	81.957	208.755	81.065	-8191	255	
426.673	1	1	0	0	0.24141	0.051797	0.094677	0.067502	0.14359	0.064598	0.0090548	0.092663	0.20237	0.12555	0.20733	0.15239	0.065444	0.10293	0.071575	0.062103	-3.6042	-4.0458	-4.275	-4.0583	-4.2521	-4.35	-3.9062	-4.4583	-4.0479	-3.7875	-4.5333	-3.9646	-4.1958	-4.3187	-3.9562	-4.3042	321.036	205.878	395.879	398.969	101.172	127.976	386.347	327.290	123.752	247.532	398.835	373.917	80.989	333.026	387.939	141.583	0.00082648	0.00051401	0.00016265	1389.5	6.4737e-06	4.7063e-06	1387.7	370.2	7.1856e-06	5.7371e-06	419.42	141.81	123.54	41.853	4.6757e-06	52.143	0.00072359	0.00070133	0.00019131	1419.3	7.424e-06	7.2878e-06	1416	379.04	7.4988e-06	8.2142e-06	429.96	145.18	127.07	43.346	7.2371e-06	53.949	97.614	150.647	148.878	68.316	192.017	204.344	68.216	73.203	184.826	216.869	72.570	76.914	77.468	82.009	206.736	81.116	-8191	255	
426.769	1	1	0	0	0.22804	0.19163	0.016442	0.3491	0.20663	0.067012	0.12575	0.26922	0.18585	0.08453	0.16191	0.28265	0.24958	0.14687	0.02298	0.06375	-3.6896	-3.7979	-4.3562	-4.1	-4.0604	-4.3083	-4.0625	-4.4479	-4.1646	-3.9375	-4.5646	-3.9958	-4.1104	-4.4292	-3.9125	-4.2688	235.188	133.272	209.522	62.411	236.234	369.450	288.794	396.581	83.470	169.649	271.960	336.930	91.894	361.041	237.274	220.660	0.00083518	0.00062507	0.00014702	1395.9	6.7483e-06	4.1396e-06	1390.7	369.97	5.7337e-06	5.6529e-06	418.86	141.84	124	41.783	6.6409e-06	52.258	0.00072494	0.00069675	0.00018562	1420.6	7.5077e-06	7.6521e-06	1417.2	379.45	7.3359e-06	8.1688e-06	429.87	145.16	127.17	43.275	7.4741e-06	54.038	100.203	145.880	148.849	68.313	196.634	216.009	68.166	72.992	188.974	218.185	72.664	76.911	77.556	81.831	205.675	80.963	-8191	255	
426.865	1	1	0	0	0.18195	0.18181	0.38784	0.37606	0.13394	0.092689	0.075213	0.15523	0.19206	0.1421	0.16448	0.071331	0.31377	0.32425	0.14342	0.1537	-3.6479	-3.8917	-4.3604	-4.1271	-3.9479	-4.275	-3.9917	-4.4292	-4.1021	-3.9208	-4.5583	-4.1875	-4.05	-4.5125	-3.9604	-4.2937	118.556	57.348	284.788	375.926	84.255	278.528	324.303	365.853	62.828	284.570	325.503	170.664	412.576	381.978	177.514	327.535	0.00084695	0.00044511	0.00015129	1396	5.7223e-06	5.0163e-06	1389.7	372.11	7.7495e-06	5.6326e-06	419.55	141.86	124.12	42.039	6.0242e-06	52.315	0.00071052	0.00070536	0.00019128	1423.2	7.3586e-06	7.3968e-06	1418.2	380.04	7.6809e-06	8.0449e-06	430.6	145.44	127.34	43.37	8.0718e-06	54.057	99.891	140.061	147.750	68.471	203.339	198.278	68.257	72.956	186.956	204.113	72.403	76.914	77.345	81.716	198.797	81.068	-8191	255	
426.961	1	1	0	0	0.20945	0.13713	0.15357	0.31673	0.027735	0.1398	0.24647	0.088818	0.22983	0.076837	0.15607	0.20228	0.17212	0.13998	0.13174	0.30422	-3.7771	-3.7	-4.4208	-4.3771	-3.9313	-4.4604	-3.9771	-4.1625	-4.2937	-3.8771	-4.4437	-4.0771	-4.0146	-4.5208	-3.85	-4.2562	390.885	262.835	93.171	360.249	399.617	245.711	290.443	315.627	319.926	313.075	350.976	389.374	358.968	361.405	405.228	331.816	0.0008647	0.0004527	0.00011496	1396.7	5.7782e-06	3.6553e-06	1395.8	371.94	6.4979e-06	6.7885e-06	420.7	141.43	124.58	42.039	5.005e-06	52.246	0.00072972	0.0007605	0.00019617	1425	7.7429e-06	7.3485e-06	1422.7	380.58	7.3552e-06	8.7222e-06	431.19	145.56	127.55	43.446	8.0743e-06	54.098	99.132	169.788	151.177	68.461	203.613	203.354	68.020	72.902	186.433	208.543	72.587	76.986	77.424	81.913	215.394	80.899	-8191	255	
427.080	1	1	0	0	0.15073	0.19769	0.12197	0.12724	0.026651	0.075088	0.10713	0.089928	0.20495	0.21962	0.077589	0.21557	0.26462	0.17325	0.072533	0.15346	-3.975	-3.8833	-4.1896	-4.2167	-3.8833	-4.4875	-4.1188	-4.3438	-4.3292	-3.85	-4.4917	-4.1937	-3.8292	-4.4125	-4.0083	-4.1813	152.616	315.623	327.873	184.348	362.546	162.609	80.839	243.388	299.584	191.011	89.377	385.067	104.543	409.451	81.662	385.104	0.00084648	0.00049078	0.00014052	1397.6	5.1334e-06	5.0078e-06	1400.1	372.17	7.1132e-06	4.9706e-06	421.22	141.48	124.23	41.917	5.5135e-06	52.219	0.00072972	0.00077112	0.00021103	1429.2	8.0985e-06	7.7346e-06	1425.1	380.75	7.1685e-06	8.498e-06	431.71	145.87	127.64	43.382	8.073e-06	54.124	100.616	122.368	154.030	68.426	194.038	210.700	68.102	73.008	197.000	202.528	72.583	76.913	77.617	81.879	195.781	80.906	-8191	255	
427.176	1	1	0	0	0.067513	0.24371	0.23817	0.30261	0.071519	0.15088	0.1577	0.027877	0.22214	0.019821	0.21643	0.23471	0.30622	0.088349	0.29235	0.093516	-3.9875	-3.7583	-4.0854	-4.2729	-3.8187	-4.2312	-4.2708	-4.2167	-4.3854	-3.9104	-4.3167	-4.3854	-3.9521	-4.3688	-4.05	-4.0521	267.674	296.861	88.735	65.100	369.382	280.658	357.825	243.038	113.508	208.960	365.280	407.831	411.454	413.578	230.660	247.901	0.00082971	0.00036134	0.00014685	1397.9	6.3877e-06	4.5251e-06	1401.5	372.65	5.347e-06	5.3648e-06	419.98	142.76	124.53	42.068	5.01e-06	52.291	0.00072148	0.00072271	0.00020813	1429.8	7.7922e-06	8.032e-06	1425.9	380.88	7.285e-06	8.6031e-06	431.25	146.02	127.76	43.421	8.1024e-06	54.133	96.787	138.207	152.687	68.610	195.207	203.702	68.136	72.817	185.718	197.125	72.486	76.904	77.432	81.970	205.606	81.012	-8191	255	
427.272	1	1	0	0	0.056081	0.12578	0.068591	0.013604	0.18147	0.16347	0.22706	0.33314	0.35007	0.0941	0.13899	0.18204	0.22461	0.24649	0.12826	0.1602	-4.1229	-3.6729	-4.1562	-4.4187	-3.85	-4.3833	-4.2021	-4.0542	-4.2188	-3.8875	-4.3125	-4.2937	-3.8979	-4.3896	-4.05	-3.975	343.372	138.443	58.396	161.627	134.719	365.302	402.541	351.674	195.127	141.797	302.255	301.272	307.703	383.695	68.220	392.884	0.00087114	0.00055649	0.00014848	1401.7	6.1922e-06	5.5931e-06	1400.6	372.19	6.0586e-06	4.2116e-06	423.44	142.21	124.58	41.959	4.5113e-06	52.397	0.00074922	0.00075646	0.0002244	1433.5	8.0561e-06	8.0351e-06	1427.1	381.87	7.5011e-06	9.0186e-06	432.9	145.86	127.72	43.44	8.1941e-06	54.287	101.262	141.278	155.145	68.367	196.327	211.870	68.084	73.016	191.247	213.129	72.390	76.849	77.262	81.974	193.870	81.170	-8191	255	
427.369	1	1	0	0	0.089864	0.17634	0.17953	0.066777	0.21942	0.27318	0.16356	0.42683	0.18062	0.21319	0.18785	0.050729	0.29012	0.29006	0.32349	0.20028	-3.8937	-3.8021	-4.1562	-4.4208	-3.7271	-4.1771	-4.1604	-3.9271	-4.3187	-4.0229	-4.0938	-4.4292	-3.9562	-4.1646	-4.2104	-3.9333	99.068	305.983	253.041	402.662	277.186	347.076	399.305	60.685	277.065	400.152	304.839	85.753	324.939	342.505	93.792	288.640	0.00083101	0.00055923	0.00013745	1402.3	7.4238e-06	4.9141e-06	1402.1	372.03	6.8117e-06	4.8798e-06	420.62	142.39	124.29	41.932	5.9629e-06	52.2	0.00073856	0.00080649	0.00020927	1432.7	7.9391e-06	8.6609e-06	1428.8	381.55	7.7442e-06	9.2302e-06	431.88	145.98	127.63	43.501	8.2196e-06	54.209	98.931	151.937	149.393	68.378	191.429	202.681	68.094	72.846	195.548	207.712	72.370	76.833	77.199	81.952	182.702	80.866	-8191	255	
427.465	1	1	0	0	0.014513	0.25214	0.10998	0.33819	0.16681	0.24187	0.18696	0.085341	0.028401	0.21954	0.1245	0.069776	0.09886	0.27324	0.14064	0.17546	-4.0125	-3.9792	-3.8646	-4.5563	-3.9813	-4.2104	-4.4042	-4.0021	-4.5083	-4.1375	-4.0792	-4.6354	-3.9313	-4.3625	-4.1875	-3.6979	382.656	91.520	221.072	409.627	57.296	219.375	363.346	414.090	299.399	237.318	334.295	65.437	67.309	396.463	233.315	367.774	0.00087542	0.00053712	0.00013449	1406.2	5.6011e-06	5.334e-06	1404.1	373.88	6.9326e-06	4.7045e-06	420.49	142.96	124.75	42.047	6.0914e-06	52.255	0.00074922	0.00080125	0.00021126	1435	8.25e-06	8.7917e-06	1430.9	382.4	7.742e-06	8.9778e-06	432.02	146.02	127.95	43.494	7.887e-06	54.171	99.657	142.633	137.350	68.348	202.021	214.760	68.162	73.108	183.494	210.675	72.466	76.822	77.335	81.641	205.882	80.862	-8191	255	
427.561	1	1	0	0	0.22447	0.11857	0.026071	0.085894	0.1223	0.15424	0.086217	0.40477	0.12392	0.29458	0.10471	0.27586	0.23564	0.10859	0.053328	0.17799	-3.9229	-4.0625	-3.9375	-4.5708	-3.7729	-4.1	-4.4812	-3.8312	-4.2	-4.0646	-4.0833	-4.4479	-4.0021	-4.2042	-4.275	-3.6729	222.869	114.451	170.347	323.116	140.652	382.974	100.071	355.463	71.475	260.765	357.513	58.851	398.691	403.140	140.898	227.233	0.00085821	0.00054415	0.00013902	1398.7	5.3626e-06	3.7036e-06	1406.9	373.86	7.1806e-06	5.6665e-06	421.47	142.05	124.22	42.154	5.2893e-06	52.406	0.00075253	0.00079667	0.00022054	1434.1	8.1502e-06	8.2655e-06	1431.3	381.87	8.0406e-06	8.9417e-06	432.74	145.89	127.79	43.532	7.836e-06	54.185	100.275	137.381	139.228	68.308	187.594	208.229	67.879	72.942	192.186	206.296	72.291	77.005	77.223	81.880	213.211	81.097	-8191	255	
427.657	1	1	0	0	0.082325	0.08152	0.14401	0.11856	0.10651	0.36489	0.11606	0.28404	0.18399	0.11386	0.17661	0.24616	0.092483	0.17527	0.012306	0.27599	-3.9417	-4.2896	-3.8104	-4.4104	-3.9625	-4.025	-4.5333	-3.8771	-4.2937	-4.1104	-3.975	-4.4313	-3.9917	-3.9708	-4.3187	-3.9021	240.529	405.009	63.548	82.910	201.510	230.614	274.541	382.019	81.023	87.361	168.760	367.372	356.997	317.004	63.323	383.651	0.00082107	0.00050205	0.00010511	1407	6.556e-06	4.4649e-06	1406.8	372.22	7.1169e-06	4.8875e-06	419.79	142.62	124.5	42.124	6.5078e-06	52.348	0.0007156	0.0007761	0.00021749	1435.9	8.2569e-06	8.5006e-06	1429.9	381.95	8.0044e-06	7.9022e-06	432.64	146.06	127.91	43.561	7.8322e-06	54.194	104.088	145.327	145.383	68.371	203.820	215.807	68.197	72.960	190.311	210.213	72.336	76.832	77.285	81.929	194.215	81.004	-8191	255	
427.753	1	1	0	0	0.17697	0.12519	0.23442	0.16187	0.25081	0.16875	0.17794	0.13683	0.0087147	0.075651	0.048525	0.17654	0.29316	0.44084	0.1276	0.20416	-3.8896	-4.125	-3.7083	-4.5208	-3.9354	-4.0125	-4.6687	-3.9021	-4.3396	-4.2063	-4.0292	-4.3167	-4.0521	-3.9417	-4.3583	-3.825	287.091	188.453	171.167	387.097	250.133	197.876	64.096	365.890	132.737	380.115	334.441	326.543	414.956	376.541	120.878	62.427	0.00086583	0.00055244	0.00017558	1404.7	6.7608e-06	5.5475e-06	1402.8	372.08	7.2247e-06	4.8892e-06	420.23	142.09	124.92	41.998	4.9566e-06	52.406	0.00076314	0.00073629	0.0002194	1433.5	8.3096e-06	8.6423e-06	1430	381.29	8.2023e-06	8.1092e-06	431.87	145.9	128.06	43.509	7.4448e-06	54.23	103.576	132.422	147.453	68.213	199.569	206.894	68.031	73.041	197.395	186.103	72.358	76.899	77.228	82.037	209.333	80.996	-8191	255	
427.872	1	1	0	0	0.14719	0.081481	0.061037	0.029039	0.11517	0.16677	0.2101	0.15167	0.18294	0.073272	0.093993	0.2493	0.11758	0.22492	0.22794	0.12048	-3.6917	-4.1729	-3.6979	-4.4979	-4.0896	-3.9125	-4.7188	-3.9354	-4.0729	-4.3187	-3.8625	-4.35	-4.1979	-3.8354	-4.3083	-4.1854	377.876	377.429	375.778	383.484	167.164	251.228	380.675	353.284	223.318	74.367	292.969	361.260	375.265	358.021	74.179	293.603	0.00086373	0.00049824	0.00014086	1401.7	5.9342e-06	4.1982e-06	1405.3	372.08	5.7962e-06	5.0901e-06	419.45	142.02	124.57	42.221	4.5517e-06	52.369	0.0007463	0.00073266	0.00021966	1430.7	7.8266e-06	8.3387e-06	1428.1	381.54	7.906e-06	8.1829e-06	432.38	145.9	127.71	43.573	7.6882e-06	54.194	101.102	146.601	148.560	68.323	207.582	191.501	68.230	73.004	190.570	218.641	72.718	76.949	77.345	81.946	212.839	80.756	-8191	255	
427.968	1	1	0	0	0.093294	0.32778	0.17548	0.46764	0.074719	0.1525	0.37717	0.33254	0.15531	0.069903	0.34951	0.23826	0.014078	0.43697	0.2044	0.089561	-3.6792	-4.1646	-3.7833	-4.3104	-4.2792	-3.9313	-4.4646	-4.2417	-3.9542	-4.325	-3.825	-4.2708	-4.375	-3.7687	-4.3146	-4.15	290.711	161.689	70.054	334.337	357.242	214.910	347.659	361.041	310.609	183.878	404.602	352.618	146.736	367.593	391.230	311.637	0.00085273	0.00058501	0.00013226	1403.4	6.0168e-06	4.3353e-06	1403.3	372.14	6.8841e-06	3.1839e-06	420.54	142.07	124.66	42.115	5.5795e-06	52.341	0.00075907	0.00072634	0.00022769	1432.7	7.8817e-06	8.1518e-06	1428.6	381.39	7.7623e-06	7.8991e-06	432.22	146.04	127.85	43.494	8.0692e-06	54.208	100.987	142.518	158.906	68.396	204.188	198.212	68.246	73.094	192.604	206.529	72.020	77.121	77.185	81.493	201.962	81.109	-8191	255	
428.042	1	1	0	0	0.12437	0.094728	0.070988	0.12577	0.08991	0.046064	0.31386	0.2149	0.14483	0.24378	0.42264	0.079418	0.16813	0.17898	0.3403	0.31365	-3.7479	-4.4187	-3.9042	-4.3479	-4.1146	-3.9167	-4.5708	-4.2229	-3.8646	-4.3313	-3.9833	-4.0771	-4.4292	-3.8896	-4.2958	-4.0646	332.489	316.736	277.052	408.160	277.106	410.659	388.127	325.231	204.534	319.622	335.922	177.549	381.990	350.798	168.077	332.168	0.00082995	0.00060352	0.00015897	1404.7	6.0293e-06	4.7993e-06	1403.4	371.63	8.5294e-06	6.2488e-06	423.23	141.76	124.34	42.084	5.7111e-06	52.338	0.00074183	0.00076292	0.00022012	1433.6	8.001e-06	9.0642e-06	1430.3	381.6	8.0971e-06	8.9339e-06	432.77	145.53	127.75	43.523	8.1852e-06	54.161	99.651	138.060	139.856	68.329	194.222	216.851	68.221	73.094	199.056	213.773	72.508	77.009	77.118	82.126	210.003	81.152	-8191	255	
428.160	1	1	0	0	0.18038	0.14791	0.15545	0.35157	0.22964	0.13031	0.16107	0.12219	0.057541	0.092736	0.16997	0.05704	0.16263	0.072391	0.095796	0.11199	-3.4083	-4.2167	-3.725	-4.2167	-4.2417	-3.8458	-4.425	-4.0604	-3.8458	-4.4062	-4.0917	-4.0458	-4.5396	-4.0083	-4.3833	-4.1062	172.832	320.119	316.558	398.853	155.793	400.169	297.971	351.454	411.958	193.023	380.342	318.443	324.148	401.699	266.737	391.032	0.00084911	0.00045379	0.00014764	1403.7	6.5388e-06	5.1066e-06	1404.5	372	7.1688e-06	4.7741e-06	420.39	142.08	124.13	42.032	6.5498e-06	52.144	0.00076148	0.00072136	0.00022414	1433.6	7.9987e-06	9.318e-06	1432	381.59	8.4093e-06	8.2048e-06	432	146	127.77	43.557	8.2604e-06	54.144	100.803	159.953	154.715	68.388	211.321	216.057	68.069	73.249	190.049	203.408	72.480	76.776	77.349	82.067	204.175	80.660	-8191	255	
428.257	1	1	0	0	0.099961	0.11273	0.18597	0.18277	0.22629	0.056716	0.16964	0.13849	0.15774	0.17679	0.11862	0.31847	0.26133	0.11946	0.14224	0.061029	-3.3083	-4.0729	-3.9688	-4.1083	-4.2812	-3.7687	-4.425	-4.275	-3.7479	-4.2646	-3.9604	-3.9542	-4.4979	-3.9917	-4.3542	-4.3625	208.467	181.881	186.161	372.109	413.828	385.018	375.361	337.645	355.729	125.245	346.507	394.358	362.893	370.774	209.699	128.870	0.00084756	0.00054215	0.00015222	1403.5	7.1748e-06	4.7896e-06	1401.1	372.42	6.981e-06	5.2206e-06	420.03	141.66	124.46	42.179	5.6086e-06	52.334	0.00075309	0.00075364	0.00022692	1435.1	8.1708e-06	9.5639e-06	1431.1	381.54	8.5314e-06	9.2412e-06	431.75	145.65	127.68	43.562	8.0883e-06	54.178	100.037	137.851	147.822	68.535	200.015	208.655	68.269	72.797	189.464	211.163	72.375	76.803	77.188	82.031	206.085	81.159	-8191	255	
428.353	1	1	0	0	0.11938	0.10861	0.10471	0.39661	0.1441	0.15972	0.20345	0.17975	0.1501	0.15101	0.31399	0.15634	0.064691	0.13914	0.14865	0.12943	-3.4833	-4.2729	-3.9562	-4.1042	-4.5021	-3.9208	-4.3208	-4.3792	-3.8542	-4.325	-4.2312	-3.9479	-4.375	-3.9792	-4.2646	-4.4042	228.170	123.710	90.566	387.440	312.833	306.178	386.183	380.531	247.887	398.184	346.501	308.309	162.482	330.403	85.242	65.366	0.00083321	0.0006372	0.00012529	1405.2	6.3309e-06	4.7914e-06	1402.7	371.09	7.5267e-06	5.5216e-06	421.26	142.27	124.61	42.007	5.4279e-06	52.237	0.00075841	0.00078188	0.00023166	1435.2	8.3372e-06	9.0875e-06	1429	380.93	8.191e-06	8.5121e-06	432.41	146.02	127.69	43.48	8.2056e-06	54.057	99.786	139.385	145.193	68.219	212.516	213.796	68.084	72.912	187.368	204.093	72.352	76.924	77.347	81.955	193.732	80.938	-8191	255	
428.449	1	1	0	0	0.079074	0.18296	0.094716	0.34992	0.15842	0.17422	0.23163	0.20694	0.23752	0.070355	0.22136	0.12696	0.1774	0.060392	0.033931	0.14101	-3.4375	-4.3271	-3.9958	-3.975	-4.3396	-3.9271	-4.3521	-4.4646	-3.7833	-4.1625	-4.1792	-3.9854	-4.3812	-3.8937	-3.9125	-4.4563	340.424	375.273	127.476	61.205	303.437	199.752	405.986	346.946	100.895	117.209	348.538	253.857	122.560	317.320	344.117	299.876	0.00088824	0.00048247	0.00013785	1404.6	6.9167e-06	5.5607e-06	1401.3	373.46	6.8703e-06	4.9391e-06	419.97	142.5	125.34	42.025	5.5974e-06	52.376	0.00076791	0.00077959	0.0002087	1434.1	8.0458e-06	9.0159e-06	1429.7	382.01	8.3165e-06	8.2409e-06	431.02	146.04	127.98	43.556	8.2502e-06	54.159	97.691	166.171	139.172	68.305	202.314	195.747	68.151	73.319	189.257	200.125	72.441	76.757	77.600	82.045	201.693	80.910	-8191	255	
428.570	1	1	0	0	0.16132	0.044382	0.23166	0.1202	0.1598	0.12961	0.22594	0.40459	0.18774	0.2578	0.1741	0.12748	0.091643	0.21856	0.12822	0.17998	-3.3375	-4.1354	-4.075	-3.8312	-4.35	-4.1833	-4.1375	-4.4729	-3.8292	-4.0938	-4.3542	-3.8167	-4.4521	-4.1167	-3.8583	-4.3771	202.484	183.876	274.948	351.379	161.150	199.235	362.832	355.114	306.886	391.249	414.114	232.628	391.669	360.221	284.708	200.012	0.00085566	0.00054624	0.00017267	1401	6.5985e-06	4.905e-06	1400.7	372.17	7.225e-06	6.3994e-06	420.03	142.17	124.45	42.223	5.6895e-06	52.244	0.00076083	0.00076695	0.00021508	1432.9	8.0205e-06	8.8462e-06	1429.1	381.21	8.1797e-06	8.6517e-06	431.9	146.01	127.8	43.513	7.9163e-06	54.106	98.730	142.347	156.365	68.333	189.974	203.122	68.153	73.085	188.132	191.595	72.476	76.930	77.235	82.216	190.451	80.846	-8191	255	
428.666	1	1	0	0	0.055021	0.13691	0.055483	0.47219	0.25451	0.11395	0.091133	0.23107	0.10128	0.15952	0.15181	0.25881	0.19895	0.18986	0.055402	0.20039	-3.2896	-4.0792	-4.2917	-3.9542	-4.3792	-4.2208	-4.0604	-4.45	-3.8458	-4.2208	-4.4792	-3.8521	-4.2417	-4.1771	-3.9062	-4.4563	69.361	197.624	229.118	399.781	159.215	287.712	355.732	375.395	404.670	373.416	68.176	72.535	407.727	357.566	66.812	327.489	0.00087868	0.00044368	0.00013922	1397.6	6.1682e-06	5.3664e-06	1403.2	371.48	6.8035e-06	4.4338e-06	420.97	142.39	124.23	42.102	4.758e-06	52.395	0.00078058	0.00073064	0.00020526	1432	7.8852e-06	8.4227e-06	1429.6	381.48	8.1277e-06	8.8931e-06	431.81	146.07	127.78	43.513	8.2566e-06	54.129	99.359	134.334	145.614	68.508	198.955	201.354	68.119	72.984	185.040	204.107	72.277	76.765	77.396	81.939	198.080	81.123	-8191	255	
428.762	1	1	0	0	0.46962	0.12415	0.19528	0.45241	0.04322	0.097285	0.41941	0.21874	0.19643	0.12564	0.14826	0.22501	0.298	0.24306	0.059497	0.21041	-3.5583	-4.0208	-4.2875	-3.8875	-4.075	-4.2438	-3.9604	-4.3688	-3.8042	-4	-4.4479	-3.9188	-4.4208	-4.3479	-3.7583	-4.2854	346.614	73.082	349.254	399.769	239.610	280.797	322.544	355.838	288.622	331.878	294.567	374.038	358.826	395.008	160.546	333.516	0.0008667	0.00058473	0.0001528	1405.7	6.4189e-06	5.061e-06	1403.3	371.77	6.4289e-06	6.789e-06	420.43	142.02	124.98	42.017	6.0656e-06	52.385	0.00075133	0.00076803	0.00021042	1434.3	7.9333e-06	8.4056e-06	1429.8	381.26	7.958e-06	8.6564e-06	431.88	145.9	127.79	43.48	8.5458e-06	54.143	100.352	154.163	146.921	68.568	190.505	215.342	68.302	72.874	203.663	203.773	72.408	76.765	77.551	81.744	201.191	81.109	-8191	255	
428.856	1	1	0	0	0.10034	0.1595	0.21456	0.30587	0.1504	0.15818	0.17922	0.2623	0.18548	0.1837	0.21266	0.124	0.10241	0.27483	0.1698	0.1242	-3.675	-3.9021	-4.2354	-4.1854	-4.1396	-4.0542	-4.0521	-4.55	-3.9604	-3.875	-4.4688	-3.9375	-4.225	-4.2021	-3.8292	-4.3562	346.983	87.888	132.852	368.648	310.272	151.140	346.035	303.517	81.617	409.413	380.423	391.083	294.558	353.250	264.703	59.508	0.00084866	0.00049933	0.00010872	1400.5	7.0199e-06	4.185e-06	1399.3	372.25	6.4982e-06	5.8756e-06	419.36	142.24	124.45	41.997	6.1137e-06	51.979	0.00074288	0.00073185	0.00020442	1432.6	7.7199e-06	7.6536e-06	1426	381.27	7.8076e-06	8.6031e-06	431.62	145.89	127.65	43.461	8.254e-06	54.02	98.910	148.299	137.004	68.336	189.687	208.304	68.144	73.116	193.185	191.923	72.610	76.696	77.275	81.808	203.908	80.953	-8191	255	
428.952	1	1	0	0	0.02018	0.296	0.16217	0.2894	0.22514	0.17101	0.2492	0.055691	0.10345	0.062592	0.1898	0.28884	0.20838	0.17902	0.081643	0.069642	-3.6896	-3.8979	-4.4437	-4.0333	-4.0417	-4.2562	-3.9354	-4.3708	-4.1958	-3.7917	-4.4938	-4.0938	-4.2208	-4.3792	-3.8646	-4.2937	106.716	323.241	387.671	379.292	146.141	237.900	397.328	283.793	119.833	57.749	324.271	347.743	412.129	399.914	165.708	358.201	0.00086244	0.00061726	0.00013571	1397.3	5.9564e-06	6.0603e-06	1401.3	372.47	5.9737e-06	5.2025e-06	420.19	142.98	124.8	42.086	4.7478e-06	52.404	0.0007354	0.00073643	0.00020942	1431	7.588e-06	8.0335e-06	1428.2	380.98	7.6085e-06	8.4526e-06	431.55	146.2	127.79	43.496	8.0616e-06	54.114	100.931	129.432	161.412	68.295	202.378	204.567	68.069	73.056	184.827	216.360	72.407	77.002	77.442	81.963	214.767	80.937	-8191	255	
429.049	1	1	0	0	0.22569	0.21106	0.25898	0.30625	0.12444	0.038876	0.12163	0.2404	0.10247	0.1088	0.16244	0.047766	0.12498	0.18304	0.19665	0.10241	-3.7667	-3.6521	-4.1687	-4.0188	-3.9771	-4.2396	-4.0375	-4.3604	-4.0083	-3.7042	-4.4062	-4.2125	-4.1167	-4.4625	-3.8875	-4.2958	238.550	383.485	365.538	408.469	97.112	81.507	363.078	366.347	252.991	193.228	329.788	406.528	360.494	328.640	368.278	338.428	0.00080882	0.00045066	0.00013909	1404.5	7.6248e-06	5.0681e-06	1397	372.36	5.7625e-06	6.5598e-06	421.11	142.24	124.47	41.995	5.9447e-06	52.134	0.0007173	0.00080165	0.00020855	1434.7	7.6133e-06	8.376e-06	1427.1	381.33	7.9241e-06	9.017e-06	432.74	145.9	127.88	43.447	8.3088e-06	54.053	97.926	141.918	153.964	68.344	206.770	218.229	68.203	73.120	187.367	208.694	72.513	76.764	77.227	82.102	196.499	81.000	-8191	255	
429.169	1	1	0	0	0.18519	0.05989	0.1591	0.20772	0.14395	0.12963	0.20896	0.20641	0.17601	0.14128	0.14193	0.23861	0.14841	0.28242	0.16153	0.15946	-3.7167	-3.825	-4.3854	-4.0604	-3.9396	-4.2562	-4.0042	-4.2417	-4.1979	-3.8812	-4.475	-4.1937	-4.0771	-4.3604	-3.7833	-4.2417	101.446	349.045	189.146	335.425	311.806	229.003	290.902	334.321	148.849	150.763	326.279	340.459	97.009	366.566	357.644	64.574	0.0008547	0.00065225	0.00014791	1399	6.0641e-06	5.8471e-06	1406.1	373.5	6.9703e-06	5.0424e-06	421.3	142.18	124.67	42.037	5.0533e-06	52.495	0.00072761	0.00077704	0.00021653	1432.9	7.7165e-06	8.1581e-06	1430.7	381.75	7.7408e-06	9.1017e-06	432.38	145.9	127.85	43.517	8.4337e-06	54.138	98.839	137.261	152.679	68.540	202.784	202.737	68.040	73.089	192.255	188.468	72.498	76.922	77.472	82.058	206.141	81.036	-8191	255	
429.265	1	1	0	0	0.17182	0.12269	0.099267	0.1617	0.27604	0.15571	0.27077	0.16691	0.1515	0.1717	0.037971	0.10077	0.1774	0.052145	0.15332	0.14052	-3.9875	-3.8125	-4.3146	-4.2917	-3.8563	-4.5062	-4.1833	-4.2104	-4.375	-3.8937	-4.3479	-4.2729	-3.8292	-4.4417	-3.9708	-4.05	165.547	347.336	288.065	401.665	285.410	156.703	318.859	377.407	151.201	72.950	354.492	237.611	349.283	394.930	93.840	63.453	0.00085421	0.00051417	0.00011849	1406.4	6.2114e-06	3.7708e-06	1404.3	371.99	7.6939e-06	4.435e-06	420.88	142.31	124.55	42.047	6.0089e-06	52.56	0.00075942	0.00080178	0.00021267	1436.4	8.1387e-06	8.183e-06	1432.2	381.57	7.8426e-06	8.89e-06	432.51	145.97	127.73	43.487	8.4375e-06	54.211	99.960	145.715	150.471	68.306	199.575	190.968	68.060	72.929	194.512	185.401	72.279	76.736	77.398	81.912	197.503	81.067	-8191	255	
429.337	1	1	0	0	0.227	0.23448	0.14075	0.16879	0.2097	0.13704	0.36224	0.21915	0.12295	0.18323	0.18128	0.22328	0.33994	0.2124	0.16114	0.23741	-3.9875	-3.725	-4.2875	-4.275	-3.7896	-4.3583	-4.0958	-4.1146	-4.2542	-3.6833	-4.1937	-4.2542	-3.9021	-4.4708	-3.9333	-4.1604	253.773	149.743	300.598	80.198	368.469	68.158	359.985	363.481	83.787	239.350	382.406	402.287	364.067	296.885	292.601	63.506	0.00083353	0.00057384	0.00017602	1405.6	6.8417e-06	3.6112e-06	1404.4	372.32	6.7738e-06	4.999e-06	423.11	142.7	124.66	41.967	6.4218e-06	52.095	0.00072876	0.0008112	0.00021714	1435.4	8.8798e-06	8.1269e-06	1431.1	381.54	8.0768e-06	9.3243e-06	432.75	146.31	127.81	43.463	8.3674e-06	54.126	98.471	168.209	163.107	68.439	187.592	188.230	68.062	72.982	194.394	202.105	72.525	76.835	77.318	82.054	199.954	80.985	-8191	255	
429.433	1	1	0	0	0.16357	0.18423	0.087366	0.32864	0.25231	0.22173	0.13863	0.15188	0.16615	0.096843	0.34259	0.062765	0.36724	0.049998	0.18328	0.16027	-4.0875	-3.8771	-4.1417	-4.4875	-3.8958	-4.3187	-4.2542	-4.0542	-4.4479	-3.9979	-4.1583	-4.2646	-3.8958	-4.3604	-4.1771	-3.9479	367.480	79.041	234.019	398.168	287.476	222.815	354.035	296.731	130.502	137.205	303.204	358.701	93.996	320.501	338.000	334.961	0.00084222	0.00049245	0.00010815	1409.3	7.1292e-06	4.0099e-06	1412.4	372.78	6.7376e-06	6.8547e-06	423.45	142.63	125.03	42.208	5.6065e-06	52.642	0.00075681	0.00080057	0.00021772	1438.8	8.5448e-06	8.7839e-06	1436.1	381.92	8.1401e-06	9.4842e-06	433.45	146.25	128.25	43.579	8.7676e-06	54.308	99.564	150.500	158.362	68.339	188.365	205.991	68.244	72.950	197.720	218.866	72.468	76.874	77.344	82.019	198.749	80.882	-8191	255	
429.554	1	1	0	0	0.13932	0.21152	0.017368	0.10784	0.16593	0.11378	0.12872	0.34244	0.11645	0.016455	0.10944	0.099577	0.26931	0.23216	0.15939	0.034667	-4.0792	-3.8208	-3.9646	-4.4667	-3.7208	-4.325	-4.2875	-3.9625	-4.2875	-3.9708	-4.2104	-4.4917	-3.9042	-3.9792	-4.1771	-3.7729	175.418	123.796	252.993	373.991	172.273	123.920	338.181	282.756	101.955	401.269	215.771	318.857	60.480	65.198	264.864	275.747	0.00080851	0.00062951	0.00013445	1413.2	5.5159e-06	5.1985e-06	1413.1	375.12	7.4948e-06	4.638e-06	425.72	143.02	125.47	42.306	4.8625e-06	52.692	0.0007455	0.00083796	0.00023862	1443.5	8.8305e-06	9.195e-06	1441.2	383.38	8.4251e-06	9.3463e-06	435.05	146.67	128.59	43.747	8.3967e-06	54.405	100.472	162.239	122.674	68.346	203.163	211.303	67.945	73.015	182.283	200.753	72.543	77.054	77.393	81.954	197.951	80.899	-8191	255	
429.650	1	1	0	0	0.16033	0.12618	0.12647	0.42145	0.19184	0.10711	0.13742	0.19464	0.012134	0.11319	0.16327	0.21955	0.17787	0.20813	0.11757	0.13704	-3.9104	-4.1354	-4.0479	-4.375	-3.7979	-4.2625	-4.3208	-3.9229	-4.2771	-3.9729	-4.2479	-4.4625	-4.0333	-4.1312	-4.0875	-3.7958	237.993	379.341	305.828	387.458	302.164	322.100	86.886	388.892	62.623	390.329	270.995	361.595	367.811	378.404	61.276	66.469	0.0008927	0.00065195	0.00017556	1424.5	5.512e-06	5.4225e-06	1425.5	375.61	7.3416e-06	4.9838e-06	425.88	143.69	125.73	42.272	5.2009e-06	52.737	0.00078324	0.00083877	0.00024186	1451	8.5919e-06	9.1078e-06	1449.2	384.41	8.6638e-06	9.8825e-06	436.02	147.24	128.74	43.786	9.0556e-06	54.576	101.508	151.658	148.549	68.511	187.448	203.244	68.166	73.057	204.501	220.527	72.552	77.003	77.486	81.896	207.383	81.081	-8191	255	
429.746	1	1	0	0	0.11982	0.031783	0.20658	0.13839	0.23957	0.15448	0.14354	0.093248	0.086076	0.068717	0.13629	0.18346	0.094908	0.18768	0.14844	0.11631	-3.9792	-3.8438	-3.7562	-4.6167	-3.875	-4.0854	-4.4458	-3.9396	-4.3688	-4.0021	-3.9083	-4.3979	-3.9021	-4.2375	-4.2771	-3.7479	216.520	157.318	311.315	74.312	121.386	392.782	317.626	304.609	303.389	127.032	404.205	413.710	365.408	307.601	413.554	351.554	0.00090101	0.00058403	0.00016885	1428.2	5.2918e-06	6.2307e-06	1431.6	377.04	7.1222e-06	4.9915e-06	426.07	144.18	126.17	42.407	5.9768e-06	52.573	0.00080349	0.00091784	0.00025921	1457.5	8.967e-06	1.0096e-05	1455.2	385.13	8.9126e-06	1.0011e-05	436.13	147.49	129.16	43.839	8.9396e-06	54.487	96.178	144.998	143.345	68.411	199.013	212.874	68.300	72.939	186.297	222.852	72.464	77.030	77.488	81.843	193.176	80.806	-8191	255	
429.842	1	1	0	0	0.18365	0.013699	0.21597	0.11035	0.11663	0.31129	0.14712	0.16482	0.093884	0.16637	0.099031	0.18166	0.33783	0.29945	0.26707	0.1373	-3.7625	-4.3167	-3.9062	-4.5062	-3.8021	-3.9062	-4.5083	-3.8917	-4.3125	-4.1458	-3.8271	-4.3104	-3.8521	-4.0208	-4.3479	-4.0104	407.243	253.366	264.286	385.985	123.593	63.746	361.684	401.941	269.565	241.536	389.826	384.929	71.401	100.384	177.990	285.884	0.00087485	0.00057259	0.0001369	1430	8.5662e-06	4.5637e-06	1429.5	376.27	6.4545e-06	5.2586e-06	425.69	143.86	125.79	42.529	4.7723e-06	52.687	0.00079495	0.00086728	0.00025168	1459.3	9.0187e-06	9.8146e-06	1454.4	385.35	8.7882e-06	9.5642e-06	436.59	147.11	129.07	43.846	8.9358e-06	54.545	97.371	129.867	160.900	68.584	191.906	205.164	68.178	72.986	189.907	195.257	72.376	76.875	77.406	82.068	195.186	80.766	-8191	255	
429.937	1	1	0	0	0.073956	0.024551	0.18184	0.22573	0.26877	0.071324	0.12156	0.2272	0.016343	0.16904	0.36203	0.094394	0.059778	0.15844	0.21402	0.3321	-3.8958	-4.0563	-3.6917	-4.4062	-3.7	-3.9292	-4.4771	-3.9792	-4.0792	-4.0625	-4.0417	-4.1896	-4.0042	-4.0771	-4.3375	-3.9542	309.719	119.225	375.277	403.826	386.517	146.880	311.825	314.542	142.041	186.588	296.381	229.810	65.436	367.618	108.197	67.002	0.0008253	0.00040544	0.00014461	1434.1	5.4704e-06	4.8036e-06	1428.6	377.06	6.1245e-06	4.3132e-06	425.34	143.06	125.79	42.329	4.8661e-06	52.81	0.00075439	0.00083998	0.00026001	1459.9	8.6905e-06	9.7165e-06	1454.4	385.42	8.933e-06	9.5391e-06	436.58	147.13	128.88	43.795	8.3598e-06	54.532	100.555	140.901	149.436	68.418	204.969	211.095	68.229	73.026	191.654	197.847	72.611	76.778	77.331	81.856	210.934	80.964	-8191	255	
430.033	1	1	0	0	0.19825	0.19093	0.072342	0.2597	0.091612	0.065167	0.36861	0.3294	0.17443	0.13727	0.06871	0.034798	0.10248	0.087968	0.19926	0.040138	-3.7854	-4.2562	-3.6646	-4.5354	-4.0542	-3.7896	-4.6438	-3.9896	-3.9167	-4.2833	-3.9104	-4.1792	-3.9625	-3.9083	-4.4104	-4.0104	113.582	319.378	148.665	376.239	98.801	169.867	346.153	319.744	238.234	126.057	403.781	137.840	71.521	375.239	88.845	217.438	0.0008616	0.0006059	0.00015484	1424.3	6.5981e-06	5.9946e-06	1424.5	375.04	6.7279e-06	5.2498e-06	425.28	143.58	125.84	42.478	5.162e-06	52.772	0.00077867	0.00088422	0.000244	1457.5	8.5425e-06	9.8224e-06	1451.8	385.08	8.01e-06	9.3651e-06	436.08	147.11	129.13	43.795	8.5229e-06	54.519	101.339	152.220	144.835	68.377	196.960	203.862	68.159	72.951	190.041	214.548	72.669	76.852	77.353	81.895	215.456	81.026	-8191	255	
430.131	1	1	0	0	0.079469	0.028092	0.012282	0.42996	0.10325	0.070245	0.26746	0.28238	0.14484	0.099716	0.1585	0.17029	0.25055	0.053898	0.16872	0.15764	-3.825	-4.375	-3.8125	-4.2937	-4.0604	-3.95	-4.5687	-4.1042	-3.9833	-4.2854	-4	-4.2646	-4.3083	-3.9104	-4.3479	-4.0354	243.805	309.194	183.276	76.952	178.768	327.789	351.577	369.142	367.021	115.671	359.577	320.466	382.697	390.134	194.296	372.207	0.00086836	0.00055646	0.00012222	1426.9	7.1599e-06	4.0832e-06	1425	375.71	6.6679e-06	4.5373e-06	424.28	143.81	125.25	42.204	6.5641e-06	52.825	0.00076017	0.00082828	0.00024603	1458.5	8.554e-06	9.195e-06	1452.9	384.85	8.6276e-06	8.9182e-06	436.59	147.15	128.78	43.715	8.5038e-06	54.591	100.333	146.434	156.755	68.600	211.683	195.490	68.138	72.960	188.803	198.756	72.544	77.134	77.292	81.848	208.924	81.059	-8191	255	
430.250	1	1	0	0	0.16318	0.38043	0.1471	0.10654	0.1522	0.18242	0.20091	0.32022	0.18269	0.14977	0.27234	0.11906	0.24685	0.23202	0.10944	0.2548	-3.5687	-4.3083	-3.7479	-4.2146	-4.1854	-3.7333	-4.525	-4.1438	-4.0062	-4.4333	-3.9875	-4.2729	-4.3792	-3.8646	-4.4083	-4.1792	301.556	354.707	85.402	397.869	358.837	150.197	323.612	355.800	191.443	245.963	339.577	395.498	378.845	367.354	65.001	75.830	0.00086311	0.0004928	0.00015343	1427.9	5.59e-06	4.4409e-06	1424.4	376.95	7.217e-06	5.6752e-06	426.05	143.83	126.04	42.321	4.5223e-06	52.655	0.0007849	0.00079842	0.00023396	1457.7	8.577e-06	1.0019e-05	1452.1	384.97	8.6163e-06	9.2334e-06	436.62	147.19	129.05	43.786	8.4388e-06	54.419	99.900	143.074	158.536	68.521	192.094	198.314	68.156	73.111	182.343	211.933	72.345	76.943	77.278	81.948	195.646	81.110	-8191	255	
430.346	1	1	0	0	0.086293	0.16325	0.20906	0.26601	0.12879	0.053112	0.1708	0.21888	0.11106	0.36769	0.17172	0.04165	0.28265	0.15829	0.16336	0.21596	-3.5375	-4.2167	-3.8646	-4.3583	-4.2229	-3.8479	-4.3854	-4.2646	-3.9938	-4.475	-3.9583	-4.3187	-4.225	-3.9146	-4.2292	-4.2479	292.178	272.183	409.361	344.583	169.991	384.096	399.892	340.528	326.656	210.432	362.037	229.097	64.981	244.836	97.088	331.457	0.00084608	0.00053202	0.00011868	1431.4	6.2797e-06	4.8508e-06	1427.8	375.24	7.3532e-06	6.6805e-06	426.12	143.76	125.91	42.38	5.9298e-06	52.433	0.00078058	0.00081227	0.00024385	1460.2	8.7112e-06	9.7726e-06	1454.1	384.94	8.571e-06	9.2867e-06	436.12	147.09	129.01	43.761	8.5395e-06	54.435	100.363	144.623	144.845	68.383	194.634	207.188	67.992	72.929	197.285	203.445	72.242	76.931	77.222	82.068	209.249	81.170	-8191	255	
430.442	1	1	0	0	0.22463	0.22603	0.16317	0.23134	0.13315	0.07545	0.19478	0.098292	0.16855	0.07818	0.072249	0.056917	0.23098	0.24611	0.039008	0.062403	-3.5292	-4.4021	-4.0646	-4.1792	-4.425	-3.7333	-4.3688	-4.2896	-3.8	-4.3521	-4.125	-4.1354	-4.4146	-3.8625	-4.0792	-4.2312	329.783	366.473	240.733	387.637	406.802	217.696	407.189	372.214	280.343	223.964	368.315	399.783	364.924	377.655	294.805	382.365	0.00083923	0.00055748	0.00010771	1428	5.6365e-06	4.3942e-06	1421.6	376.59	6.4867e-06	5.6068e-06	425	143.91	125.26	42.184	6.0685e-06	52.698	0.00076836	0.0007691	0.00023117	1457.5	7.7073e-06	9.0128e-06	1450.4	384.93	8.4636e-06	8.8571e-06	435.52	146.95	128.7	43.674	8.7638e-06	54.417	97.633	144.078	160.027	68.337	207.888	213.546	68.371	72.972	183.428	210.308	72.395	76.742	77.746	82.141	196.872	80.855	-8191	255	
430.562	1	1	0	0	0.16446	0.071281	0.17556	0.066937	0.035846	0.20062	0.39149	0.19867	0.0869	0.10828	0.24717	0.11951	0.16221	0.19275	0.17988	0.07708	-3.3833	-4.2667	-3.9188	-3.9437	-4.3146	-3.9229	-4.3125	-4.2542	-3.9625	-4.3333	-4.0375	-3.9229	-4.3187	-3.8937	-4.1125	-4.1792	297.411	302.203	187.655	409.202	132.015	352.658	350.251	100.110	176.034	278.563	72.195	414.747	403.390	353.450	73.450	76.629	0.00086268	0.00041619	0.00012877	1429.1	7.6235e-06	5.3493e-06	1419.8	375.9	6.3108e-06	5.6177e-06	424.08	143.21	125.8	42.188	5.2567e-06	52.424	0.00078088	0.00085235	0.00023078	1456.6	8.2213e-06	8.935e-06	1448.3	384.43	8.7101e-06	8.8508e-06	435.21	146.95	128.75	43.706	8.946e-06	54.391	101.750	151.365	159.171	68.338	206.542	205.954	68.230	72.923	186.081	201.667	72.603	77.081	77.393	82.138	207.011	81.109	-8191	255	
430.634	1	1	0	0	0.17271	0.14067	0.2475	0.11922	0.21383	0.084919	0.23856	0.20661	0.21084	0.21037	0.070651	0.12552	0.27058	0.23326	0.080298	0.18161	-3.525	-4.1083	-4.1479	-4.0042	-4.45	-3.9562	-4.2625	-4.3896	-3.7375	-4.1729	-4.3	-3.9083	-4.5896	-4.0896	-3.9854	-4.2646	137.319	266.645	207.555	269.677	196.313	385.584	349.891	309.663	84.358	246.511	388.095	80.282	351.835	395.706	74.066	285.965	0.00086319	0.0006118	0.00013701	1426.9	5.0224e-06	4.9123e-06	1426.7	376.01	8.4524e-06	5.4935e-06	425.89	143.82	126.1	42.387	5.5153e-06	52.639	0.00077997	0.00082707	0.0002437	1458.2	8.367e-06	9.2214e-06	1450.9	384.64	8.6513e-06	8.658e-06	435.92	147.13	129.06	43.793	9.0607e-06	54.505	101.068	145.792	150.520	68.456	205.341	206.758	68.253	72.993	198.759	207.163	72.478	76.992	77.349	81.943	213.392	80.853	-8191	255	
430.730	1	1	0	0	0.088985	0.29122	0.10812	0.28714	0.14293	0.12314	0.23369	0.24371	0.067062	0.27037	0.17295	0.17131	0.021264	0.2596	0.24577	0.19968	-3.3833	-4.1813	-4.2146	-4.0417	-4.3604	-3.9229	-4.1979	-4.3771	-3.9542	-4.1792	-4.2271	-3.7938	-4.2688	-3.825	-3.8438	-4.3771	325.792	254.776	242.201	290.881	229.407	298.551	316.658	298.734	369.245	325.800	150.601	91.358	197.655	336.883	231.131	60.291	0.00085285	0.00059453	0.00015556	1426.2	5.9846e-06	5.703e-06	1428.8	376.41	8.1987e-06	5.6053e-06	426.8	143.67	125.76	42.262	5.5434e-06	52.932	0.00077183	0.00086028	0.00023881	1456.9	8.3762e-06	9.1576e-06	1452.6	385.2	8.6117e-06	9.0154e-06	436.23	147.14	128.9	43.761	9.1257e-06	54.607	99.234	139.505	142.125	68.510	192.812	219.274	68.236	72.971	182.508	204.241	72.540	76.929	77.812	81.979	191.177	81.193	-8191	255	
430.851	1	1	0	0	0.094969	0.094759	0.16221	0.13523	0.14001	0.25206	0.19609	0.15264	0.22212	0.26423	0.17703	0.04749	0.20584	0.070831	0.19487	0.13184	-3.4188	-4.1062	-4.2042	-4.0062	-4.2833	-3.9542	-4.1167	-4.5437	-3.8812	-4.0021	-4.2229	-3.8458	-4.2729	-4.2208	-3.7042	-4.4354	391.368	72.733	253.285	405.833	58.940	212.125	329.997	191.533	307.855	156.964	373.817	55.800	324.453	365.336	385.258	367.345	0.00082531	0.00042405	0.00013871	1429	7.7312e-06	4.5864e-06	1424.3	377.11	8.1825e-06	5.9943e-06	426.1	143.82	125.53	42.361	5.66e-06	52.622	0.00078847	0.00086042	0.00024278	1459.4	8.1639e-06	9.7539e-06	1452	385.67	8.9658e-06	1.0215e-05	436.13	147.2	128.92	43.759	9.0161e-06	54.458	101.118	140.845	143.862	68.283	210.270	206.487	68.168	73.106	190.280	208.227	72.512	76.928	77.580	81.805	207.179	80.974	-8191	255	
430.945	1	1	0	0	0.21629	0.10938	0.2098	0.18669	0.079132	0.20255	0.11117	0.32686	0.053666	0.28262	0.26986	0.42311	0.19744	0.057307	0.1692	0.18953	-3.3458	-4.1146	-4.275	-3.7354	-4.2292	-4.1104	-3.9437	-4.45	-3.6979	-3.9646	-4.2333	-3.7938	-4.1979	-4.2333	-3.7854	-4.3896	197.621	146.960	355.501	276.701	269.594	225.005	392.178	370.723	199.067	309.114	372.953	65.958	336.812	340.539	99.127	270.554	0.00087222	0.00041918	0.00011469	1429.7	5.9921e-06	6.4081e-06	1427.4	377.44	7.558e-06	4.1205e-06	425.76	143.66	125.67	42.37	5.6656e-06	52.628	0.00079807	0.00087306	0.00024362	1458.3	8.7984e-06	9.6324e-06	1453.1	385.2	8.5156e-06	1.0202e-05	436.43	147.22	128.88	43.747	9.4022e-06	54.536	99.836	151.889	139.364	68.419	197.409	218.939	68.331	73.140	196.309	217.174	72.408	76.775	77.295	82.145	195.021	81.370	-8191	255	
431.042	1	1	0	0	0.13515	0.098658	0.23015	0.12019	0.10509	0.19517	0.20731	0.35735	0.025364	0.24365	0.26237	0.11565	0.21316	0.24944	0.13872	0.057369	-3.4875	-3.8875	-4.1646	-3.9875	-4.0896	-4.25	-3.9146	-4.3979	-3.8271	-3.9208	-4.3625	-3.8833	-4.35	-4.2229	-3.7729	-4.4187	73.570	126.886	69.316	406.380	64.239	169.277	368.473	338.119	379.192	88.918	374.380	377.655	389.515	163.692	380.019	292.577	0.00086061	0.00051431	0.00017517	1432.6	6.5256e-06	5.0708e-06	1426.1	376.73	7.3242e-06	5.4809e-06	424.42	143.71	125.94	42.369	7.466e-06	52.93	0.0007861	0.00089458	0.00024462	1460.7	9.3846e-06	9.483e-06	1453.6	385.26	8.9058e-06	1.0121e-05	435.63	147.15	129.14	43.841	9.062e-06	54.614	100.717	136.064	154.131	68.322	203.481	207.231	68.313	73.025	186.347	207.264	72.453	76.752	77.629	82.002	199.694	81.007	-8191	255	
431.138	1	1	0	0	0.22603	0.19806	0.09746	0.33901	0.096088	0.27385	0.3084	0.079085	0.085136	0.41982	0.2726	0.15001	0.2198	0.10759	0.12166	0.11868	-3.5438	-3.8979	-4.3333	-3.9292	-4.0375	-4.2417	-3.9188	-4.2896	-4.0396	-3.8792	-4.4479	-4.0437	-4.2625	-4.4125	-3.8063	-4.1375	172.637	64.019	171.780	365.630	348.200	184.134	369.491	348.083	172.805	259.599	109.226	84.258	412.983	297.357	251.175	341.066	0.00087036	0.00048467	0.00012086	1431.4	7.617e-06	4.2266e-06	1429.2	377.02	8.7034e-06	5.5442e-06	426.12	144.3	125.53	42.445	6.758e-06	52.806	0.00079616	0.00088812	0.00023189	1460.5	9.1724e-06	9.9049e-06	1454.5	385.62	9.0314e-06	1.0282e-05	436.12	147.35	128.78	43.834	9.1346e-06	54.513	101.065	122.483	156.232	68.471	202.635	204.821	68.157	73.042	181.990	206.848	72.554	76.892	77.610	81.867	191.733	81.116	-8191	255	
431.234	1	1	0	0	0.11082	0.26487	0.074181	0.25865	0.08521	0.28667	0.091472	0.11396	0.2171	0.067128	0.23094	0.2291	0.20469	0.18211	0.081173	0.13997	-3.7333	-3.6896	-4.1188	-3.9417	-4.0563	-4.1667	-3.9667	-4.2708	-4.0729	-3.7833	-4.3438	-4.05	-4.1438	-4.35	-3.8625	-4.3021	185.644	389.289	317.780	364.774	358.296	77.652	225.855	325.737	145.461	170.364	350.322	62.293	97.944	396.070	153.768	133.894	0.00082544	0.00049111	0.0001212	1428	6.7488e-06	5.003e-06	1427.1	374.38	5.711e-06	4.7517e-06	425.83	143.3	125.98	42.303	6.9891e-06	52.74	0.00078977	0.00089888	0.00024756	1458.8	9.1242e-06	9.4674e-06	1455.3	385.32	8.5642e-06	9.5172e-06	436.14	147.11	129.03	43.726	9.4468e-06	54.446	99.406	136.653	145.729	68.413	200.588	198.998	68.089	73.105	189.192	208.950	72.377	77.005	77.533	81.838	209.290	80.969	-8191	255	
431.330	1	1	0	0	0.059262	0.12885	0.26532	0.17163	0.0782	0.18113	0.24334	0.11135	0.30748	0.27284	0.14616	0.17757	0.17703	0.083762	0.24708	0.16067	-3.7458	-3.6604	-4.275	-4.2	-4.0042	-4.2354	-4.0083	-4.2562	-3.9938	-3.6896	-4.3688	-3.9958	-3.9875	-4.2104	-3.8583	-4.2375	402.557	335.136	90.111	293.469	300.631	221.451	311.966	243.844	88.795	364.048	337.663	58.873	394.990	381.315	359.641	346.677	0.0008512	0.00047503	0.00014952	1434	6.2691e-06	3.6212e-06	1425.8	376.76	8.724e-06	5.7997e-06	427.38	144.35	126.18	42.436	5.4335e-06	52.7	0.00080018	0.0008736	0.0002288	1462.3	8.8328e-06	9.5499e-06	1454	385.44	8.8685e-06	9.9185e-06	436.55	147.31	129.05	43.832	9.5131e-06	54.488	100.514	144.359	152.988	68.272	202.801	195.207	68.164	72.960	195.505	207.902	72.323	77.156	77.626	82.025	225.733	80.815	-8191	255	
431.426	1	1	0	0	0.094137	0.145	0.11907	0.061749	0.11345	0.031208	0.34748	0.17221	0.086372	0.11775	0.058913	0.32663	0.28084	0.089516	0.093335	0.15451	-3.8125	-3.6729	-4.1479	-4.2104	-3.6667	-4.2792	-3.9188	-4.2125	-4.075	-3.75	-4.3271	-4.0229	-3.9104	-4.3521	-3.7146	-4.0667	252.485	291.174	360.040	323.714	127.957	160.533	350.902	161.051	293.491	125.205	388.116	383.054	70.905	112.039	114.619	79.014	0.00088812	0.00039645	0.00015676	1428.7	7.0692e-06	5.119e-06	1432.1	377.02	7.6472e-06	5.8238e-06	425.39	143.79	125.94	42.175	6.1177e-06	52.704	0.00078646	0.00089511	0.00024469	1458.9	9.2114e-06	8.7435e-06	1455.7	385.6	8.8821e-06	1.0201e-05	436.44	147.09	128.98	43.677	9.5742e-06	54.562	99.628	147.404	159.215	68.452	199.266	220.713	68.148	72.895	181.696	208.085	72.608	76.836	77.378	81.911	202.794	80.843	-8191	255	
431.522	1	1	0	0	0.11441	0.15582	0.064944	0.29097	0.35546	0.25681	0.053068	0.16688	0.34433	0.11104	0.23386	0.064501	0.06102	0.0034651	0.18368	0.17073	-3.7708	-3.6542	-4.2167	-4.1438	-3.7625	-4.3146	-4.2417	-4.1813	-4.2042	-3.8104	-4.1312	-4.3146	-3.7979	-4.3104	-3.7771	-3.9188	78.604	285.672	67.943	359.188	63.063	91.625	259.407	302.229	77.792	267.125	360.848	65.782	377.764	214.152	391.059	68.925	0.0008427	0.00068612	0.0001773	1430.8	7.49e-06	6.4707e-06	1425.8	377.6	7.8875e-06	5.2954e-06	425.16	144.18	126.1	42.409	5.5158e-06	52.79	0.00078374	0.00090708	0.00025432	1461	8.967e-06	9.8442e-06	1454.4	385.86	8.5054e-06	1.0091e-05	436.4	147.35	129.1	43.796	9.3576e-06	54.513	101.538	133.277	147.397	68.411	194.231	220.742	68.136	73.081	183.550	201.473	72.296	76.949	77.484	81.843	199.208	81.089	-8191	255	
431.643	1	1	0	0	0.078488	0.13033	0.13533	0.18214	0.28817	0.20967	0.16505	0.19544	0.15702	0.025098	0.093789	0.12888	0.12421	0.12671	0.14591	0.23068	-3.825	-3.675	-4.05	-4.3854	-3.7104	-4.2688	-4.1562	-4.1	-4.3896	-3.7562	-4.0687	-4.25	-3.8187	-4.3104	-3.8854	-3.7042	168.736	68.844	177.846	87.154	55.461	391.085	94.458	405.722	91.602	299.641	358.004	388.071	347.512	96.796	259.240	332.228	0.00083876	0.00054296	0.00015395	1430.1	5.6595e-06	4.5545e-06	1429	376.56	7.5451e-06	6.2771e-06	424.74	144.17	125.4	42.512	6.0738e-06	52.599	0.00078982	0.00087319	0.00024721	1459.6	8.8087e-06	9.7259e-06	1456.5	385.36	8.6626e-06	1.0652e-05	436.12	147.19	129.04	43.872	9.5679e-06	54.485	101.021	153.229	163.221	68.294	202.025	210.747	68.279	73.166	195.005	197.910	72.602	76.939	77.350	82.116	209.331	80.862	-8191	255	
431.739	1	1	0	0	0.015169	0.14947	0.043202	0.085007	0.17398	0.057095	0.16039	0.27774	0.35125	0.11762	0.058147	0.10168	0.17851	0.20538	0.057734	0.084542	-3.8187	-3.7938	-4.0396	-4.2625	-3.6562	-4.1146	-4.1021	-3.8625	-4.1875	-3.8	-3.975	-4.45	-3.8854	-4.2667	-4.0292	-3.7062	254.307	240.618	328.946	64.048	288.136	276.718	399.888	396.612	123.157	103.961	343.569	151.439	378.754	366.001	195.789	367.268	0.00085713	0.00053036	0.00011773	1434.9	6.3846e-06	4.0121e-06	1427.1	377.68	8.2066e-06	7.1313e-06	426.43	143.8	125.98	42.244	5.6743e-06	52.72	0.00079033	0.00091435	0.00024809	1462.6	9.294e-06	9.7679e-06	1455.5	386.11	8.7995e-06	1.0927e-05	436.69	147.39	129.02	43.835	9.4366e-06	54.646	98.729	151.297	133.227	68.449	200.368	217.752	68.152	72.959	199.943	213.139	72.600	77.028	77.497	81.686	208.291	81.176	-8191	255	
431.833	1	1	0	0	0.097108	0.013537	0.084455	0.048562	0.12665	0.2243	0.11054	0.21341	0.30632	0.22303	0.24955	0.33253	0.096338	0.11163	0.13599	0.25546	-3.9417	-3.85	-3.8688	-4.3187	-3.7313	-4.1458	-4.1813	-3.9542	-4.1792	-3.8646	-3.9875	-4.3833	-3.6542	-4.1979	-4.0042	-3.6708	133.261	366.502	115.041	410.091	287.041	294.115	301.090	344.450	216.314	395.846	250.997	297.020	189.019	377.044	377.750	300.442	0.00081903	0.00038302	0.00014373	1433.2	7.3294e-06	4.0887e-06	1431.3	376.25	7.0665e-06	6.2046e-06	425.74	143.62	125.88	42.452	5.6056e-06	52.574	0.00077002	0.00090345	0.00025665	1462.2	9.5039e-06	1.0048e-05	1457.5	385.7	9.0823e-06	1.096e-05	436.5	147.28	129.07	43.807	9.3257e-06	54.54	101.404	142.407	148.829	68.502	185.544	211.186	68.387	73.245	205.675	199.571	72.753	76.788	77.562	81.969	195.376	80.708	-8191	255	
431.931	1	1	0	0	0.33381	0.0095611	0.14747	0.12475	0.19228	0.087299	0.21808	0.22384	0.04485	0.083298	0.026402	0.26707	0.18163	0.17354	0.17987	0.23296	-3.8187	-3.7979	-3.8104	-4.3667	-3.7438	-3.8896	-4.4146	-3.8667	-4.0437	-4.025	-3.7417	-4.3688	-3.8333	-3.8958	-4.0875	-3.7812	372.607	282.340	282.698	376.358	150.618	200.703	376.800	57.840	244.134	339.431	57.804	353.289	362.674	233.476	323.451	365.481	0.00082006	0.00053164	0.00013592	1434.4	5.9845e-06	3.6646e-06	1432.3	376.31	5.8514e-06	3.6576e-06	427.36	144.02	125.76	42.327	6.0991e-06	52.72	0.00080726	0.00096276	0.00026632	1463.3	9.6841e-06	1.0241e-05	1457.4	385.46	9.253e-06	1.0608e-05	437.07	147.4	129.08	43.807	9.4239e-06	54.584	100.109	131.651	162.648	68.465	199.749	217.863	68.002	73.156	194.311	208.580	72.542	77.044	77.290	81.848	199.527	81.141	-8191	255	
432.026	1	1	0	0	0.12347	0.19111	0.36428	0.36597	0.11048	0.056787	0.17513	0.15394	0.064526	0.063655	0.16676	0.097816	0.112	0.25381	0.24177	0.20737	-3.8958	-3.9313	-3.9104	-4.4458	-3.8792	-3.9417	-4.45	-3.8479	-4.2771	-4.0146	-3.8688	-4.2708	-3.8	-3.9417	-4.2729	-3.8187	374.593	129.393	118.905	372.933	124.460	167.805	412.735	353.746	96.436	354.600	388.212	390.197	275.235	270.276	192.910	306.783	0.00088369	0.00039096	0.0001597	1429.8	5.7604e-06	5.0084e-06	1428.9	377.48	7.9412e-06	7.0444e-06	424.99	143.9	126.64	42.315	7.1656e-06	52.691	0.00079847	0.00094998	0.00026536	1462.8	9.6382e-06	1.1186e-05	1459.6	386.25	9.4114e-06	1.0903e-05	436.75	147.37	129.23	43.792	9.6826e-06	54.571	101.206	157.798	155.837	68.328	199.199	194.313	68.336	73.020	200.929	199.797	72.523	76.926	77.379	82.124	209.880	81.092	-8191	255	
432.122	1	1	0	0	0.057891	0.20818	0.17064	0.13244	0.28421	0.39038	0.18834	0.37269	0.27921	0.075796	0.1196	0.18773	0.35209	0.17439	0.16565	0.43546	-3.475	-4.0375	-3.6917	-4.2375	-3.9625	-4.05	-4.5271	-3.8	-4.1833	-4.0437	-3.7208	-4.2667	-4.0625	-4.075	-4.4187	-3.8542	338.946	145.601	55.901	359.089	403.588	313.472	399.035	356.876	104.980	393.618	77.428	265.068	343.157	405.175	155.210	360.034	0.00086339	0.00034786	8.8866e-05	1433.6	6.7215e-06	5.8961e-06	1433.9	377.92	6.8569e-06	4.7913e-06	428.07	144.08	126.23	42.418	5.8383e-06	52.576	0.00079982	0.00093317	0.00027002	1466.3	9.7173e-06	1.0545e-05	1460.5	386.38	9.2825e-06	1.0538e-05	437.75	147.48	129.28	43.849	9.4659e-06	54.649	100.512	135.332	156.704	68.508	203.266	212.317	68.137	72.962	186.820	187.184	72.636	76.870	77.381	81.981	206.701	81.089	-8191	255	
432.243	1	1	0	0	0.28952	0.21057	0.12435	0.23132	0.28315	0.15518	0.13926	0.11965	0.11398	0.11295	0.16923	0.2585	0.25831	0.52158	0.13903	0.039866	-3.7417	-4.2021	-3.625	-4.3396	-3.8875	-3.8063	-4.2312	-3.975	-3.9813	-4.2542	-3.8625	-4.3396	-4.1792	-3.8979	-4.2688	-3.8104	346.174	335.250	391.408	391.369	302.082	221.444	404.069	399.511	411.627	376.849	325.669	105.400	359.265	399.118	344.010	163.330	0.00085891	0.00052427	0.00017771	1437.4	6.0659e-06	4.6742e-06	1433.2	377.74	7.8232e-06	4.3262e-06	427.73	144.44	126.38	42.383	4.8959e-06	52.74	0.00081666	0.00094891	0.00027618	1466.1	9.2653e-06	1.0799e-05	1460.8	385.99	9.684e-06	1.0014e-05	437.43	147.72	129.42	43.883	9.5691e-06	54.619	97.105	146.547	146.038	68.256	184.612	216.304	68.293	72.976	189.716	212.877	72.368	77.016	77.111	82.086	210.056	81.112	-8191	255	
432.339	1	1	0	0	0.21181	0.2481	0.1814	0.17627	0.095728	0.11863	0.2227	0.24315	0.078517	0.070552	0.056486	0.11687	0.070537	0.066909	0.13155	0.25727	-3.3896	-4.0625	-3.7104	-4.2063	-4.0396	-3.6708	-4.6021	-3.9542	-4.0479	-4.3271	-3.7938	-4.3688	-4.1646	-3.9625	-4.225	-4.1833	283.260	372.005	137.761	386.269	111.527	98.191	405.638	357.581	86.694	204.578	271.067	308.557	88.785	355.912	87.844	344.490	0.00088443	0.00062787	0.00011913	1438.4	5.645e-06	6.73e-06	1433.3	378.73	5.645e-06	5.3889e-06	427.39	144.35	126.53	42.672	5.6522e-06	52.865	0.00084028	0.00095348	0.0002685	1468.3	9.3628e-06	1.1116e-05	1461.4	386.98	9.408e-06	1.0644e-05	438.37	147.83	129.4	43.898	9.9999e-06	54.728	97.380	148.702	144.179	68.282	192.354	206.635	68.168	73.192	196.033	189.903	72.736	76.918	77.311	82.059	194.219	81.047	-8191	255	
432.435	1	1	0	0	0.12477	0.16657	0.26288	0.12173	0.11116	0.12284	0.27455	0.14396	0.16396	0.20782	0.13497	0.062541	0.045073	0.24983	0.1253	0.20396	-3.6792	-4.1125	-3.7708	-4.3375	-4.1167	-3.7771	-4.4583	-4.2146	-3.8667	-4.2292	-3.7812	-4.1854	-4.3542	-3.9979	-4.2167	-4.0292	344.208	383.882	289.831	367.077	83.175	268.326	365.115	412.821	411.659	81.739	60.459	289.991	87.935	250.271	295.940	341.811	0.0008537	0.00059747	9.4704e-05	1444	8.1283e-06	5.5602e-06	1433	378.05	6.6091e-06	3.6444e-06	427.38	143.92	126.84	42.23	6.1153e-06	52.821	0.00082953	0.00091999	0.0002753	1470.2	9.7885e-06	1.033e-05	1462.5	386.57	9.2089e-06	9.9781e-06	437.76	147.43	129.51	43.82	9.4162e-06	54.681	100.315	137.412	170.811	68.513	198.137	200.340	68.352	72.955	187.690	203.286	72.502	76.798	77.348	81.712	196.126	80.979	-8191	255	
432.531	1	1	0	0	0.11221	0.17494	0.098861	0.075863	0.11304	0.090716	0.11646	0.13209	0.1434	0.2498	0.24813	0.035235	0.077823	0.30826	0.16053	0.1509	-3.5312	-4.2208	-3.7062	-4.0667	-4.1958	-3.7875	-4.3896	-4.2188	-3.8375	-4.2958	-3.9771	-4.0125	-4.3313	-3.8292	-4.0813	-4.1146	346.807	58.572	178.396	336.431	280.050	246.265	274.732	404.085	214.195	208.624	352.121	95.151	384.447	399.839	217.980	83.259	0.00084155	0.00062334	0.00014994	1440	6.1773e-06	3.639e-06	1435.1	378.1	7.661e-06	4.0881e-06	427.24	144.58	126.58	42.352	5.228e-06	53.078	0.00082852	0.00092591	0.00026842	1468	9.5911e-06	1.0858e-05	1462.9	386.55	9.4634e-06	1.0066e-05	438.12	147.9	129.48	43.886	9.6724e-06	54.754	100.411	141.098	146.976	68.422	202.761	199.618	68.098	73.129	189.451	208.944	72.436	76.876	77.289	81.935	211.506	80.918	-8191	255	
432.627	1	1	0	0	0.31589	0.34582	0.027188	0.28228	0.19914	0.25176	0.21011	0.36409	0.089508	0.11384	0.096562	0.30028	0.28433	0.087433	0.3773	0.11138	-3.3021	-4.3167	-3.8187	-4.05	-4.1646	-3.8375	-4.425	-4.1208	-3.8438	-4.2979	-3.9333	-4.0729	-4.3542	-3.9292	-4.0208	-4.3083	77.875	177.306	327.453	406.277	295.324	356.389	347.842	409.195	333.483	318.740	356.683	350.976	82.128	400.630	359.269	347.872	0.00088072	0.00054869	0.00013914	1438	6.485e-06	4.7845e-06	1436.3	378.2	8.5268e-06	4.5472e-06	426.78	144.28	126.31	42.64	5.645e-06	52.717	0.00082344	0.00088113	0.00026704	1468.1	9.0657e-06	1.0285e-05	1462.2	386.37	9.4499e-06	1.011e-05	437.78	147.92	129.32	43.905	9.1817e-06	54.661	99.403	126.192	149.834	68.244	205.455	187.705	68.131	73.141	199.168	201.009	72.766	77.009	77.172	81.924	218.732	80.954	-8191	255	
432.723	1	1	0	0	0.20623	0.12662	0.26471	0.13495	0.037142	0.25151	0.050365	0.30461	0.061194	0.18176	0.24302	0.04371	0.088267	0.2283	0.26718	0.10917	-3.4375	-4.3354	-3.9188	-4.0229	-4.1792	-3.8042	-4.4646	-4.2375	-3.7771	-4.4104	-4.0979	-4.0375	-4.4812	-3.9333	-4.0333	-4.2729	180.843	344.652	77.095	402.038	74.677	240.109	397.273	310.804	193.601	248.993	391.281	192.015	368.724	320.721	271.243	59.387	0.00088188	0.00062233	0.00010941	1439.9	6.6431e-06	4.9113e-06	1435.2	377.17	6.6992e-06	5.456e-06	427.03	143.98	126.08	42.59	5.5096e-06	52.87	0.00082375	0.00091811	0.00026242	1468.6	9.1988e-06	1.0926e-05	1462.4	386.78	9.4917e-06	1.0147e-05	437.75	147.48	129.25	43.926	9.4838e-06	54.701	100.025	151.916	164.625	68.455	206.097	211.171	68.319	73.023	168.748	213.098	72.578	76.858	77.369	81.845	196.787	80.797	-8191	255	
432.819	1	1	0	0	0.16935	0.1857	0.30557	0.14782	0.13191	0.14505	0.19881	0.11954	0.29882	0.064201	0.33921	0.12326	0.35181	0.24951	0.21494	0.10232	-3.3083	-4.2146	-3.8438	-4.2146	-4.3042	-3.9125	-4.1833	-4.5229	-3.8208	-4.1833	-4.2146	-4.0229	-4.5437	-4.1813	-3.9813	-4.2604	145.742	209.235	390.692	363.089	128.752	278.833	332.888	387.831	174.086	226.348	65.079	150.804	316.137	57.300	262.989	400.232	0.00086858	0.00065002	0.00012726	1436.7	6.684e-06	4.7959e-06	1438.8	377.01	8.3232e-06	5.0531e-06	426.86	144.83	125.46	42.294	5.2005e-06	52.884	0.00082731	0.00094111	0.00026353	1465.6	9.5189e-06	1.0529e-05	1462.4	386.19	9.6953e-06	1.0782e-05	437.18	147.84	129.12	43.827	9.7259e-06	54.677	98.011	154.479	142.733	68.543	212.241	226.081	68.358	73.010	201.063	207.438	72.362	77.082	77.505	82.003	209.919	81.131	-8191	255	
432.916	1	1	0	0	0.12958	0.16291	0.13893	0.074797	0.09674	0.058889	0.26628	0.23895	0.19846	0.25965	0.1247	0.18031	0.29841	0.16165	0.13571	0.1639	-3.4562	-4.1687	-4.0396	-3.9729	-4.2958	-3.9437	-4.1896	-4.3583	-3.8187	-4.1604	-4.2146	-3.8812	-4.4979	-4.0479	-3.9354	-4.4688	305.141	278.462	384.756	393.945	108.718	169.669	350.624	369.047	114.365	270.622	358.186	356.395	391.274	376.715	148.762	292.010	0.00082826	0.00055879	0.00015636	1436.3	6.4654e-06	5.5432e-06	1435.7	377.25	6.7487e-06	4.9535e-06	426.98	144.1	126.38	42.392	4.696e-06	52.962	0.00082641	0.00093264	0.00027434	1467.6	9.1345e-06	1.0926e-05	1460.5	386.24	9.6433e-06	1.0423e-05	437.71	147.8	129.41	43.882	1.0126e-05	54.685	101.809	151.844	149.530	68.329	209.807	193.715	68.138	73.059	194.900	213.635	72.521	76.935	77.457	82.151	203.158	80.960	-8191	255	
433.034	1	1	0	0	0.15347	0.17564	0.13995	0.15701	0.11938	0.19714	0.45583	0.288	0.18806	0.13538	0.25031	0.1989	0.30768	0.25712	0.21864	0.19072	-3.6271	-4.0687	-4.1417	-3.9604	-4.0875	-3.9042	-3.9833	-4.4271	-3.8896	-4.0521	-4.3167	-3.9042	-4.2708	-4.0062	-3.7333	-4.4292	200.601	165.941	61.461	393.095	183.893	384.989	336.906	358.371	323.614	115.142	61.516	172.856	406.027	370.618	310.671	360.683	0.00080934	0.00068061	0.00013348	1441.3	7.3482e-06	4.4275e-06	1435.9	378.82	7.4784e-06	6.2416e-06	427.71	143.8	125.7	42.639	5.6971e-06	52.849	0.00083093	0.00096276	0.00025314	1468.6	9.9112e-06	1.0732e-05	1462.7	386.89	9.5833e-06	1.0601e-05	438.65	147.55	129.17	43.958	9.8992e-06	54.683	99.136	136.485	147.551	68.385	195.603	209.562	68.134	72.964	196.944	216.262	72.595	76.865	77.456	81.683	196.793	80.893	-8191	255	
433.106	1	1	0	0	0.12758	0.031818	0.12438	0.28313	0.039018	0.13141	0.37046	0.31243	0.052488	0.054856	0.1355	0.046254	0.10281	0.25229	0.046101	0.33835	-3.4167	-4.0062	-4.3417	-3.8083	-4.2521	-3.9042	-4.0708	-4.3958	-3.7812	-3.8646	-4.3521	-3.8396	-4.1813	-4.1875	-3.6583	-4.1979	159.113	83.733	274.473	399.855	139.639	279.821	337.654	340.139	269.194	326.402	409.967	310.907	328.433	271.449	390.257	354.828	0.00085534	0.00050797	0.00014189	1439.3	6.3042e-06	4.1487e-06	1435.5	376.96	6.6839e-06	5.0258e-06	427.96	143.73	126.12	42.658	5.7238e-06	52.858	0.0008347	0.00096182	0.00027786	1467.6	9.4076e-06	1.0833e-05	1462.8	386.29	9.9373e-06	1.1062e-05	438.28	147.73	129.31	43.949	1.0163e-05	54.707	99.864	125.786	168.707	68.508	189.854	208.695	68.264	73.009	199.959	216.081	72.577	77.035	77.314	81.723	200.536	81.063	-8191	255	
433.204	1	1	0	0	0.11947	0.24018	0.025285	0.22572	0.081475	0.11758	0.21071	0.057654	0.22322	0.097463	0.26011	0.11248	0.1985	0.27531	0.029232	0.068156	-3.4083	-3.9542	-4.2688	-3.9562	-4.1771	-4.1042	-3.9917	-4.3083	-3.8083	-3.8646	-4.5646	-3.9208	-4.2833	-4.1729	-3.5479	-4.2688	364.747	382.747	315.200	371.425	264.332	178.730	359.343	314.032	216.499	271.304	406.185	147.847	61.871	384.721	312.242	297.267	0.0008215	0.00040418	0.00013033	1441.7	5.6649e-06	5.3227e-06	1441.2	377.68	6.7701e-06	6.8247e-06	427.78	144.44	126.33	42.707	5.8351e-06	52.674	0.00082661	0.00097352	0.00027037	1469.1	9.6932e-06	1.061e-05	1463.4	386.91	9.8197e-06	1.1007e-05	438.11	147.65	129.45	43.972	1.0311e-05	54.585	101.672	156.159	154.749	68.334	192.073	200.537	68.314	72.921	194.289	187.463	72.409	76.789	77.413	81.915	213.349	80.887	-8191	255	
433.323	1	1	0	0	0.1766	0.10961	0.30878	0.29144	0.13756	0.1139	0.1773	0.12782	0.17685	0.12839	0.095417	0.10741	0.10103	0.13588	0.22573	0.2082	-3.5375	-3.8417	-4.2292	-3.9521	-4.025	-4.1479	-3.7125	-4.3854	-3.8875	-3.6542	-4.375	-3.8833	-4.0729	-4.1604	-3.7708	-4.3438	289.042	311.275	151.699	387.644	194.460	220.742	304.663	344.196	127.789	380.121	248.080	65.537	381.847	70.685	252.932	321.156	0.00081582	0.00055074	0.00015979	1438.4	4.8827e-06	5.9679e-06	1432.7	377.88	7.3508e-06	4.9295e-06	429.34	144.32	126.42	42.5	6.7097e-06	52.81	0.00082043	0.0010229	0.00026227	1470	9.6187e-06	1.0461e-05	1463.2	387.08	9.6478e-06	1.1142e-05	438.92	147.64	129.58	43.985	1.0756e-05	54.747	101.251	151.212	150.554	68.344	204.781	214.117	68.105	72.961	188.005	216.596	72.570	76.829	77.429	81.763	212.171	80.903	-8191	255	
433.419	1	1	0	0	0.090704	0.30866	0.38624	0.27568	0.049782	0.031307	0.24376	0.17328	0.17464	0.18643	0.14189	0.21741	0.08637	0.34059	0.16985	0.17109	-3.6542	-3.5542	-4.2896	-3.9583	-3.9479	-4.2375	-3.8688	-4.3917	-4.2792	-3.7083	-4.3688	-4.0312	-4.0188	-4.3042	-3.7021	-4.1979	197.324	138.440	369.305	411.124	191.368	342.591	307.897	399.415	59.204	285.333	132.130	107.298	309.558	384.828	218.487	112.298	0.0008296	0.00060294	0.00017497	1443	5.981e-06	4.2517e-06	1437.7	378.03	5.9973e-06	5.179e-06	426.19	144.39	126.33	42.488	6.9986e-06	52.859	0.00081812	0.001032	0.00028046	1471.6	9.6703e-06	1.108e-05	1462.3	386.77	9.7405e-06	1.1559e-05	438.71	147.8	129.35	43.929	1.0363e-05	54.715	101.341	144.947	140.526	68.520	196.309	186.680	68.170	73.028	192.302	209.233	72.624	76.771	77.479	81.823	209.359	81.006	-8191	255	
433.515	1	1	0	0	0.15494	0.2627	0.057812	0.34634	0.099947	0.05268	0.13428	0.15214	0.12162	0.025669	0.17008	0.1907	0.29681	0.36881	0.042941	0.23397	-3.6562	-3.8083	-4.1125	-4.1375	-3.9062	-4.2917	-3.7479	-4.175	-4.0917	-3.8417	-4.2312	-4.0917	-3.875	-4.3125	-3.5604	-4.1083	195.161	248.354	141.769	394.063	321.977	283.460	384.002	373.369	71.492	130.757	395.574	391.178	351.568	64.048	266.438	305.285	0.00084163	0.00055946	0.00011516	1443.5	7.4874e-06	4.7378e-06	1435.9	377.4	7.0129e-06	4.4529e-06	428.52	143.96	126.13	42.786	6.3498e-06	52.765	0.00082963	0.0010257	0.00028122	1471.7	9.5074e-06	1.0728e-05	1464.8	387.48	9.158e-06	1.1281e-05	438.87	147.58	129.4	44.053	1.0293e-05	54.71	101.063	143.389	138.283	68.171	203.081	215.870	68.178	73.004	195.787	204.053	72.514	76.946	77.507	82.103	220.402	81.269	-8191	255	
433.611	1	1	0	0	0.19252	0.21487	0.13983	0.55499	0.1925	0.2783	0.34596	0.19471	0.20859	0.070925	0.13292	0.16042	0.055641	0.20789	0.13309	0.096928	-3.7812	-3.7042	-4.2833	-4.0396	-3.8458	-4.4563	-3.9979	-4.1062	-4.2771	-3.7396	-4.4417	-3.9354	-3.6937	-4.4042	-3.7458	-4.0667	289.965	249.344	94.879	369.379	302.025	86.656	364.206	343.037	273.628	413.910	345.053	370.936	389.356	340.567	190.719	59.274	0.00088327	0.00046735	0.00015649	1439.9	6.2486e-06	4.007e-06	1434.9	378.14	7.3582e-06	6.7208e-06	428.93	144.22	126.33	42.478	6.0788e-06	52.701	0.00084671	0.0010114	0.00027973	1470.2	9.9365e-06	1.0532e-05	1463.7	387.09	9.6014e-06	1.2195e-05	438.58	147.71	129.45	43.986	1.1143e-05	54.601	98.216	133.172	151.750	68.290	185.958	197.499	68.156	73.146	190.695	208.792	72.242	76.989	77.395	81.742	203.292	81.052	-8191	255	
433.732	1	1	0	0	0.18874	0.16984	0.21025	0.39305	0.14825	0.14691	0.42664	0.17156	0.016085	0.32255	0.31641	0.20537	0.18571	0.063301	0.096697	0.27997	-3.8688	-3.6958	-4.0563	-4.0375	-3.7208	-4.2312	-4.0354	-4.1771	-4.1562	-3.7521	-4.3729	-4.1687	-3.7062	-4.5167	-3.9229	-4.0062	132.748	246.413	290.514	320.943	71.407	206.001	327.100	354.058	263.861	305.356	388.444	394.886	293.454	358.281	152.491	61.694	0.00087844	0.00053115	0.00012387	1440	5.2538e-06	3.927e-06	1440.2	378.13	6.5051e-06	7.2091e-06	427.24	144.65	126.58	42.57	5.7476e-06	53.075	0.00085279	0.0010655	0.00028772	1469.5	1.0325e-05	1.167e-05	1467.3	387.15	1.0099e-05	1.3156e-05	438.78	147.73	129.61	44.026	1.0985e-05	54.764	102.936	139.123	135.363	68.536	185.713	214.016	68.174	72.936	181.071	207.699	72.495	76.936	77.492	81.975	201.030	80.715	-8191	255	
433.804	1	1	0	0	0.31222	0.17688	0.064157	0.19044	0.066539	0.13277	0.35431	0.20827	0.20028	0.072996	0.1911	0.062378	0.18302	0.22557	0.17994	0.075549	-3.8583	-3.75	-3.9042	-4.3771	-3.8479	-4.4792	-4.0333	-3.9958	-4.1562	-3.65	-4.2396	-4.225	-3.9333	-4.325	-3.8958	-3.9375	342.980	167.596	257.415	340.997	211.714	349.799	404.938	395.552	234.981	65.904	343.373	371.878	373.490	69.177	323.027	286.842	0.00082399	0.00048485	0.000148	1446.1	6.4609e-06	4.5909e-06	1439.9	380.05	6.3403e-06	4.4571e-06	428.22	144.51	125.97	42.633	5.3253e-06	53.081	0.00084556	0.0011181	0.00029593	1475.3	1.0717e-05	1.1647e-05	1468.7	388.28	1.0705e-05	1.212e-05	439.42	148.12	129.74	44.088	1.0636e-05	54.762	97.617	136.525	152.535	68.328	204.076	205.109	68.120	73.192	183.576	200.003	72.397	76.958	77.206	82.075	194.689	81.073	-8191	255	
433.924	1	1	0	0	0.13623	0.03217	0.11396	0.075064	0.048437	0.19598	0.4623	0.079033	0.24334	0.020688	0.064983	0.14112	0.16229	0.081644	0.14911	0.13644	-3.9625	-3.6104	-3.9417	-4.3458	-3.6583	-4.1521	-4.15	-3.8812	-4.3896	-3.8	-4.1271	-4.2708	-3.7792	-4.2292	-4.1083	-3.7521	66.048	111.774	325.475	317.580	134.659	200.543	368.438	363.299	67.607	292.571	301.260	340.149	337.462	63.109	210.965	275.717	0.00084623	0.00061304	0.00013963	1449.8	6.6422e-06	3.9653e-06	1441.9	379.62	6.1825e-06	5.5478e-06	429.1	144.12	126.33	42.803	6.632e-06	53.079	0.00085124	0.0010589	0.00029857	1478.6	1.0969e-05	1.2218e-05	1470	388.57	1.058e-05	1.2079e-05	440.32	148.16	129.79	44.174	1.1073e-05	54.868	101.893	143.250	141.651	68.405	199.397	201.518	68.165	73.089	190.889	204.565	72.624	76.716	77.469	82.146	204.259	80.899	-8191	255	
434.019	1	1	0	0	0.10751	0.12715	0.17128	0.12957	0.063604	0.12607	0.34016	0.091525	0.21309	0.14835	0.23689	0.20459	0.32309	0.21407	0.057508	0.025028	-3.8083	-3.9896	-3.8187	-4.3896	-3.6688	-4.2125	-4.2271	-3.8604	-4.3562	-3.7896	-3.9562	-4.3271	-3.9583	-4.1312	-4.1813	-3.6646	95.783	399.216	74.546	333.096	155.291	122.477	328.065	81.300	257.874	367.222	379.228	354.215	126.096	211.878	352.276	397.189	0.00086249	0.00068629	0.00014562	1445.8	7.4506e-06	4.4697e-06	1441.2	379.42	8.7003e-06	6.1501e-06	430.24	144.82	126.98	42.684	5.8861e-06	52.981	0.00085978	0.0010582	0.00030097	1476.7	1.0917e-05	1.1664e-05	1470.8	388.73	1.029e-05	1.1977e-05	440.2	148.09	130.04	44.136	1.0826e-05	54.801	98.821	131.131	171.436	68.380	193.279	185.707	68.023	73.037	203.296	200.260	72.601	76.980	77.557	81.747	204.948	81.116	-8191	255	
434.115	1	1	0	0	0.021157	0.17419	0.26485	0.22378	0.030419	0.17999	0.40345	0.27847	0.1688	0.18475	0.1481	0.20854	0.10063	0.11526	0.15895	0.072236	-3.7833	-3.9562	-3.7604	-4.4792	-3.7708	-4.1	-4.3104	-3.8187	-4.2167	-3.825	-3.8958	-4.3646	-3.9604	-4.0875	-4.1438	-3.7458	61.815	178.362	172.926	372.528	204.838	216.012	353.917	353.447	173.481	364.615	329.875	361.353	403.760	275.618	147.517	90.919	0.00083525	0.00053697	0.00011907	1448	6.4477e-06	5.6823e-06	1442.8	379.74	7.1654e-06	5.6846e-06	428.53	144.15	126.48	42.49	4.2621e-06	52.928	0.0008544	0.0010893	0.00029364	1478.8	1.0888e-05	1.1815e-05	1471.7	388.72	9.9192e-06	1.2375e-05	440.13	147.98	129.72	44.061	1.1055e-05	54.819	96.951	158.666	139.055	68.395	185.507	213.277	68.314	72.989	190.500	210.273	72.896	76.913	77.422	82.003	199.076	80.980	-8191	255	
434.211	1	1	0	0	0.15181	0.10297	0.041477	0.16845	0.03643	0.1175	0.1188	0.27997	0.1999	0.17636	0.085976	0.1887	0.035946	0.3022	0.065325	0.27331	-3.7479	-3.8979	-3.6063	-4.475	-3.8854	-4.0479	-4.275	-3.6354	-4.2812	-4.0146	-3.8479	-4.2646	-3.8771	-4.1	-4.2708	-3.9125	217.701	255.914	286.367	350.795	68.835	333.196	364.447	338.590	146.374	391.463	320.745	382.199	232.695	353.346	158.334	356.116	0.0008902	0.0005075	0.00014821	1448.9	6.1912e-06	6.4513e-06	1447.6	380.35	6.7494e-06	5.4834e-06	427.66	144.93	126.74	42.725	4.2389e-06	53.027	0.00087898	0.001088	0.00030629	1479.4	1.0999e-05	1.1863e-05	1473	388.5	1.0239e-05	1.2004e-05	439.5	148.17	129.97	44.146	1.0963e-05	54.91	99.717	139.344	165.471	68.429	205.500	204.374	68.253	72.999	192.651	208.247	72.491	76.858	77.382	81.897	191.454	81.050	-8191	255	
434.332	1	1	0	0	0.061143	0.070482	0.18261	0.15037	0.071947	0.2075	0.22947	0.066189	0.15859	0.053727	0.20762	0.085547	0.15472	0.27443	0.11372	0.18084	-3.7958	-4.0854	-3.725	-4.3729	-3.8563	-4.0271	-4.3917	-3.7958	-4.225	-4.0708	-3.8667	-4.2125	-3.8583	-4.0458	-4.2167	-3.825	243.048	115.079	274.450	379.164	62.877	215.634	338.643	123.502	288.675	112.114	329.258	326.961	414.963	392.351	68.460	103.506	0.00085815	0.00062795	0.00014547	1453	7.1453e-06	5.7259e-06	1447.5	379.96	7.0697e-06	3.3574e-06	429.78	144.08	126.64	42.751	7.3714e-06	53.038	0.00087184	0.0011399	0.00032787	1480.1	1.0782e-05	1.1898e-05	1472.5	388.82	9.8593e-06	1.1748e-05	440.57	148.16	129.89	44.155	1.0613e-05	54.819	99.720	150.696	154.658	68.269	198.887	201.385	68.084	73.059	188.579	228.035	72.369	77.228	77.243	81.987	195.192	80.982	-8191	255	
434.403	1	1	0	0	0.1379	0.045885	0.153	0.091695	0.24305	0.20041	0.088329	0.31625	0.040696	0.059166	0.17209	0.23187	0.23877	0.16089	0.31862	0.14798	-3.7667	-3.9813	-3.6646	-4.3875	-3.8625	-3.9458	-4.4125	-3.8063	-3.9729	-4.0125	-3.7604	-4.3354	-4.1021	-3.8167	-4.1438	-4.1229	153.067	88.509	294.984	328.456	394.068	356.197	317.342	370.597	147.962	141.895	276.509	399.028	398.208	295.461	83.958	272.258	0.0008427	0.00054531	0.00014846	1450	5.805e-06	5.8908e-06	1450.7	380.46	6.2958e-06	5.1099e-06	428.32	144.9	126.74	42.842	5.1812e-06	53.148	0.00084274	0.0010605	0.00029501	1480.2	1.0118e-05	1.2458e-05	1475	389.02	1.0141e-05	1.2184e-05	439.31	148.21	129.95	44.157	1.0945e-05	54.915	101.088	140.144	147.622	68.471	193.353	203.030	68.147	72.986	185.681	206.619	72.710	76.973	77.502	82.021	203.559	80.758	-8191	255	
434.499	1	1	0	0	0.29798	0.10529	0.11718	0.23041	0.066005	0.11625	0.40575	0.28992	0.1712	0.1342	0.16456	0.059792	0.18924	0.17046	0.21439	0.21609	-3.6979	-4.2292	-3.7833	-4.2875	-3.9667	-3.7583	-4.4854	-3.9938	-3.9125	-4.2688	-3.8375	-4.2729	-4.2167	-3.9646	-4.2396	-3.9646	55.079	237.720	283.678	392.384	382.730	377.014	371.918	334.747	235.739	88.375	305.433	304.699	343.671	399.267	353.332	361.549	0.00084379	0.00049655	0.00010186	1454.2	6.8788e-06	4.7691e-06	1445.6	378.94	8.5602e-06	6.1562e-06	428.31	145.13	126.83	42.748	6.7856e-06	52.977	0.00085088	0.0010287	0.0003082	1480.6	1.059e-05	1.2002e-05	1472.2	388.71	1.0374e-05	1.1452e-05	440.31	148.27	130.01	44.112	1.0589e-05	54.812	98.991	126.094	140.008	68.557	204.019	217.854	68.038	72.977	183.229	206.388	72.495	76.863	77.401	81.901	213.461	81.150	-8191	255	
#DATA ENDS
