BOXY.EXE: ISS Imagent and Oximeter Data Acquisition Program Version 0.80
Ascii Record File

#ACQ INFORMATION
2  Detector Channels 
16  External MUX Channels 
1  Auxiliary Channels 
5000  Waveform (CCF) Frequency (Hz)
1  Waveforms Skipped 
30  Waveforms Averaged 
1  Cycles Averaged 
16  Acquisitions per Waveform 
10.0806  Updata Rate (Hz) 

#FILE INFORMATION
TRUE -- External MUX Channel results are PARSED.
FALSE -- AC DC and Phase are NOT grouped.
TRUE -- Companion Program Settings File CREATED.
FALSE -- AC data not excluded
FALSE -- DC data not excluded
FALSE -- Phase data not excluded
FALSE -- Auxillary Chn. data not excluded
Tab delimiters

#CALIBRATION STATE
TRUE -- Waveform Calibration Values APPLIED.


#AUX CALIBRATION VALUES
Val Type	aux-1	

Term	1.0000e+00	
Factor	0.0000e+00	


#WF CALIBRATION VALUES
A = Detector Channel
Val Type	A-AC1	A-AC2	A-AC3	A-AC4	A-AC5	A-AC6	A-AC7	A-AC8	A-AC9	A-AC10	A-AC11	A-AC12	A-AC13	A-AC14	A-AC15	A-AC16	A-DC1	A-DC2	A-DC3	A-DC4	A-DC5	A-DC6	A-DC7	A-DC8	A-DC9	A-DC10	A-DC11	A-DC12	A-DC13	A-DC14	A-DC15	A-DC16	A-Ph1	A-Ph2	A-Ph3	A-Ph4	A-Ph5	A-Ph6	A-Ph7	A-Ph8	A-Ph9	A-Ph10	A-Ph11	A-Ph12	A-Ph13	A-Ph14	A-Ph15	A-Ph16	

Term	0.00000e+00	0.00000e+00	0.00000e+00	0.00000e+00	0.00000e+00	0.00000e+00	0.00000e+00	0.00000e+00	0.00000e+00	0.00000e+00	0.00000e+00	0.00000e+00	0.00000e+00	0.00000e+00	0.00000e+00	0.00000e+00	0.00000e+00	0.00000e+00	0.00000e+00	0.00000e+00	0.00000e+00	0.00000e+00	0.00000e+00	0.00000e+00	0.00000e+00	0.00000e+00	0.00000e+00	0.00000e+00	0.00000e+00	0.00000e+00	0.00000e+00	0.00000e+00	0.00000e+00	0.00000e+00	0.00000e+00	0.00000e+00	0.00000e+00	0.00000e+00	0.00000e+00	0.00000e+00	0.00000e+00	0.00000e+00	0.00000e+00	0.00000e+00	0.00000e+00	0.00000e+00	0.00000e+00	0.00000e+00	
Factor	1.00000e+00	1.00000e+00	1.00000e+00	1.00000e+00	1.00000e+00	1.00000e+00	1.00000e+00	1.00000e+00	1.00000e+00	1.00000e+00	1.00000e+00	1.00000e+00	1.00000e+00	1.00000e+00	1.00000e+00	1.00000e+00	1.00000e+00	1.00000e+00	1.00000e+00	1.00000e+00	1.00000e+00	1.00000e+00	1.00000e+00	1.00000e+00	1.00000e+00	1.00000e+00	1.00000e+00	1.00000e+00	1.00000e+00	1.00000e+00	1.00000e+00	1.00000e+00	X	X	X	X	X	X	X	X	X	X	X	X	X	X	X	X	

B = Detector Channel
Val Type	B-AC1	B-AC2	B-AC3	B-AC4	B-AC5	B-AC6	B-AC7	B-AC8	B-AC9	B-AC10	B-AC11	B-AC12	B-AC13	B-AC14	B-AC15	B-AC16	B-DC1	B-DC2	B-DC3	B-DC4	B-DC5	B-DC6	B-DC7	B-DC8	B-DC9	B-DC10	B-DC11	B-DC12	B-DC13	B-DC14	B-DC15	B-DC16	B-Ph1	B-Ph2	B-Ph3	B-Ph4	B-Ph5	B-Ph6	B-Ph7	B-Ph8	B-Ph9	B-Ph10	B-Ph11	B-Ph12	B-Ph13	B-Ph14	B-Ph15	B-Ph16	

Term	0.00000e+00	0.00000e+00	0.00000e+00	0.00000e+00	0.00000e+00	0.00000e+00	0.00000e+00	0.00000e+00	0.00000e+00	0.00000e+00	0.00000e+00	0.00000e+00	0.00000e+00	0.00000e+00	0.00000e+00	0.00000e+00	0.00000e+00	0.00000e+00	0.00000e+00	0.00000e+00	0.00000e+00	0.00000e+00	0.00000e+00	0.00000e+00	0.00000e+00	0.00000e+00	0.00000e+00	0.00000e+00	0.00000e+00	0.00000e+00	0.00000e+00	0.00000e+00	-1.87371e+02	-1.31415e+02	-1.24710e+02	-1.81212e+02	-8.07949e+01	-6.74275e+01	-1.55456e+02	-1.62015e+02	-9.23945e+01	-6.70536e+01	-1.73412e+02	-1.69810e+02	-1.82477e+02	-1.77077e+02	-7.58515e+01	-1.50119e+02	
Factor	3.52827e-05	1.83162e-04	4.58643e-05	1.76287e-01	1.75150e-06	1.83731e-06	1.73502e-01	5.45191e-02	1.85534e-06	1.98930e-06	9.22526e-02	3.05655e-02	2.59148e-02	9.60100e-03	1.73032e-06	1.38546e-02	2.41229e-05	6.45515e-05	1.83404e-05	8.97248e-02	5.50687e-07	7.47304e-07	8.30404e-02	2.77852e-02	5.42900e-07	7.52593e-07	4.57615e-02	1.51588e-02	1.33721e-02	4.94815e-03	6.11691e-07	6.91172e-03	X	X	X	X	X	X	X	X	X	X	X	X	X	X	X	X	



#DISTANCE SETTINGS
A = Detector Channel
A-1	A-2	A-3	A-4	A-5	A-6	A-7	A-8	A-9	A-10	A-11	A-12	A-13	A-14	A-15	A-16	

2.5000e+00	3.0000e+00	2.5000e+00	3.0000e+00	2.0000e+00	3.0000e+00	1.5000e+00	3.0000e+00	3.0000e+00	3.0000e+00	3.0000e+00	3.0000e+00	3.0000e+00	3.0000e+00	1.5000e+00	3.0000e+00	

B = Detector Channel
B-1	B-2	B-3	B-4	B-5	B-6	B-7	B-8	B-9	B-10	B-11	B-12	B-13	B-14	B-15	B-16	

1.0000e+01	1.0000e+01	1.0000e+01	1.4400e+00	1.0000e+01	1.0000e+01	1.5100e+00	1.9400e+00	1.0000e+01	1.0000e+01	1.9900e+00	2.4900e+00	2.4100e+00	2.9000e+00	1.0000e+01	2.9800e+00	




#DATA BEGINS
time	group	step	mark	flag	A-AC1	A-AC2	A-AC3	A-AC4	A-AC5	A-AC6	A-AC7	A-AC8	A-AC9	A-AC10	A-AC11	A-AC12	A-AC13	A-AC14	A-AC15	A-AC16	A-DC1	A-DC2	A-DC3	A-DC4	A-DC5	A-DC6	A-DC7	A-DC8	A-DC9	A-DC10	A-DC11	A-DC12	A-DC13	A-DC14	A-DC15	A-DC16	A-Ph1	A-Ph2	A-Ph3	A-Ph4	A-Ph5	A-Ph6	A-Ph7	A-Ph8	A-Ph9	A-Ph10	A-Ph11	A-Ph12	A-Ph13	A-Ph14	A-Ph15	A-Ph16	B-AC1	B-AC2	B-AC3	B-AC4	B-AC5	B-AC6	B-AC7	B-AC8	B-AC9	B-AC10	B-AC11	B-AC12	B-AC13	B-AC14	B-AC15	B-AC16	B-DC1	B-DC2	B-DC3	B-DC4	B-DC5	B-DC6	B-DC7	B-DC8	B-DC9	B-DC10	B-DC11	B-DC12	B-DC13	B-DC14	B-DC15	B-DC16	B-Ph1	B-Ph2	B-Ph3	B-Ph4	B-Ph5	B-Ph6	B-Ph7	B-Ph8	B-Ph9	B-Ph10	B-Ph11	B-Ph12	B-Ph13	B-Ph14	B-Ph15	B-Ph16	aux-1	digaux	

362.306	1	1	0	768	0.144	0.085691	0.02236	0.2457	0.15735	0.21029	0.15808	0.17595	0.26289	0.18307	0.075021	0.081559	0.19907	0.17833	0.2493	0.10536	-3.1167	-3.8688	-4.0167	-3.8042	-4.1583	-3.7958	-3.9688	-4.2333	-3.7958	-3.9125	-4.1854	-3.6333	-4.0292	-3.9437	-3.6312	-4.1583	122.817	119.718	152.472	103.526	191.667	394.842	382.676	324.700	193.527	336.806	87.000	100.570	94.332	319.554	308.638	309.630	0.00078237	0.00041116	0.00014752	1355.7	5.0733e-06	4.1788e-06	1356.4	365.36	6.9967e-06	6.129e-06	417.75	140.19	121.71	41.693	4.8166e-06	51.464	0.00064056	0.00056173	0.00014649	1376.8	5.4139e-06	5.9099e-06	1376.9	373.35	6.128e-06	5.7103e-06	426.29	143.09	124.29	42.924	6.0902e-06	53.057	95.281	134.685	118.316	54.555	193.322	196.935	54.421	59.266	186.684	206.403	58.598	63.037	63.372	68.219	181.106	67.363	-8191	255	
362.402	1	1	0	0	0.19144	0.29405	0.20495	0.24802	0.16298	0.065523	0.25028	0.21135	0.19678	0.08334	0.19671	0.050239	0.17961	0.23036	0.11295	0.14819	-3.15	-3.6312	-3.8667	-3.7208	-4.0854	-3.9646	-3.8312	-4.2562	-3.6542	-3.8771	-4.2125	-3.6604	-4.0083	-3.8063	-3.525	-4.1396	122.646	379.679	56.928	355.867	77.597	103.187	368.467	74.849	379.020	111.254	383.529	57.516	371.647	64.617	149.687	98.500	0.00074678	0.00059887	0.00013987	1354.2	6.4926e-06	3.3314e-06	1356	365.18	5.4285e-06	4.2818e-06	417.91	140.09	121.84	41.57	6.3744e-06	51.652	0.00061925	0.00057639	0.0001447	1375.2	5.8625e-06	5.6748e-06	1375.6	373.6	5.8452e-06	5.8859e-06	426.44	143.06	124.52	42.955	6.2813e-06	53.17	95.536	131.048	144.516	54.685	185.700	199.566	54.623	59.197	182.438	187.112	58.677	63.128	63.712	68.218	183.556	67.334	-8191	255	
362.497	1	1	0	0	0.10249	0.021419	0.16422	0.3046	0.19552	0.077606	0.17695	0.1573	0.32331	0.25528	0.18669	0.22024	0.13902	0.13155	0.046055	0.12582	-3.2979	-3.7167	-3.8792	-3.8229	-3.8417	-4.0042	-3.9604	-4.1771	-3.6979	-3.6458	-4.1458	-3.8104	-3.9875	-4.1292	-3.5521	-4.1333	288.395	374.383	155.902	385.440	269.017	335.896	71.487	45.791	94.445	273.747	368.405	319.263	317.249	350.875	336.726	149.485	0.00076391	0.00048435	0.00016923	1351.3	6.1613e-06	4.7856e-06	1355.5	365.79	7.4274e-06	6.0881e-06	417.63	140.32	122.14	41.636	5.8105e-06	51.594	0.00064081	0.000546	0.00015074	1374.3	5.7983e-06	5.8726e-06	1375	373.55	6.473e-06	5.6962e-06	426.3	143.18	124.52	42.859	6.2507e-06	53.179	96.014	128.882	130.746	54.538	192.774	186.270	54.296	59.372	179.321	200.089	58.744	63.063	63.556	68.083	188.225	67.217	-8191	255	
362.595	1	1	0	0	0.1575	0.15408	0.33032	0.18279	0.11117	0.057595	0.20757	0.090571	0.072076	0.13391	0.15617	0.31584	0.23699	0.1765	0.13006	0.1019	-3.3812	-3.6354	-4.0583	-4.0083	-3.8396	-4.0396	-3.7667	-3.9938	-3.9167	-3.5854	-4.225	-3.8292	-3.8146	-4.1479	-3.7667	-4.1354	315.818	293.591	232.772	339.913	338.945	279.512	296.741	340.917	357.014	163.408	292.649	278.679	358.705	82.356	346.508	301.714	0.00076552	0.00053649	0.0001184	1351	6.7438e-06	4.777e-06	1348.6	366.34	6.7456e-06	5.6901e-06	417.57	139.42	122.29	41.519	5.0607e-06	51.632	0.00063338	0.00055192	0.00014699	1374.2	6.069e-06	5.7729e-06	1374	373.7	5.9301e-06	5.737e-06	426.46	143.05	124.62	42.91	5.8569e-06	53.063	94.194	130.856	123.144	54.527	188.805	175.450	54.448	59.451	190.884	194.674	58.592	63.164	63.471	68.090	184.790	67.238	-8191	255	
362.689	1	1	0	0	0.10247	0.0042852	0.16215	0.089472	0.075553	0.20852	0.1251	0.050439	0.19314	0.17297	0.1585	0.14036	0.073612	0.081936	0.20376	0.080695	-3.4875	-3.5938	-4.0917	-3.8896	-3.8479	-4.0979	-3.7958	-3.8646	-4.1583	-3.7375	-4.1104	-3.825	-3.7167	-4.1271	-3.4562	-4.0854	45.368	73.230	175.421	303.229	251.223	291.219	268.963	82.636	349.963	378.353	363.760	293.568	241.970	311.609	58.943	343.922	0.00076102	0.00065451	0.00012438	1351.1	6.438e-06	4.9082e-06	1351.3	366.15	7.4389e-06	4.8542e-06	415.61	139.29	121.73	41.469	5.2349e-06	51.606	0.00063046	0.00057263	0.00013622	1375.7	5.8889e-06	5.6562e-06	1373.7	373.6	6.0556e-06	5.7903e-06	425.76	142.76	124.55	42.887	5.8187e-06	53.129	92.191	122.603	126.016	54.747	192.109	180.796	54.418	59.358	179.364	179.871	58.728	63.130	63.669	68.003	187.375	67.405	-8191	255	
362.785	1	1	0	0	0.01291	0.32467	0.085422	0.12359	0.20518	0.063892	0.1575	0.20213	0.090433	0.046311	0.20351	0.3622	0.075543	0.16944	0.14952	0.084432	-3.6271	-3.6292	-4.1917	-3.9437	-3.5917	-4.1729	-3.9792	-3.9437	-4.0958	-3.5083	-4.2312	-3.9854	-3.8187	-4.1479	-3.7458	-3.9479	275.836	218.064	118.330	381.371	156.868	51.576	213.352	380.173	317.803	159.316	327.902	363.714	396.194	333.773	166.659	306.273	0.00073531	0.00052861	0.00013713	1349.1	5.8796e-06	4.4751e-06	1351.2	366	5.8711e-06	5.5094e-06	416.2	139.93	122.23	41.515	5.7936e-06	51.619	0.00061729	0.0005659	0.00013599	1373.8	6.0484e-06	5.2576e-06	1373.5	373.34	5.5715e-06	5.8467e-06	425.95	143.24	124.68	42.931	6.0723e-06	53.075	94.122	128.811	128.035	54.678	178.952	198.863	54.232	59.283	177.228	196.285	58.632	63.129	63.529	68.143	197.138	67.075	-8191	255	
362.906	1	1	0	0	0.22872	0.22957	0.06181	0.065686	0.09486	0.12524	0.28542	0.068489	0.19905	0.12266	0.26602	0.19212	0.23105	0.19952	0.11208	0.11672	-3.5896	-3.5604	-3.8187	-3.9792	-3.7687	-4.2562	-3.8896	-3.9688	-4.1438	-3.6625	-4.1104	-3.9292	-3.7521	-4.1833	-3.9083	-3.9375	172.115	202.914	312.852	325.887	393.127	207.556	325.781	333.128	52.959	353.603	92.726	97.311	386.766	250.185	284.255	376.513	0.00076999	0.00057201	0.00012068	1353.2	5.9162e-06	4.939e-06	1351.3	365.77	5.512e-06	5.4625e-06	415.49	139.43	122.12	41.555	5.4233e-06	51.392	0.00061378	0.00054681	0.00013197	1375.1	6.0426e-06	5.2327e-06	1373	372.91	5.3351e-06	5.8953e-06	425.17	142.84	124.2	42.845	5.5728e-06	52.951	95.491	120.587	141.757	54.757	193.591	185.217	54.372	59.212	171.867	195.971	58.764	62.889	63.591	68.072	179.218	67.466	-8191	255	
363.002	1	1	0	0	0.046207	0.16066	0.16924	0.28193	0.10289	0.16767	0.15483	0.012161	0.057168	0.045454	0.050158	0.10415	0.030589	0.22845	0.15497	0.1841	-3.7687	-3.6292	-3.9375	-3.9479	-3.675	-4.1833	-3.9708	-3.8	-4.1521	-3.675	-3.8979	-4.1646	-3.5667	-4.1125	-3.7583	-3.825	248.803	180.364	284.799	93.901	349.056	276.073	357.462	139.672	44.954	368.598	333.264	334.880	293.426	357.769	238.693	268.033	0.00074942	0.00056608	0.00013099	1349.3	6.362e-06	4.4586e-06	1349.5	366.5	6.0607e-06	5.5587e-06	417.61	139.12	121.56	41.815	5.2573e-06	51.621	0.00061805	0.0005499	0.00013679	1370.9	5.765e-06	4.7827e-06	1371.1	373.09	5.6247e-06	5.8655e-06	425.77	142.69	124.09	42.901	5.7231e-06	53.067	95.404	130.051	137.659	54.599	186.875	191.654	54.281	59.190	179.712	190.971	58.699	62.994	63.686	68.255	194.685	67.355	-8191	255	
363.098	1	1	0	0	0.08355	0.075096	0.19785	0.50559	0.082059	0.10573	0.20193	0.15679	0.16159	0.20667	0.20319	0.2791	0.075695	0.22369	0.10249	0.081337	-3.8229	-3.4958	-4.0125	-4.1333	-3.5854	-4.0271	-4.0104	-3.6625	-3.9917	-3.7833	-3.8917	-4.0792	-3.6917	-3.8979	-3.8063	-3.6875	288.849	273.541	57.609	337.872	326.960	120.288	267.256	43.201	204.514	273.500	330.220	332.032	332.418	109.278	174.252	162.580	0.0007863	0.00045631	0.00012387	1350.5	6.4121e-06	5.1234e-06	1351.8	364.28	6.8764e-06	6.2078e-06	417.03	140.04	121.54	41.597	5.3295e-06	51.354	0.00060388	0.00052018	0.00013698	1371.8	5.6858e-06	5.4491e-06	1373.2	372.31	5.5455e-06	5.9282e-06	425.7	142.94	124.34	42.848	5.8633e-06	53.059	95.227	119.541	146.192	54.532	182.285	184.401	54.747	59.198	182.340	192.179	58.831	63.286	63.552	68.238	195.813	67.281	-8191	255	
363.194	1	1	0	0	0.11725	0.27516	0.12801	0.17578	0.17027	0.26463	0.39706	0.10484	0.09555	0.16205	0.11647	0.26191	0.36836	0.40388	0.091721	0.22703	-3.7	-3.7188	-3.7396	-4.1979	-3.5583	-4.0437	-3.8854	-3.7375	-4.1125	-3.8438	-3.9188	-4.1687	-3.8708	-3.9562	-3.85	-3.7292	175.364	215.016	360.100	335.822	126.052	140.593	386.441	311.394	208.512	242.843	74.326	381.989	43.747	378.700	379.689	307.065	0.00080355	0.00041442	0.0001468	1349.9	7.0809e-06	4.3141e-06	1350.4	364.67	6.5016e-06	5.5022e-06	416.65	139.54	121.44	41.612	3.9145e-06	51.308	0.0006378	0.00051803	0.00015643	1371.1	5.5333e-06	5.4616e-06	1372.2	372.65	5.446e-06	5.7887e-06	425.6	142.81	124.26	42.833	5.5498e-06	53.043	94.508	129.137	132.720	54.501	191.409	208.026	54.534	59.269	180.244	205.339	58.643	63.189	63.899	68.192	199.665	67.231	-8191	255	
363.291	1	1	0	0	0.11902	0.1051	0.12147	0.18536	0.090527	0.1204	0.094017	0.19791	0.038806	0.25329	0.12492	0.19771	0.45623	0.33851	0.2333	0.18917	-3.85	-3.7792	-3.6813	-4.2104	-3.75	-3.9833	-4.2479	-3.7125	-4.2021	-3.7833	-3.7417	-4.2312	-3.8187	-4.0938	-4.1104	-3.7229	172.295	391.869	46.844	354.387	76.784	283.463	55.981	366.123	163.613	311.380	55.904	331.075	55.611	319.794	350.579	350.115	0.00077014	0.0003751	0.0001417	1350.1	7.5924e-06	5.0451e-06	1351.4	363.73	6.9588e-06	4.0802e-06	416.51	139.96	121.63	41.551	5.9201e-06	51.46	0.00062559	0.00048831	0.00014321	1371.5	5.7868e-06	5.5752e-06	1371.9	372.17	5.714e-06	5.5206e-06	425.69	142.89	124.32	42.874	5.7384e-06	52.947	91.353	123.584	138.101	54.669	192.586	202.220	54.497	59.360	177.688	195.427	58.623	62.874	63.602	68.144	192.622	67.359	-8191	255	
363.387	1	1	0	0	0.14428	0.058516	0.11472	0.33635	0.13994	0.063632	0.11036	0.26952	0.28484	0.1556	0.070509	0.059198	0.24364	0.20259	0.05766	0.073721	-3.6917	-3.6813	-3.7292	-4.2354	-3.7458	-3.8063	-4.3625	-3.7062	-3.8937	-3.9271	-3.7667	-4.2521	-3.7771	-3.8833	-4.0125	-3.6646	338.041	328.203	372.684	364.694	223.766	214.517	346.825	375.744	118.390	357.464	216.049	258.594	304.071	385.473	289.407	58.094	0.00076428	0.00044144	0.00011169	1348.5	6.1003e-06	5.072e-06	1350.6	366.1	7.486e-06	6.8793e-06	415.66	140.32	121.65	41.742	5.1676e-06	51.605	0.0006179	0.00053389	0.00014776	1372	5.734e-06	5.4818e-06	1372.2	373.16	5.7423e-06	5.6021e-06	425.27	142.95	124.42	42.928	5.4772e-06	52.994	96.344	133.249	146.677	54.502	187.264	198.333	54.398	59.367	173.715	201.644	58.488	62.969	63.545	68.223	201.598	67.441	-8191	255	
363.483	1	1	0	0	0.085471	0.12328	0.1915	0.12415	0.26657	0.071447	0.13302	0.24445	0.22302	0.30531	0.089259	0.25127	0.063402	0.12639	0.28031	0.073493	-3.4646	-3.8833	-3.6292	-4.3438	-3.7667	-3.8167	-4.4229	-3.6146	-3.9229	-3.9583	-3.6667	-4.3333	-3.7354	-3.8729	-4.1729	-3.6188	211.107	355.155	231.800	346.553	271.685	323.544	303.448	266.157	388.323	273.772	238.519	42.577	330.556	50.063	399.785	77.422	0.00075009	0.00056014	9.9037e-05	1347.2	6.3831e-06	4.2511e-06	1352	365.12	5.7531e-06	4.9001e-06	414.68	140.05	121.69	41.761	5.4797e-06	51.614	0.00060327	0.00048198	0.00013816	1371.9	5.8683e-06	5.5316e-06	1372	372.76	5.5172e-06	5.2415e-06	425.21	142.92	124.29	42.845	4.9534e-06	52.983	93.040	123.344	134.349	54.618	189.280	201.391	54.211	59.349	174.411	180.995	58.631	63.302	63.833	68.288	198.300	67.555	-8191	255	
363.602	1	1	0	0	0.15367	0.22151	0.097873	0.21323	0.077671	0.10627	0.18246	0.10697	0.07602	0.042477	0.212	0.10764	0.025798	0.14838	0.1266	0.071041	-3.5771	-4.0042	-3.5354	-4.1937	-3.8333	-3.8	-4.35	-3.6292	-3.8042	-4.1479	-3.6312	-4.075	-4.0563	-3.5083	-4.025	-3.8792	272.834	175.000	102.242	306.763	158.307	389.857	294.997	65.446	133.233	338.166	363.062	347.097	269.738	50.753	228.117	262.613	0.00076357	0.00049705	0.00011255	1348.4	6.0138e-06	5.6404e-06	1351.5	366.11	6.6905e-06	4.0042e-06	416.15	139.63	121.89	41.573	4.3639e-06	51.551	0.0006088	0.00047002	0.00013755	1370.8	5.9337e-06	5.6297e-06	1371.8	372.78	5.8407e-06	5.2431e-06	425.21	142.76	124.17	42.875	5.0006e-06	52.965	93.271	122.137	141.540	54.533	185.732	202.573	54.331	59.302	177.368	190.476	58.836	63.064	63.590	68.209	198.600	67.447	-8191	255	
363.698	1	1	0	0	0.19985	0.20037	0.17531	0.31041	0.090601	0.14146	0.17679	0.13278	0.14938	0.054351	0.39941	0.19207	0.12285	0.10542	0.1227	0.11358	-3.3187	-4.0167	-3.6167	-4.0771	-3.8854	-3.5667	-4.2063	-3.9708	-3.8021	-4.1125	-3.7812	-3.9062	-4.0271	-3.7583	-4.0479	-3.8937	206.350	218.837	398.505	332.247	242.118	137.812	284.432	356.201	171.589	296.735	46.522	297.693	355.473	390.922	80.202	188.064	0.00077415	0.00063998	0.00011809	1349	5.4414e-06	5.9433e-06	1350.1	366.17	5.5191e-06	5.9187e-06	416.5	139.58	121.81	41.647	5.7191e-06	51.472	0.00063936	0.00048481	0.00014065	1371.7	5.4828e-06	5.8913e-06	1371.5	372.94	5.8882e-06	5.16e-06	425.36	142.81	124.28	42.845	5.439e-06	52.97	93.836	131.426	121.493	54.671	184.892	195.350	54.554	59.378	175.638	201.181	58.597	63.040	63.598	68.133	195.755	67.091	-8191	255	
363.794	1	1	0	0	0.21467	0.15731	0.097552	0.14092	0.12532	0.14901	0.41222	0.21794	0.092725	0.22681	0.22054	0.27645	0.29589	0.15054	0.066853	0.22119	-3.2792	-4.0667	-3.5125	-4.0292	-3.9917	-3.6354	-4.2271	-3.9542	-3.5896	-4.2937	-3.7438	-3.9625	-4.1021	-3.5833	-3.9854	-3.8354	151.919	161.103	375.405	343.783	383.576	323.812	332.285	58.921	234.589	390.346	63.956	59.713	390.093	244.985	73.696	392.867	0.00079513	0.00049654	0.00012951	1350.2	5.4683e-06	6.9941e-06	1349.9	365.48	6.3126e-06	5.5644e-06	416.34	139.86	121.59	41.544	5.6077e-06	51.388	0.00063463	0.00049624	0.0001473	1373.1	5.2981e-06	5.5814e-06	1372.6	372.76	5.6292e-06	5.4375e-06	425.71	142.87	124.15	42.807	5.5779e-06	52.97	92.798	130.673	133.727	54.557	195.551	204.989	54.382	59.404	175.422	198.100	58.691	63.092	63.451	68.167	198.046	67.411	-8191	255	
363.890	1	1	0	0	0.14689	0.097943	0.29096	0.086764	0.15926	0.12141	0.1695	0.27272	0.32722	0.086691	0.18693	0.24622	0.16475	0.13735	0.18543	0.28263	-3.075	-4.0292	-3.4375	-3.9583	-4.0125	-3.55	-4.025	-4.0437	-3.6917	-4.0458	-3.8792	-3.9271	-4.1792	-3.7042	-4.0208	-3.9958	125.214	139.295	273.305	257.970	230.730	307.521	358.695	359.097	152.495	96.169	297.869	367.440	378.529	353.923	49.668	376.618	0.00074985	0.00063533	0.00015058	1349	6.1154e-06	5.4906e-06	1352.9	365.59	6.5105e-06	5.0554e-06	416.34	139.49	121.65	41.723	4.4026e-06	51.502	0.00062478	0.00051426	0.00015796	1374.6	5.313e-06	5.5892e-06	1375	373.15	5.9674e-06	5.5488e-06	425.96	143.01	124.31	42.923	5.4288e-06	53.002	96.833	132.315	137.666	54.662	175.101	179.271	54.345	59.417	168.085	194.710	58.731	63.121	63.604	68.150	190.606	67.456	-8191	255	
363.986	1	1	0	0	0.055504	0.20707	0.14904	0.15791	0.23352	0.15501	0.14115	0.096548	0.11611	0.10815	0.28301	0.089809	0.22595	0.14231	0.14069	0.16429	-3.2917	-3.9396	-3.7583	-3.7687	-3.9833	-3.5687	-4.0167	-4.0354	-3.7021	-4.2146	-3.8563	-3.8917	-4.1042	-3.5917	-3.975	-3.9604	261.060	297.758	50.963	322.252	314.692	235.668	314.233	84.115	56.431	308.874	384.431	346.494	107.941	337.809	155.371	99.895	0.00079494	0.00052664	0.00012048	1356.1	5.2503e-06	4.5872e-06	1357.5	366.69	6.5433e-06	6.1975e-06	417.05	140.67	121.64	41.775	5.7226e-06	51.371	0.00063423	0.00052838	0.00015429	1376.6	5.5241e-06	5.7511e-06	1378.5	373.74	5.9436e-06	5.8514e-06	426.42	143.21	124.64	42.944	5.6212e-06	53.135	94.594	126.479	138.971	54.729	183.504	186.094	54.415	59.232	189.101	192.636	58.656	62.801	63.636	68.403	179.237	67.031	-8191	255	
364.082	1	1	0	0	0.17252	0.28707	0.19456	0.21872	0.032018	0.1744	0.041426	0.1074	0.3199	0.2115	0.26858	0.28648	0.090476	0.1396	0.1586	0.095572	-3.1854	-4.1604	-3.7938	-3.7021	-4.1417	-3.5792	-4.0229	-4.1229	-3.5312	-4.1562	-3.8208	-3.5021	-4.1062	-3.6813	-4.0354	-4.2458	240.299	260.467	88.354	347.757	172.163	354.109	380.763	356.781	318.300	284.149	341.057	302.629	98.314	95.705	328.272	386.698	0.00079199	0.00039555	0.00014055	1352.5	5.9441e-06	5.3239e-06	1357.5	365.73	6.4166e-06	4.9097e-06	416.86	140.41	121.68	41.549	4.6815e-06	51.636	0.00065127	0.0004758	0.00014313	1375.7	5.3463e-06	5.6717e-06	1376.5	373.45	5.2978e-06	5.5112e-06	426.09	143.29	124.48	42.893	5.5728e-06	53.161	93.593	131.689	135.365	54.503	190.461	196.256	54.373	59.471	183.456	192.788	58.816	63.029	63.624	68.119	203.447	67.349	-8191	255	
364.179	1	1	0	0	0.064107	0.16249	0.17104	0.13865	0.17184	0.16527	0.25049	0.14391	0.13461	0.20031	0.10503	0.16491	0.14325	0.050955	0.022447	0.13845	-3.2479	-3.8875	-3.8854	-3.7125	-3.8563	-3.7458	-3.8792	-4.1333	-3.5167	-3.9208	-3.9521	-3.8604	-4.1521	-3.6167	-3.8917	-4.3146	191.017	209.676	92.653	98.468	329.095	281.996	393.745	100.665	75.707	209.939	364.803	50.665	251.406	294.562	148.488	257.378	0.00076053	0.0005786	8.5239e-05	1348.2	6.2636e-06	4.2258e-06	1355.4	365.56	6.4155e-06	6.1545e-06	417.73	140.25	121.74	41.569	5.2146e-06	51.524	0.00062539	0.00049516	0.0001421	1375.5	5.6205e-06	5.5005e-06	1376.3	373.23	6.0092e-06	5.4939e-06	426.24	143.2	124.58	42.963	5.834e-06	53.15	93.041	145.242	119.831	54.686	188.190	191.172	54.328	59.326	185.570	192.413	58.746	63.126	63.561	67.998	190.013	67.445	-8191	255	
364.275	1	1	0	0	0.19419	0.159	0.095827	0.23128	0.15705	0.048638	0.29794	0.14236	0.11716	0.1181	0.36295	0.15744	0.038493	0.090099	0.037026	0.056087	-3.2458	-4.0396	-3.9	-3.7646	-4.1167	-3.825	-3.9833	-4.1354	-3.6063	-3.875	-4.1312	-3.5979	-4.0146	-3.8125	-3.7729	-4.2479	55.829	95.892	88.598	378.065	270.750	350.113	358.637	353.800	145.971	276.557	350.070	346.372	370.544	110.060	363.461	370.030	0.00075426	0.00050381	0.00012585	1352.5	6.057e-06	4.463e-06	1355.5	365.33	7.3516e-06	5.0488e-06	418.01	140.17	121.74	41.542	6.4661e-06	51.515	0.00062302	0.00053618	0.00014264	1376.3	5.2315e-06	5.7324e-06	1375.1	373.43	5.8611e-06	5.4202e-06	426.27	142.89	124.53	42.857	5.532e-06	53.119	95.934	123.885	140.210	54.780	184.535	192.355	54.237	59.181	185.882	190.190	58.643	63.430	63.717	68.003	203.176	67.323	-8191	255	
364.394	1	1	0	0	0.38455	0.24451	0.1734	0.093056	0.08481	0.11328	0.17135	0.20613	0.19436	0.14518	0.12501	0.23186	0.36742	0.40282	0.015019	0.24727	-3.3875	-3.8417	-4.1125	-3.55	-4.0104	-3.8063	-4.05	-4.1083	-3.5896	-3.95	-4.1104	-3.6792	-4.2	-3.8604	-3.5812	-4.2292	358.829	120.641	360.142	338.368	58.148	89.505	329.495	346.479	83.703	249.843	62.086	349.876	360.490	82.433	324.614	330.833	0.00082061	0.00054552	0.00012223	1355.8	6.2185e-06	4.0283e-06	1357.7	367.09	6.4064e-06	4.5294e-06	418.99	140.01	122.09	41.829	4.9824e-06	51.753	0.00064041	0.00050767	0.00013549	1376.8	5.4151e-06	5.2685e-06	1377.7	373.51	5.8147e-06	5.1035e-06	426.15	143.05	124.53	42.98	5.7078e-06	53.19	94.093	128.782	143.933	54.575	188.391	192.711	54.374	59.212	177.632	209.028	58.925	63.055	63.498	68.292	194.625	67.328	-8191	255	
364.467	1	1	0	0	0.20977	0.10892	0.15335	0.30249	0.19857	0.1175	0.11178	0.13456	0.22444	0.10337	0.11742	0.015862	0.088746	0.17461	0.17596	0.1831	-3.2396	-3.6521	-4.0271	-3.7396	-3.9271	-3.9542	-3.6396	-4.2104	-3.6396	-3.7333	-4.0312	-3.6729	-3.9396	-4.0854	-3.5667	-4.0792	394.965	230.677	104.907	380.249	374.842	264.777	305.793	399.746	362.142	261.925	42.040	114.977	352.808	324.184	66.550	384.525	0.00078728	0.00063279	0.0001302	1352.6	6.3621e-06	5.2528e-06	1352.8	365.83	6.8541e-06	5.0036e-06	416.75	139.37	121.78	41.777	4.8407e-06	51.574	0.0006184	0.00051009	0.00013098	1373.8	5.8086e-06	5.3619e-06	1372	373.04	5.835e-06	5.7479e-06	425.97	142.77	124.48	42.921	5.3689e-06	52.988	93.996	122.869	132.973	54.512	196.339	196.067	54.645	59.308	185.025	183.177	58.680	63.029	63.670	68.272	197.358	67.265	-8191	255	
364.588	1	1	0	0	0.13264	0.12521	0.11996	0.22237	0.083452	0.045324	0.17648	0.20038	0.24434	0.15672	0.12641	0.33195	0.089791	0.15057	0.11681	0.109	-3.3187	-3.6208	-4.0604	-3.8708	-4.0229	-4.0667	-3.6792	-4.0437	-3.9188	-3.4708	-4.2333	-3.75	-3.9917	-4.0083	-3.6646	-4.075	314.267	170.717	228.564	265.485	285.920	334.366	357.880	297.976	262.893	271.774	374.400	361.600	361.259	382.090	398.953	286.231	0.00079574	0.000539	0.00012986	1344.7	6.0984e-06	5.6902e-06	1349.4	366.9	6.5103e-06	4.6309e-06	417.87	140.14	121.9	41.664	4.9278e-06	51.663	0.00063262	0.00052731	0.00013056	1369.9	5.7948e-06	5.4584e-06	1371.6	373.33	5.7208e-06	5.5222e-06	426.07	142.94	124.44	42.861	5.7486e-06	53.079	92.977	137.442	134.947	54.721	191.638	190.950	54.337	59.422	180.868	194.895	58.801	63.041	63.646	68.378	192.850	67.584	-8191	255	
364.682	1	1	0	0	0.14156	0.10348	0.14201	0.33913	0.073335	0.11833	0.25708	0.14606	0.19526	0.10069	0.22049	0.21541	0.11569	0.10253	0.20606	0.32245	-3.475	-3.6979	-4.0604	-3.7917	-3.7167	-4.0521	-3.7979	-4.0583	-3.8333	-3.6646	-4.0896	-3.9958	-3.875	-4.0417	-3.4646	-4.0583	318.695	131.810	393.354	50.228	359.281	52.580	273.948	258.245	215.568	232.931	353.989	373.784	345.179	72.183	318.116	362.137	0.00079805	0.00049021	0.00014261	1348	5.4895e-06	5.8927e-06	1349	365.36	5.9657e-06	4.1297e-06	419.15	139.55	121.46	41.714	4.7838e-06	51.487	0.00064142	0.00057316	0.00014497	1370.5	6.0679e-06	5.5596e-06	1370.2	372.96	5.7366e-06	6.2371e-06	426.23	142.78	124.28	42.941	6.2953e-06	53.075	95.985	115.214	122.353	54.619	185.306	189.980	54.631	59.336	177.642	211.451	58.801	62.979	63.711	68.237	189.497	67.451	-8191	255	
364.778	1	1	0	0	0.13166	0.25966	0.086084	0.17986	0.076869	0.080488	0.22759	0.15877	0.1474	0.18178	0.020879	0.14148	0.18645	0.15711	0.084986	0.21486	-3.575	-3.5292	-4.0708	-3.9	-3.6458	-4.0583	-3.7458	-3.9875	-4.0333	-3.6042	-4.1083	-3.9292	-3.7687	-4.0396	-3.6	-4.0083	372.619	77.770	270.134	393.495	323.477	377.136	333.309	383.389	186.128	83.058	83.791	47.634	333.829	77.098	266.071	298.323	0.00076774	0.00066324	0.00011752	1349.1	5.5803e-06	4.8839e-06	1357.3	365.6	6.5418e-06	4.5121e-06	416.76	139.74	121.32	41.541	5.6968e-06	51.497	0.00062473	0.00060665	0.00015173	1374.7	5.9738e-06	6.1092e-06	1374.7	373.32	6.3304e-06	6.0866e-06	426.35	143.03	124.45	42.896	5.9449e-06	53.107	94.611	130.857	138.329	54.685	187.270	196.854	54.452	59.273	172.854	178.583	58.658	63.297	63.546	68.198	196.241	67.663	-8191	255	
364.874	1	1	0	0	0.21222	0.031831	0.084723	0.24136	0.15566	0.11253	0.092576	0.039572	0.034866	0.16742	0.25889	0.054531	0.1254	0.088548	0.067216	0.27052	-3.5729	-3.3542	-4.0375	-3.8604	-3.7021	-4.1833	-3.7146	-4.0854	-4.05	-3.5042	-4.0292	-3.7729	-3.7604	-4.1958	-3.8146	-3.9396	389.395	275.729	159.644	378.638	296.056	342.077	345.015	249.322	308.280	270.807	64.189	315.902	71.580	304.118	186.503	303.014	0.00079686	0.00056228	0.00012365	1349.7	6.7614e-06	3.4806e-06	1354.4	365.94	6.3942e-06	5.235e-06	417.95	140.8	122.11	41.722	6.5893e-06	51.44	0.00063071	0.00057679	0.00015693	1373.4	6.0048e-06	6.0843e-06	1374.8	373.18	6.0092e-06	6.3437e-06	426.44	143.07	124.43	42.938	6.1526e-06	53.082	94.269	128.334	129.456	54.755	199.067	189.266	54.550	59.330	177.838	192.150	58.537	63.162	63.550	68.261	207.369	67.496	-8191	255	
364.995	1	1	0	0	0.082462	0.10059	0.14838	0.4001	0.13615	0.047682	0.33812	0.15807	0.13595	0.16203	0.058203	0.11238	0.033678	0.37835	0.17868	0.036024	-3.7062	-3.6229	-3.8583	-3.8854	-3.6646	-4.1875	-3.7229	-3.9625	-4.0917	-3.4667	-4.0542	-4.0208	-3.6604	-4.1042	-3.7104	-3.8208	146.342	84.424	249.810	345.789	294.661	373.561	341.377	361.388	80.281	243.311	235.862	306.800	245.560	126.782	157.697	266.621	0.00075708	0.00056725	0.00013587	1349.7	5.563e-06	3.7423e-06	1355.7	366.86	5.198e-06	5.8149e-06	416.96	139.9	122.07	41.731	4.3583e-06	51.47	0.00062775	0.00058944	0.00015196	1373.7	5.9153e-06	5.5674e-06	1377.6	373.46	5.4595e-06	5.8106e-06	426.19	142.86	124.61	42.994	5.8353e-06	53.12	94.565	129.812	137.104	54.785	187.078	188.914	54.269	59.456	186.268	198.312	58.753	63.329	63.685	68.201	190.607	67.120	-8191	255	
365.091	1	1	0	0	0.19103	0.2128	0.22062	0.1366	0.19103	0.15153	0.18142	0.31281	0.011801	0.18699	0.20075	0.25985	0.21229	0.087258	0.033984	0.13281	-3.5458	-3.6146	-3.9146	-3.9792	-3.4667	-4.1354	-3.8896	-3.8542	-3.8708	-3.5479	-3.8833	-3.9271	-3.5771	-4.0938	-3.9313	-3.7271	276.934	233.166	290.607	92.562	225.921	173.039	368.234	65.020	174.762	176.125	292.327	380.366	359.994	290.904	71.918	363.268	0.0007622	0.00056043	0.00012588	1353.2	6.886e-06	4.4088e-06	1355.3	365.68	7.3245e-06	5.0172e-06	416.27	139.88	121.94	41.652	5.7312e-06	51.782	0.00061855	0.00055393	0.00013381	1377.1	6.0966e-06	5.4444e-06	1375.6	373.14	5.5274e-06	5.5394e-06	426.1	142.83	124.51	42.92	5.7512e-06	53.177	95.617	123.444	131.567	54.653	189.598	193.098	54.503	59.345	181.993	179.232	58.851	63.143	63.802	68.266	191.640	67.524	-8191	255	
365.163	1	1	0	0	0.047159	0.21736	0.16508	0.12957	0.15515	0.087429	0.16227	0.059382	0.31496	0.079601	0.16502	0.10918	0.22631	0.23295	0.2054	0.21411	-3.5542	-3.6354	-3.7979	-4.0708	-3.3979	-3.9562	-4.0125	-3.675	-4.1458	-3.7646	-4.0021	-4.2708	-3.6896	-4.0625	-3.9437	-3.7479	95.784	129.146	337.445	333.521	335.913	329.495	271.933	349.317	82.241	121.706	239.431	318.818	384.344	55.858	347.856	360.227	0.0007959	0.00049349	0.00015066	1352.2	6.4578e-06	4.1826e-06	1357.9	365.12	6.5814e-06	4.2941e-06	418.94	139.84	122.24	41.632	5.1224e-06	51.561	0.00062915	0.00050821	0.00014474	1374.9	5.7902e-06	5.337e-06	1375.4	372.96	5.6812e-06	5.4939e-06	426.47	142.99	124.47	42.931	5.077e-06	53.279	92.161	134.960	128.706	54.547	188.329	186.552	54.396	59.274	177.034	192.917	58.685	63.065	63.684	68.131	193.938	67.308	-8191	255	
365.283	1	1	0	0	0.10782	0.042932	0.10776	0.41558	0.36963	0.17982	0.2873	0.14125	0.13275	0.06749	0.24482	0.36614	0.098166	0.34382	0.3477	0.2079	-3.8271	-3.6458	-3.5438	-4.2979	-3.5687	-3.8979	-3.9479	-3.6521	-4.1146	-3.6729	-3.6063	-4.2312	-3.7146	-3.9479	-3.8	-3.6667	196.977	274.593	122.039	389.225	398.209	233.503	303.695	307.773	96.372	94.761	48.780	61.692	241.827	356.144	122.042	359.263	0.00079112	0.00046094	0.00012244	1354.9	5.9122e-06	5.2969e-06	1354.7	365.4	6.3271e-06	6.4574e-06	417.07	140.2	122.2	41.656	5.44e-06	51.562	0.00061996	0.00048414	0.00014275	1376.6	5.9119e-06	5.4133e-06	1377.2	373.38	5.55e-06	5.7307e-06	426.81	143	124.6	42.937	5.5154e-06	53.182	96.045	135.664	137.193	54.724	192.817	196.235	54.431	59.542	201.587	186.141	58.802	62.999	63.877	68.349	191.981	67.591	-8191	255	
365.380	1	1	0	0	0.31295	0.12526	0.03621	0.15452	0.045979	0.19198	0.19259	0.17064	0.039405	0.19797	0.12594	0.21338	0.061336	0.17892	0.24458	0.26619	-3.5187	-3.5563	-3.4354	-4.0396	-3.5333	-3.8042	-4.1375	-3.5979	-4.0146	-3.9333	-3.5771	-4.0917	-3.7792	-3.8063	-3.9917	-3.7438	264.961	320.556	72.125	296.008	185.118	210.689	348.874	310.997	46.583	366.397	342.285	267.482	297.479	43.520	328.112	275.732	0.00075791	0.00057184	0.00013949	1346.8	6.2986e-06	4.4622e-06	1358.5	366.37	6.817e-06	6.1245e-06	418.16	140.06	121.88	41.612	5.1243e-06	51.507	0.00061287	0.00051009	0.00013308	1373.2	5.9302e-06	5.7433e-06	1377.3	373.96	5.6597e-06	5.704e-06	426.87	143.13	124.5	42.93	5.4797e-06	53.101	96.058	121.809	138.803	54.613	190.295	187.639	54.467	59.353	173.677	190.136	58.632	62.900	63.551	68.417	196.689	67.190	-8191	255	
365.474	1	1	0	0	0.078004	0.20638	0.01464	0.085844	0.21718	0.14293	0.12383	0.10584	0.021059	0.1994	0.30006	0.1122	0.097806	0.21427	0.10087	0.38393	-3.5854	-3.9	-3.6979	-4.225	-3.5104	-3.725	-4.1792	-3.6896	-3.9813	-3.8708	-3.6688	-4.1583	-3.7583	-3.6875	-4.0396	-3.575	130.059	126.373	369.949	400.938	305.789	393.931	390.195	153.961	95.128	271.109	378.723	66.984	369.093	155.238	224.180	304.956	0.00074628	0.00049576	0.00013621	1353.8	5.273e-06	5.0946e-06	1354.1	365.29	6.2413e-06	4.4026e-06	416.71	140.04	121.42	41.598	4.9504e-06	51.459	0.00060724	0.00049732	0.00013973	1376.9	5.6216e-06	5.5581e-06	1374.4	373.1	5.4132e-06	5.2368e-06	426.21	142.94	124.43	42.913	5.3587e-06	53.154	95.479	120.767	128.488	54.668	185.477	191.546	54.467	59.266	191.530	190.891	58.908	63.087	63.762	68.110	200.744	67.097	-8191	255	
365.570	1	1	0	0	0.14086	0.31519	0.15752	0.20296	0.26585	0.20463	0.12622	0.24564	0.057247	0.087185	0.087854	0.092549	0.018267	0.16493	0.14263	0.15215	-3.3917	-4.0167	-3.3417	-4.2354	-3.7875	-3.6813	-3.9521	-3.7188	-3.8563	-3.9688	-3.7667	-4.0188	-3.8688	-3.7104	-4.1833	-3.6729	313.624	42.914	41.634	369.268	310.149	238.271	52.142	301.328	141.665	337.573	381.344	312.378	112.565	375.801	235.561	299.632	0.00077347	0.00046369	0.00012344	1350.6	6.5123e-06	4.8404e-06	1351.4	365.09	7.0141e-06	4.7041e-06	415.47	139.53	122.08	41.818	6.3843e-06	51.638	0.00060855	0.00050202	0.00014772	1373.6	5.6721e-06	5.3946e-06	1372	373.04	5.2492e-06	5.334e-06	425.65	142.74	124.53	42.936	5.1637e-06	53.07	96.734	121.809	127.775	54.512	194.970	194.869	54.428	59.430	172.894	202.506	58.519	63.232	63.916	68.193	198.556	67.420	-8191	255	
365.691	1	1	0	0	0.17819	0.17006	0.062109	0.11246	0.13213	0.2066	0.135	0.0056602	0.13625	0.14114	0.058294	0.26525	0.22802	0.15443	0.24986	0.37496	-3.4208	-4	-3.45	-4.1062	-3.6917	-3.6562	-4.1042	-3.8688	-3.75	-4	-3.6083	-4.025	-3.9375	-3.4938	-3.9813	-3.6521	196.905	254.891	83.740	47.734	208.834	70.403	317.332	101.175	46.149	178.054	234.478	356.758	375.494	58.615	86.319	357.004	0.0007523	0.00049952	0.00016476	1348.9	6.1984e-06	5.2122e-06	1355.4	365.51	5.7225e-06	4.5659e-06	415.48	139.42	121.57	41.582	5.4477e-06	51.602	0.00059965	0.00045926	0.00015032	1372.7	5.4805e-06	5.653e-06	1374.6	372.74	5.4471e-06	5.577e-06	424.98	142.68	124.25	42.825	5.2147e-06	53.024	90.685	130.033	132.194	54.732	189.233	189.902	54.519	59.274	177.652	194.864	58.794	63.140	63.594	68.400	185.062	67.593	-8191	255	
365.762	1	1	0	0	0.13432	0.1228	0.068136	0.2093	0.16921	0.30778	0.28236	0.087152	0.18321	0.20872	0.040449	0.15766	0.095885	0.34792	0.21658	0.18165	-3.2875	-4.0854	-3.4729	-4.0896	-4.0333	-3.4896	-4.2771	-3.7646	-3.6937	-4.0604	-3.6771	-4.0771	-3.9437	-3.7188	-3.8958	-3.8854	123.181	89.791	374.429	324.229	396.478	284.574	333.615	356.448	376.749	52.172	163.102	113.620	133.460	97.482	48.695	356.310	0.00075528	0.00059968	0.0001361	1345.1	6.5928e-06	4.085e-06	1346.6	364.36	6.1007e-06	5.3721e-06	412.62	139.5	121.58	41.648	5.6147e-06	51.47	0.00060825	0.00045213	0.00013797	1369.6	5.5447e-06	5.418e-06	1369.1	372.06	5.3148e-06	5.2854e-06	423.85	142.73	123.89	42.826	5.6072e-06	52.937	94.782	127.538	128.866	54.782	184.413	185.203	54.352	59.557	185.341	175.405	58.808	63.167	63.642	68.368	191.825	67.269	-8191	255	
365.859	1	1	0	0	0.16421	0.22463	0.12939	0.1924	0.076913	0.24465	0.032963	0.12882	0.12269	0.047722	0.11064	0.22198	0.32445	0.13959	0.084415	0.12022	-3.3792	-4.0292	-3.6896	-3.9854	-3.9083	-3.5667	-3.9521	-3.9521	-3.7083	-4.0292	-3.5104	-3.9083	-4.0771	-3.7271	-4.1208	-3.9437	165.821	328.632	121.838	332.753	216.346	49.564	234.237	337.157	75.227	178.906	386.741	336.284	379.982	360.745	276.533	278.512	0.00074795	0.00056834	0.0001418	1346.6	6.6572e-06	5.8555e-06	1346	364.68	6.7408e-06	5.1329e-06	416.87	139.58	121.66	41.583	5.0406e-06	51.534	0.00061162	0.00049274	0.00014814	1368.7	5.609e-06	6.226e-06	1370.6	373.17	5.8192e-06	5.3513e-06	426.21	143.08	124.43	42.927	5.8773e-06	53.109	95.985	129.069	138.245	54.611	172.848	192.892	54.473	59.454	191.099	196.592	58.719	63.220	63.516	68.283	177.669	67.276	-8191	255	
365.955	1	1	0	0	0.10554	0.28125	0.086185	0.045505	0.15252	0.12151	0.11468	0.32014	0.07747	0.22704	0.16556	0.10438	0.096908	0.15414	0.063384	0.20951	-3.225	-3.9583	-3.6292	-3.9	-3.9583	-3.6312	-3.9729	-4.0646	-3.5187	-4.0437	-3.8021	-3.7583	-4.1188	-3.6271	-3.9354	-3.7479	254.808	230.425	252.533	299.994	143.405	263.195	386.387	368.123	221.641	223.646	43.829	326.080	362.079	329.797	336.208	310.202	0.00078707	0.00053097	0.00012676	1354.6	4.6728e-06	4.5728e-06	1351.5	365.96	6.1856e-06	6.2081e-06	417.51	139.88	121.74	41.632	5.8393e-06	51.654	0.00064599	0.00052004	0.00016036	1375	6.0392e-06	6.2135e-06	1374.3	373.35	5.904e-06	5.9502e-06	426.85	143.07	124.52	42.864	5.9946e-06	53.133	94.845	131.947	128.279	54.658	176.972	190.948	54.448	59.584	181.736	187.836	58.691	63.480	63.849	68.232	195.809	67.532	-8191	255	
366.075	1	1	0	0	0.35355	0.11851	0.1617	0.036092	0.04687	0.25897	0.34132	0.19167	0.21053	0.13102	0.26742	0.15906	0.17101	0.072543	0.10849	0.1931	-3.25	-3.9313	-3.5167	-3.6937	-4.0729	-3.5625	-4.0104	-4.0333	-3.6729	-3.9771	-3.8292	-3.8333	-4.2979	-3.7104	-3.8667	-3.9667	368.435	341.492	171.449	373.355	230.613	298.307	336.524	319.651	256.594	399.796	337.988	362.292	342.846	240.512	390.663	91.663	0.00075842	0.00047438	0.00013601	1353.1	6.8928e-06	5.371e-06	1359.2	367.82	8.2753e-06	5.3008e-06	418.33	140.68	121.76	41.662	6.4291e-06	51.459	0.0006378	0.00053174	0.00015093	1376.2	6.0966e-06	6.2509e-06	1377.8	374.72	6.4334e-06	5.7824e-06	427.62	143.58	124.84	43.02	5.509e-06	53.161	93.968	122.248	130.550	54.577	194.365	189.774	54.642	59.508	181.757	191.182	58.804	63.024	63.510	68.126	198.036	67.347	-8191	255	
366.172	1	1	0	0	0.12544	0.093102	0.24531	0.21912	0.054118	0.20497	0.2571	0.21673	0.12759	0.058603	0.10334	0.11881	0.19613	0.26101	0.10395	0.13665	-3.1792	-4.0958	-3.7604	-3.6667	-3.9354	-3.6312	-4.0563	-4.1687	-3.4875	-4.0167	-3.9354	-3.6292	-4.0813	-3.7354	-3.8104	-4.0375	129.179	344.124	97.806	288.993	43.127	89.826	300.186	346.826	66.288	122.284	396.124	183.144	278.143	383.558	183.708	275.494	0.00076812	0.00054547	0.00013643	1354.5	6.6732e-06	3.1644e-06	1358.5	366.85	4.7865e-06	4.5668e-06	418.44	140.29	121.98	41.741	4.4617e-06	51.465	0.00064267	0.00054398	0.00015647	1377.8	5.8832e-06	6.5e-06	1378	374.21	6.2761e-06	5.8436e-06	427.11	143.38	124.75	43.027	5.9716e-06	53.126	96.441	128.022	136.717	54.696	189.102	197.540	54.648	59.320	186.283	197.613	58.602	63.203	63.515	68.231	201.092	67.302	-8191	255	
366.268	1	1	0	0	0.21421	0.18578	0.065231	0.16105	0.12377	0.10806	0.39583	0.20321	0.12088	0.18567	0.12903	0.26363	0.10482	0.077725	0.19726	0.052102	-3.0271	-3.8021	-3.7521	-3.8625	-4.2438	-3.8042	-3.8333	-3.9583	-3.5375	-3.7917	-4.0167	-3.6646	-4.2	-3.8625	-3.5312	-4.0208	60.484	119.552	351.746	266.411	358.251	73.187	42.061	317.287	228.542	118.085	381.493	394.304	182.484	314.340	181.866	112.137	0.00081425	0.00061331	8.9489e-05	1350.9	5.9034e-06	4.7471e-06	1355.3	366.94	6.2947e-06	4.8121e-06	418.64	140.21	121.5	41.867	5.1038e-06	51.38	0.00065262	0.0005733	0.00015223	1374.8	6.1906e-06	6.1933e-06	1375.6	374.34	6.2524e-06	5.4908e-06	427.43	143.51	124.44	42.972	6.3348e-06	53.034	95.198	128.880	148.313	54.663	186.291	206.860	54.444	59.223	190.870	187.445	58.780	63.156	63.789	68.449	189.752	67.469	-8191	255	
366.364	1	1	0	0	0.18032	0.19807	0.13913	0.089033	0.21804	0.14992	0.19213	0.16142	0.22275	0.10604	0.32826	0.17949	0.16958	0.21482	0.27293	0.11366	-3.2667	-3.8187	-3.7625	-3.5792	-4.0042	-3.85	-3.8271	-4.1333	-3.6333	-3.7896	-4.1125	-3.6958	-4.0542	-3.8542	-3.6417	-4.2771	119.328	47.962	328.186	299.932	248.311	274.663	228.152	396.041	319.205	210.128	365.945	350.652	65.013	341.524	144.942	189.078	0.00075966	0.00067521	0.00012877	1350.1	4.9708e-06	5.3874e-06	1354.2	367.87	6.642e-06	4.6375e-06	417.64	140.47	121.66	41.743	6.1984e-06	51.299	0.00065006	0.00057854	0.00015448	1373.6	6.0667e-06	6.1839e-06	1375.4	374.6	6.5578e-06	5.8185e-06	427.2	143.42	124.57	42.999	6.3208e-06	53.098	96.473	125.816	130.246	54.522	191.411	175.815	54.537	59.473	180.363	213.893	58.912	63.343	63.732	68.155	194.225	67.287	-8191	255	
366.460	1	1	0	0	0.14652	0.18071	0.16908	0.099548	0.13058	0.053957	0.24999	0.27209	0.097703	0.082533	0.078806	0.16785	0.21365	0.18362	0.19442	0.19095	-3.2396	-3.8917	-3.9938	-3.5271	-4.0208	-3.8312	-3.8187	-4.0896	-3.75	-3.9542	-4.1	-3.7438	-4.0875	-3.95	-3.4979	-4.0896	76.454	354.754	294.687	221.487	300.978	72.399	385.286	51.786	300.107	379.822	50.582	357.541	342.414	271.695	69.367	359.419	0.00078367	0.00052428	0.00017421	1348.7	5.4784e-06	4.8128e-06	1352.6	365.85	6.4413e-06	5.9523e-06	418.22	139.97	121.91	41.756	5.0858e-06	51.415	0.00063232	0.0005542	0.00016762	1374.5	6.0369e-06	5.7511e-06	1373.5	373.39	6.0793e-06	5.7197e-06	426.99	143.24	124.61	43.044	6.4941e-06	53.126	96.242	120.950	134.262	54.696	188.239	198.305	54.496	59.336	172.665	189.404	58.822	63.006	63.526	68.255	196.134	67.436	-8191	255	
366.556	1	1	0	0	0.30872	0.12018	0.09679	0.27406	0.043237	0.16618	0.0035101	0.10572	0.058731	0.15549	0.21876	0.094958	0.19416	0.27153	0.1014	0.27502	-3.2687	-3.6021	-3.9771	-3.6479	-3.9771	-3.7292	-3.7542	-4.0062	-3.5083	-3.6104	-4.2312	-3.6833	-3.8187	-3.9271	-3.5979	-4.0958	317.291	134.802	335.745	354.123	197.588	338.408	306.157	308.926	166.892	213.228	70.954	365.068	57.356	93.765	107.228	313.926	0.00076914	0.000478	0.00014589	1351.8	6.3899e-06	4.237e-06	1356.2	366.04	7.1894e-06	5.0481e-06	417.13	140.03	121.76	41.721	5.6568e-06	51.535	0.00065247	0.00058338	0.00016556	1376.9	6.2572e-06	6.0812e-06	1376.4	373.82	6.3836e-06	6.3673e-06	427.01	143.34	124.71	43.003	6.5183e-06	53.172	93.572	131.317	135.216	54.727	182.520	202.136	54.406	59.529	183.770	186.059	58.721	63.094	63.486	68.141	188.964	67.299	-8191	255	
366.675	1	1	0	0	0.27489	0.065006	0.12626	0.34958	0.074962	0.2819	0.26713	0.22973	0.11107	0.21852	0.14268	0.23846	0.29751	0.10015	0.14978	0.13291	-3.4354	-3.5458	-3.925	-3.575	-3.7667	-3.9542	-3.6479	-4.0479	-3.7542	-3.6396	-4.0792	-3.5708	-3.7146	-4.0458	-3.4979	-4.1667	121.812	57.401	117.218	64.211	200.058	46.251	246.350	334.804	221.902	378.400	324.785	338.270	42.941	383.767	190.503	353.477	0.00078372	0.0005046	0.00016356	1355.9	6.295e-06	5.2444e-06	1357.5	367.21	7.3524e-06	4.6336e-06	417.56	140.34	122.64	41.586	4.9868e-06	51.647	0.0006682	0.0006123	0.00016396	1377.7	6.5635e-06	6.5233e-06	1376	374.26	6.6539e-06	6.5711e-06	426.66	143.38	124.9	42.942	6.9134e-06	53.164	92.267	135.683	143.757	54.685	197.105	197.668	54.557	59.417	180.608	199.522	58.871	62.987	63.450	68.310	185.893	67.345	-8191	255	
366.771	1	1	0	0	0.35631	0.23603	0.092243	0.3024	0.068518	0.047372	0.2213	0.16488	0.18351	0.19318	0.21302	0.078601	0.22643	0.30916	0.19284	0.2419	-3.3438	-3.575	-3.9208	-3.775	-3.6792	-4.0938	-3.6729	-4.0417	-3.8083	-3.575	-4.1	-3.7292	-4.0062	-4.1062	-3.6021	-3.8937	124.228	324.595	97.412	361.640	282.508	89.307	305.073	296.972	355.538	266.808	280.433	320.023	214.927	368.512	300.247	369.613	0.00078353	0.00063805	0.00014795	1354.5	6.2796e-06	5.6949e-06	1361.3	367.25	7.1336e-06	4.7963e-06	417.49	139.96	122.16	41.829	5.6444e-06	51.656	0.00064755	0.0006439	0.0001609	1378.9	6.6209e-06	6.9297e-06	1379.8	374.62	6.7195e-06	6.8972e-06	426.74	143.33	124.74	43.051	6.921e-06	53.246	95.013	118.770	118.611	54.737	179.937	187.020	54.429	59.398	187.452	186.825	58.936	63.253	63.721	68.221	192.326	67.118	-8191	255	
366.867	1	1	0	0	0.17137	0.056651	0.078171	0.18824	0.15467	0.099733	0.25448	0.13977	0.29796	0.15202	0.18007	0.04941	0.16286	0.0050138	0.13868	0.14363	-3.5458	-3.5354	-4.0417	-3.7979	-3.85	-4.0979	-3.8604	-3.9396	-3.8979	-3.5354	-4.0042	-3.8042	-3.8333	-4.1854	-3.6771	-3.8312	163.479	96.638	160.173	95.050	377.407	386.419	325.160	359.567	244.677	302.720	57.895	203.425	167.327	388.030	197.233	347.494	0.00077953	0.00047344	0.00011365	1359.1	7.8095e-06	5.1532e-06	1360.3	368.54	8.1182e-06	6.0433e-06	419.33	140.47	122.33	41.806	5.356e-06	51.428	0.00065649	0.00065089	0.00016067	1379.6	6.6553e-06	7.1928e-06	1380.6	375.19	6.8756e-06	7.609e-06	427.82	143.65	124.84	43.078	7.1912e-06	53.217	94.334	133.278	140.668	54.816	188.487	187.776	54.344	59.388	180.982	187.327	58.797	63.236	63.539	68.161	194.667	67.432	-8191	255	
366.988	1	1	0	0	0.098258	0.022904	0.065304	0.2763	0.11521	0.13003	0.11199	0.13375	0.11958	0.13282	0.045968	0.086892	0.21139	0.28003	0.1388	0.18111	-3.6771	-3.5125	-3.9417	-3.8271	-3.725	-3.9979	-3.7708	-4.0458	-3.8625	-3.6229	-4.0125	-3.7667	-3.65	-3.9833	-3.6729	-3.7542	97.246	210.812	160.307	373.495	159.720	313.550	321.437	346.515	390.855	352.743	307.669	353.555	51.953	333.877	330.811	291.803	0.00074835	0.0006091	0.00013079	1358.3	6.7382e-06	4.5496e-06	1364.7	366.39	7.1928e-06	6.2667e-06	420.08	141.14	122.33	41.98	4.8919e-06	51.415	0.00065458	0.00067819	0.00017828	1382.7	7.1108e-06	7.1087e-06	1382.6	375.2	6.7433e-06	8.0637e-06	428.84	143.84	125.07	43.087	6.8586e-06	53.264	94.293	126.937	143.169	54.515	189.479	179.809	54.390	59.243	172.834	193.738	58.608	63.157	63.559	68.211	182.567	67.541	-8191	255	
367.060	1	1	0	0	0.09833	0.14653	0.12408	0.17005	0.039503	0.05266	0.15398	0.1319	0.12557	0.22243	0.14659	0.088904	0.18732	0.095468	0.1735	0.18068	-3.6604	-3.4292	-3.7708	-3.8125	-3.4792	-4.2167	-3.9625	-3.8438	-4.0083	-3.5771	-3.8667	-3.9854	-3.5854	-3.9708	-3.5875	-3.9208	86.778	366.486	266.522	304.605	115.372	57.729	274.377	380.824	141.393	354.046	137.582	231.431	400.696	363.508	279.105	252.825	0.00073551	0.00068545	0.00011587	1360.4	6.0539e-06	4.6175e-06	1362.1	367.77	7.2818e-06	4.8059e-06	420.02	140.97	122.67	41.912	5.426e-06	51.854	0.00066866	0.00070294	0.00017385	1385.1	7.0844e-06	6.7569e-06	1384.5	375.8	6.6234e-06	7.4805e-06	429.01	143.92	125.43	43.144	6.5948e-06	53.435	94.932	135.406	135.499	54.616	185.873	199.007	54.376	59.393	177.135	197.333	58.677	63.333	63.534	68.143	188.505	67.308	-8191	255	
367.156	1	1	0	0	0.16956	0.23983	0.06594	0.17927	0.14108	0.11939	0.2135	0.16358	0.16873	0.17952	0.11765	0.13703	0.20011	0.18128	0.032211	0.14264	-3.65	-3.55	-3.8	-4.1104	-3.5083	-4.1104	-3.8937	-3.7146	-4.1292	-3.5917	-3.7875	-4.0521	-3.575	-4.0333	-3.5792	-3.4479	57.333	149.177	211.926	397.893	304.822	187.008	201.327	341.534	241.206	105.742	393.330	359.516	330.476	337.881	226.193	387.792	0.00079223	0.00054044	0.00010486	1370.2	6.6616e-06	2.2446e-06	1367.2	367.62	5.9675e-06	5.7501e-06	420.89	140.86	122.47	42.018	5.6212e-06	51.985	0.00067006	0.0006513	0.00016652	1388.6	6.8767e-06	6.4766e-06	1387.6	375.71	6.5476e-06	7.2265e-06	429.6	144.25	125.45	43.21	7.0625e-06	53.524	96.356	125.268	145.731	54.603	192.049	202.961	54.326	59.332	188.825	210.777	58.867	63.148	63.657	68.312	195.227	67.311	-8191	255	
367.252	1	1	0	0	0.24161	0.24857	0.10749	0.046438	0.076834	0.26038	0.2102	0.15601	0.07278	0.062432	0.01575	0.062234	0.25298	0.17296	0.05576	0.043251	-3.7271	-3.6417	-3.6521	-4.0979	-3.4917	-3.9104	-3.7958	-3.7271	-3.9146	-3.6708	-3.8042	-4.1854	-3.6813	-3.8438	-3.7875	-3.7	347.283	358.334	70.311	97.938	55.665	91.876	323.218	336.794	248.641	389.463	58.623	63.646	129.292	198.753	266.499	284.731	0.00075805	0.00071498	0.00013515	1364.2	7.1352e-06	4.5181e-06	1363.9	368.65	6.5192e-06	4.8266e-06	419.72	141.26	122.65	42.142	4.9732e-06	51.839	0.00066469	0.00067914	0.00017977	1389.1	7.1073e-06	6.6136e-06	1389.2	376.78	6.7037e-06	7.0948e-06	430.16	144	125.48	43.213	6.8293e-06	53.481	94.508	133.696	150.282	54.596	198.328	199.838	54.513	59.277	180.582	196.830	58.809	63.079	63.333	68.106	200.901	67.407	-8191	255	
367.373	1	1	0	0	0.051891	0.074248	0.155	0.35778	0.16996	0.12833	0.06084	0.20436	0.25343	0.19566	0.16085	0.20693	0.087191	0.19623	0.16484	0.18576	-3.7	-3.6271	-3.6292	-4.1562	-3.4271	-3.8375	-3.9375	-3.6854	-3.9854	-3.6958	-3.8271	-4.0583	-3.5354	-3.8792	-3.8292	-3.5438	196.563	142.765	379.388	331.137	130.791	67.618	150.253	363.736	292.783	167.559	382.404	312.368	385.542	144.320	260.429	312.548	0.0007841	0.00056303	0.00015219	1364.6	4.5897e-06	5.2586e-06	1368.8	369.84	6.4162e-06	4.2074e-06	421.67	141.64	122.15	41.903	5.7696e-06	51.744	0.00067549	0.0006205	0.00018321	1391.4	6.7287e-06	7.2224e-06	1390.1	377.05	6.4243e-06	6.9207e-06	430.76	144.27	125.32	43.23	7.0064e-06	53.44	95.152	130.673	134.501	54.670	192.379	181.993	54.326	59.344	180.365	200.091	58.676	63.236	63.596	68.058	208.036	67.418	-8191	255	
367.467	1	1	0	0	0.22971	0.21268	0.16711	0.11327	0.27855	0.20892	0.21053	0.21358	0.075755	0.11073	0.064014	0.11977	0.19952	0.099752	0.22459	0.065511	-3.8187	-3.7146	-3.5438	-4.1875	-3.4333	-3.8896	-4.0646	-3.5396	-3.9646	-3.7062	-3.5917	-4.2188	-3.8354	-3.8417	-3.8458	-3.5312	220.232	64.714	269.861	368.294	321.409	389.736	346.292	337.663	249.687	293.558	299.375	55.354	378.707	83.569	255.079	73.892	0.00079091	0.0006616	0.00010077	1364.8	6.5888e-06	4.5012e-06	1369.4	368.47	5.9976e-06	4.9973e-06	420.07	141.38	123.11	41.939	4.193e-06	51.602	0.00066051	0.00062602	0.00018417	1391	6.9605e-06	6.8176e-06	1389.6	376.62	6.5793e-06	6.811e-06	430	144.15	125.75	43.278	6.7324e-06	53.442	93.691	138.156	136.644	54.687	190.663	185.774	54.424	59.304	187.985	196.094	58.742	63.122	63.704	68.245	185.783	67.485	-8191	255	
367.563	1	1	0	0	0.15246	0.044057	0.20882	0.1221	0.29469	0.21053	0.23034	0.31484	0.0899	0.13448	0.16425	0.16753	0.13659	0.25566	0.2295	0.1406	-3.5583	-3.7125	-3.5917	-4.2167	-3.8292	-3.7625	-4.2042	-3.7188	-3.95	-3.9458	-3.6729	-4.0521	-3.7521	-3.7521	-3.9875	-3.525	42.693	89.995	368.881	373.147	205.945	304.316	320.822	321.904	325.229	64.978	310.287	354.542	273.832	332.493	243.367	396.708	0.00076087	0.00059268	0.00013071	1369	5.7617e-06	4.2163e-06	1371.3	368.77	6.8003e-06	4.8756e-06	421.73	140.53	122.81	41.918	4.9092e-06	51.623	0.00066765	0.00065426	0.00018765	1391.9	6.2537e-06	7.2722e-06	1391.6	376.76	6.5781e-06	6.9819e-06	430.48	144.15	125.43	43.163	6.9185e-06	53.402	93.531	118.849	138.375	54.689	187.946	185.301	54.386	59.344	182.587	199.464	58.877	63.100	63.440	68.249	199.210	67.375	-8191	255	
367.637	1	1	0	0	0.11668	0.25291	0.074246	0.0044181	0.061635	0.34028	0.18636	0.1696	0.17696	0.19524	0.27223	0.23249	0.30106	0.21566	0.21351	0.1788	-3.6896	-4.0104	-3.5125	-4.2917	-3.6042	-3.6292	-4.2396	-3.7104	-3.8	-3.9208	-3.5375	-4.1521	-4.0188	-3.6958	-4.1104	-3.5646	139.057	70.144	295.893	370.004	178.583	72.646	320.699	383.725	214.234	322.194	382.007	350.846	44.035	373.482	333.403	393.928	0.00077432	0.00062671	0.00014549	1370.4	6.4552e-06	4.2695e-06	1373.2	369.84	6.1237e-06	5.9797e-06	421.82	139.9	122.28	41.915	4.5959e-06	51.716	0.0006469	0.00067793	0.00019712	1391.2	6.9008e-06	7.3189e-06	1391	376.87	6.7896e-06	7.0571e-06	430.18	143.8	125.33	43.189	6.6916e-06	53.371	92.963	125.931	134.383	54.713	186.388	192.508	54.365	59.386	188.959	188.489	58.843	63.068	63.576	68.196	196.955	67.289	-8191	255	
367.755	1	1	0	0	0.096491	0.068331	0.20906	0.072097	0.064371	0.12389	0.20581	0.086821	0.09334	0.15447	0.31413	0.09139	0.30315	0.032676	0.035867	0.14785	-3.4542	-3.9896	-3.2854	-4.0437	-3.7646	-3.6979	-4.1875	-3.5104	-3.6063	-4.0646	-3.5354	-3.9562	-3.7896	-3.7542	-3.9896	-3.9417	213.258	231.984	127.021	395.548	359.469	151.443	341.295	355.857	282.836	169.265	401.016	80.310	59.911	191.733	338.964	356.657	0.00077005	0.00056929	0.00014428	1366.6	5.568e-06	4.7468e-06	1367.9	369.14	6.7461e-06	4.3708e-06	420.84	141.08	122.59	41.812	5.2009e-06	51.929	0.00065911	0.00063624	0.00018799	1390.5	6.9226e-06	7.266e-06	1391.7	376.85	6.7399e-06	7.0806e-06	430.1	144.03	125.44	43.164	7.074e-06	53.497	93.267	125.954	127.329	54.565	186.549	196.620	54.602	59.383	189.962	188.698	58.861	62.926	63.736	68.120	196.232	67.468	-8191	255	
367.852	1	1	0	0	0.19814	0.10788	0.12183	0.29386	0.094967	0.023991	0.083378	0.13632	0.11576	0.12807	0.11356	0.2249	0.023938	0.078791	0.013006	0.11786	-3.3312	-4.0708	-3.4354	-4.0146	-3.8021	-3.6375	-4.2458	-3.7771	-3.7771	-3.9229	-3.6708	-4.0958	-3.9792	-3.6292	-4.025	-3.8	92.894	341.845	333.585	171.569	311.585	225.699	289.410	314.775	308.695	127.784	381.994	298.449	230.585	97.190	211.793	304.926	0.00076628	0.00062504	0.00013293	1369.5	5.6245e-06	4.4892e-06	1365.3	370.59	5.3334e-06	5.3355e-06	421.1	141.33	122.72	42.082	4.3228e-06	51.7	0.00068916	0.00065722	0.00019017	1390.9	6.7092e-06	7.3033e-06	1387.2	376.91	6.8473e-06	7.3221e-06	429.84	144.2	125.46	43.274	6.7057e-06	53.346	95.292	135.422	131.569	54.563	190.692	178.103	54.451	59.346	186.914	184.088	58.713	63.074	63.854	68.290	209.323	67.241	-8191	255	
367.948	1	1	0	0	0.03466	0.082535	0.091724	0.18802	0.15038	0.085073	0.20983	0.23056	0.15436	0.033736	0.27582	0.080186	0.29148	0.15954	0.22759	0.17315	-3.3479	-3.9792	-3.6521	-4.0333	-3.9313	-3.4708	-4.0729	-3.7812	-3.4271	-4.0917	-3.6729	-3.8979	-3.8729	-3.5625	-3.9813	-3.9875	235.625	294.872	381.797	64.918	264.649	120.879	354.369	354.049	188.105	333.556	368.401	328.239	379.056	68.450	220.678	238.178	0.00077571	0.00057979	0.00014382	1363.5	4.8765e-06	4.9991e-06	1366.3	369.25	6.0741e-06	5.3641e-06	419.3	140.94	122.65	41.942	5.904e-06	51.67	0.00069263	0.00062454	0.0001865	1390.2	6.9433e-06	7.1336e-06	1387.7	376.6	6.7071e-06	7.2155e-06	428.84	143.8	125.36	43.205	6.5489e-06	53.349	93.585	127.902	122.641	54.609	196.114	189.777	54.512	59.160	189.003	187.085	58.909	63.179	63.684	68.061	191.544	67.123	-8191	255	
368.068	1	1	0	0	0.17174	0.129	0.14287	0.27564	0.30105	0.23056	0.27316	0.093209	0.25553	0.19006	0.080505	0.14535	0.27741	0.36727	0.13938	0.067425	-3.2313	-4	-3.6542	-4.0604	-4.0792	-3.6312	-4.0292	-3.8708	-3.5729	-4.1687	-3.7708	-3.9021	-4.0333	-3.5292	-3.9292	-3.9938	210.432	384.937	179.560	316.385	262.827	326.769	337.059	355.980	202.121	271.137	107.378	330.523	222.955	357.265	118.819	395.870	0.00078325	0.00059109	0.00014242	1362.2	6.3414e-06	4.8412e-06	1368.2	369.42	6.6348e-06	5.9733e-06	420.52	141.16	122.76	41.941	5.6771e-06	51.721	0.00068851	0.00060356	0.00018367	1390.5	6.5945e-06	7.0651e-06	1391.5	376.8	6.9435e-06	7.2296e-06	429.98	144.02	125.46	43.199	6.3909e-06	53.373	95.553	138.464	142.738	54.781	187.588	185.411	54.528	59.264	182.340	192.645	58.649	63.125	63.792	68.385	186.568	67.455	-8191	255	
368.164	1	1	0	0	0.094066	0.085819	0.06443	0.25886	0.22415	0.039788	0.37509	0.35093	0.071202	0.081582	0.39669	0.17492	0.1378	0.39189	0.068343	0.15138	-3.0854	-4.1	-3.6437	-3.7917	-4.0938	-3.5917	-4.0563	-3.8896	-3.4854	-4.0521	-3.7354	-3.6562	-4.0437	-3.5958	-3.7208	-4.1396	137.546	327.611	83.141	390.455	85.159	345.884	304.772	359.355	255.885	172.940	65.427	70.867	399.991	373.191	129.968	43.205	0.0007582	0.00060091	0.00011877	1372.5	6.4905e-06	3.8415e-06	1369.2	368.97	7.0354e-06	5.1652e-06	420.35	141.21	122.71	42	4.8116e-06	51.593	0.00069177	0.00061432	0.00018107	1392.4	6.4889e-06	6.9671e-06	1389	376.71	6.8066e-06	6.7028e-06	429.67	144.16	125.43	43.246	6.8917e-06	53.357	92.420	143.319	129.514	54.853	191.073	200.549	54.574	59.330	183.034	184.090	58.908	62.953	63.606	68.083	195.592	67.507	-8191	255	
368.261	1	1	0	0	0.12347	0.15651	0.2748	0.11855	0.092129	0.39009	0.21554	0.18998	0.11459	0.095408	0.15347	0.051256	0.12485	0.14105	0.05043	0.22546	-3.0062	-3.9667	-3.675	-3.6125	-4.0708	-3.7188	-3.8604	-4.1083	-3.7417	-4.0062	-3.9458	-3.7292	-4.1271	-3.7687	-3.7771	-4.1	101.439	392.202	253.371	329.586	129.461	184.637	379.191	390.929	200.439	350.281	78.100	89.303	291.388	219.017	140.814	113.952	0.00081282	0.00069889	0.0001444	1361.4	5.7595e-06	5.8438e-06	1368.6	368.67	4.5618e-06	4.4457e-06	418.86	141.09	122.59	41.686	4.9996e-06	51.823	0.00069052	0.00062117	0.00018287	1388.8	6.6025e-06	6.774e-06	1390.1	376.83	6.957e-06	6.6714e-06	429.07	144.01	125.48	43.125	6.763e-06	53.419	90.766	130.836	131.115	54.832	190.232	192.453	54.460	59.469	177.990	175.659	58.858	63.101	63.422	68.171	181.229	67.446	-8191	255	
368.357	1	1	0	0	0.087529	0.11719	0.1593	0.038974	0.15099	0.076028	0.17749	0.26105	0.4099	0.11639	0.066324	0.19932	0.11716	0.16968	0.2095	0.25395	-3.2479	-3.9979	-3.7062	-3.8292	-4.0333	-3.6646	-3.9854	-4.1417	-3.5729	-4.0146	-4.0104	-3.8063	-4.0771	-3.7729	-3.7208	-4.1479	243.206	278.912	204.069	65.939	158.463	364.486	339.709	381.609	185.813	165.851	143.044	357.181	91.690	74.024	331.562	323.558	0.00075565	0.0006695	0.00013652	1368.3	5.347e-06	4.8247e-06	1365.2	368.3	7.6005e-06	6.3753e-06	422.81	141.12	122.95	42.035	5.954e-06	51.851	0.00065479	0.00061512	0.00017737	1391.1	6.6886e-06	6.9733e-06	1389.9	376.56	7.1335e-06	6.6479e-06	430.21	144.34	125.47	43.217	7.1224e-06	53.44	94.039	132.184	147.979	54.846	187.223	198.715	54.591	59.337	187.967	184.024	58.746	63.338	63.724	68.364	196.973	67.452	-8191	255	
368.453	1	1	0	0	0.14676	0.13658	0.16572	0.27357	0.20656	0.084425	0.14227	0.079505	0.098082	0.088533	0.26036	0.20392	0.14601	0.11563	0.29034	0.26077	-3.2792	-3.7875	-3.9208	-3.5646	-3.9625	-3.6354	-3.7438	-4.1958	-3.6146	-3.9583	-4.0021	-3.75	-4.1271	-3.8125	-3.5479	-4.0958	378.524	315.830	147.398	363.355	79.653	366.733	351.572	51.682	179.271	181.858	398.386	62.184	399.776	54.034	234.065	358.552	0.00079979	0.00056864	0.00014138	1368	6.3145e-06	4.6889e-06	1367.6	369.88	6.7659e-06	5.7838e-06	420.06	141.22	122.65	41.886	4.6857e-06	51.835	0.0006767	0.00064377	0.00018168	1391.9	6.7115e-06	6.8565e-06	1389.8	376.75	6.6087e-06	6.9176e-06	429.24	144.25	125.43	43.193	6.4253e-06	53.392	96.444	125.334	129.649	54.714	176.367	187.346	54.596	59.371	185.566	207.139	58.950	63.033	63.707	68.291	188.187	67.336	-8191	255	
368.547	1	1	0	0	0.28747	0.085708	0.12436	0.25443	0.14167	0.064561	0.10822	0.33391	0.077373	0.22498	0.22796	0.039622	0.084897	0.096445	0.054413	0.0067793	-3.3271	-3.8146	-3.6979	-3.6583	-3.9479	-3.7938	-3.6167	-3.9188	-3.7354	-3.7938	-4.0958	-3.5667	-4.0375	-3.9375	-3.4938	-4.0229	130.739	386.011	305.619	46.707	304.524	133.770	257.492	372.568	289.543	107.421	384.672	211.816	349.194	294.711	267.565	189.081	0.0007511	0.00052251	0.00012898	1364.3	5.3812e-06	4.2939e-06	1365.7	369	6.9263e-06	5.4003e-06	421.32	140.9	122.21	41.83	5.1381e-06	51.979	0.00065408	0.00066246	0.00017454	1388.3	6.3237e-06	6.8643e-06	1389.3	376.6	6.81e-06	6.7483e-06	429.59	144.03	125.18	43.144	6.6152e-06	53.341	93.950	131.760	126.987	54.702	182.878	189.682	54.436	59.397	175.717	192.045	58.613	63.011	63.734	68.232	197.134	67.150	-8191	255	
368.668	1	1	0	0	0.084191	0.14135	0.10258	0.27731	0.07378	0.23039	0.16194	0.19955	0.25897	0.27819	0.0020841	0.21303	0.085475	0.13803	0.21406	0.11452	-3.2188	-3.5479	-4.0229	-3.6771	-3.8333	-3.8937	-3.6688	-4.1792	-3.75	-3.6229	-4.1062	-3.6896	-3.9417	-3.9583	-3.7208	-4.1771	352.618	176.837	322.764	48.397	178.115	50.457	341.394	308.022	296.366	224.722	180.000	51.323	60.185	372.161	85.519	192.450	0.00077758	0.00059199	0.00015147	1369.1	5.3755e-06	5.1326e-06	1365.7	368.57	6.9238e-06	4.9722e-06	418.94	140.41	122.87	41.881	4.5865e-06	51.751	0.00067182	0.00065049	0.00017504	1391.3	6.6828e-06	7.0091e-06	1389.2	376.34	6.7614e-06	6.7937e-06	429.13	143.92	125.49	43.213	7.0204e-06	53.304	94.072	124.010	126.684	54.778	191.461	194.467	54.480	59.327	185.444	182.289	58.550	63.157	63.767	68.279	200.094	67.423	-8191	255	
368.764	1	1	0	0	0.25764	0.080526	0.11686	0.16856	0.079241	0.026197	0.23281	0.17078	0.25956	0.22101	0.13965	0.049437	0.12118	0.2348	0.16129	0.14073	-3.4062	-3.4875	-4.0271	-3.6979	-3.7583	-3.8792	-3.7438	-3.9271	-3.6604	-3.6354	-4.0667	-3.5479	-3.8417	-3.9813	-3.5146	-4.1438	109.530	317.755	52.923	360.540	77.285	216.949	342.492	301.249	152.656	80.260	378.695	56.662	158.388	53.359	237.599	308.396	0.00080027	0.00049275	0.00013164	1364	5.2911e-06	5.152e-06	1365.9	368.55	7.1981e-06	5.6516e-06	419.61	140.51	122.34	42.029	5.3546e-06	51.716	0.00067328	0.00062158	0.00017534	1388.7	6.505e-06	6.3474e-06	1388.2	376.09	6.6222e-06	7.1622e-06	428.93	143.81	125.29	43.19	6.5629e-06	53.367	96.658	128.324	134.049	54.766	195.596	192.036	54.443	59.185	177.779	204.711	58.919	63.245	63.539	68.225	192.445	67.537	-8191	255	
368.860	1	1	0	0	0.13094	0.11375	0.26254	0.18143	0.030125	0.11816	0.31086	0.37076	0.13526	0.13661	0.085863	0.23774	0.11484	0.18889	0.26694	0.22158	-3.4792	-3.5062	-3.9042	-3.6562	-3.7771	-3.975	-3.6771	-3.8833	-3.8354	-3.4667	-4.1167	-3.7083	-3.6979	-4.0625	-3.5271	-3.975	295.807	314.020	87.371	285.936	369.416	85.169	354.688	338.116	101.873	143.806	380.867	285.034	387.640	354.835	91.339	340.133	0.00079681	0.00054167	0.00012015	1365.2	5.7263e-06	4.9593e-06	1364.8	368.92	6.8924e-06	5.7848e-06	418.07	140.96	123	41.75	4.8934e-06	51.787	0.00067519	0.00061929	0.00015586	1387.1	6.6576e-06	6.6821e-06	1387.8	375.93	6.3632e-06	7.2265e-06	428.72	143.96	125.49	43.216	6.5476e-06	53.435	93.032	123.808	129.262	54.746	188.294	204.282	54.312	59.205	189.512	176.175	58.722	63.023	63.746	68.212	201.085	67.562	-8191	255	
368.932	1	1	0	0	0.12804	0.0732	0.093668	0.19925	0.12309	0.32363	0.19171	0.18951	0.011631	0.22006	0.11618	0.33234	0.070376	0.16567	0.19257	0.25995	-3.4396	-3.4562	-4.0771	-3.9146	-3.5125	-4.025	-3.7167	-3.9271	-3.9604	-3.5729	-4.0604	-3.7854	-3.6396	-4.0208	-3.7	-3.9229	294.283	165.456	276.929	62.088	356.564	273.174	387.827	348.691	156.602	289.521	295.691	309.237	299.274	82.826	46.274	325.083	0.00075603	0.00050759	0.00016472	1362.5	6.0143e-06	4.7016e-06	1368.3	369.08	6.232e-06	4.8061e-06	417.92	141.03	122.06	41.705	5.133e-06	51.71	0.00064901	0.00064054	0.00016472	1384.7	6.6564e-06	6.2478e-06	1385.9	376.03	6.4435e-06	6.6793e-06	428.93	143.8	125.12	43.018	6.3004e-06	53.266	94.951	128.836	132.526	54.541	199.180	192.124	54.443	59.422	178.847	193.051	58.753	63.341	63.679	68.217	194.858	67.068	-8191	255	
369.053	1	1	0	0	0.13341	0.23412	0.02445	0.26033	0.096339	0.30967	0.20883	0.08971	0.14715	0.22646	0.048589	0.19431	0.17416	0.44781	0.18242	0.064246	-3.5062	-3.275	-3.8271	-3.9125	-3.3875	-4.0021	-3.8271	-3.8021	-3.9875	-3.4625	-3.9	-3.8292	-3.5042	-3.975	-3.525	-3.85	104.452	314.018	126.833	356.673	182.439	263.275	298.683	300.515	341.202	359.922	324.926	301.117	386.186	55.986	94.179	396.821	0.00077842	0.00047803	0.00011471	1361.3	5.4241e-06	5.3471e-06	1363.7	367.19	5.3132e-06	6.4277e-06	417.96	140.98	122.24	41.64	5.5155e-06	51.781	0.00065252	0.00059549	0.00015918	1385.9	6.5234e-06	6.4424e-06	1384.4	375.36	6.2377e-06	6.2951e-06	428.03	143.72	124.92	43.077	6.4036e-06	53.343	94.722	133.901	140.826	54.767	176.245	194.250	54.538	59.305	174.197	190.728	58.950	63.149	63.733	68.352	197.238	67.505	-8191	255	
369.149	1	1	0	0	0.19938	0.1806	0.10097	0.31216	0.052899	0.22794	0.085906	0.1044	0.077401	0.011458	0.37147	0.1536	0.13887	0.25306	0.12939	0.12895	-3.5187	-3.3583	-3.7646	-3.9167	-3.4062	-4.0146	-3.6937	-3.4583	-3.9833	-3.4146	-3.8958	-3.9229	-3.6042	-4.1354	-3.7188	-3.6375	293.885	41.550	250.330	368.553	363.950	340.376	316.651	284.805	215.066	235.901	295.374	316.029	57.034	78.872	262.577	340.579	0.00077597	0.00044578	0.0001345	1361.3	6.9726e-06	5.3877e-06	1355.5	368.32	7.2226e-06	6.5655e-06	421.06	140.65	122.26	41.88	5.4649e-06	51.817	0.00064504	0.00058755	0.00016163	1385.1	6.5061e-06	6.1746e-06	1383.7	375.52	6.266e-06	6.6448e-06	428.41	143.84	125.16	43.104	6.6228e-06	53.344	95.956	128.949	128.433	54.714	190.513	194.617	54.531	59.452	181.922	188.891	58.852	63.173	63.710	68.199	183.969	67.505	-8191	255	
369.245	1	1	0	0	0.14649	0.024344	0.15789	0.063992	0.19738	0.094113	0.22928	0.31039	0.07509	0.082679	0.22112	0.18203	0.08156	0.16822	0.11018	0.24684	-3.5938	-3.4938	-3.7979	-4.1062	-3.4708	-4.0188	-3.7125	-3.6896	-3.9896	-3.5542	-3.7687	-4.0896	-3.6125	-3.9042	-3.6521	-3.6417	185.004	100.771	260.462	321.218	290.647	207.681	316.267	328.210	343.280	86.701	372.208	337.087	115.485	146.787	119.869	261.655	0.00078694	0.00060153	0.00010593	1359.8	6.4684e-06	5.4983e-06	1359.9	366.58	6.281e-06	5.8448e-06	419.06	140.25	122.06	41.908	5.4888e-06	51.867	0.00065152	0.00059912	0.00017187	1384	6.5945e-06	5.9551e-06	1383.6	375.43	6.1302e-06	6.3688e-06	428.12	143.63	125.06	43.155	6.5145e-06	53.28	93.133	138.536	131.660	54.815	193.158	204.608	54.321	59.238	168.183	193.455	58.723	63.075	63.563	68.297	184.049	67.172	-8191	255	
369.341	1	1	0	0	0.16737	0.19305	0.093387	0.047335	0.28055	0.17021	0.091817	0.28892	0.062063	0.088039	0.17247	0.16217	0.40196	0.24198	0.08267	0.15568	-3.5062	-3.5521	-3.7104	-4.1188	-3.4917	-4.0229	-3.9417	-3.5938	-3.9333	-3.6729	-3.8333	-4.0312	-3.5917	-3.725	-3.8875	-3.6375	120.484	204.926	352.815	48.985	357.518	352.994	385.238	368.228	152.164	103.101	343.022	318.486	388.957	395.821	216.387	256.205	0.00076709	0.0005005	0.00014777	1360.3	5.9209e-06	4.5957e-06	1361.5	367.83	6.3875e-06	5.1906e-06	418.89	140.49	121.96	41.745	6.2019e-06	51.713	0.00064614	0.00058433	0.00016675	1383.8	6.3409e-06	6.198e-06	1383.6	375.62	6.1042e-06	6.419e-06	427.94	143.55	124.88	43.068	6.4546e-06	53.194	94.878	137.224	125.829	54.466	184.716	192.238	54.464	59.638	170.006	180.668	58.938	63.049	63.744	68.333	179.904	67.525	-8191	255	
369.437	1	1	0	0	0.085385	0.17331	0.25448	0.27736	0.10499	0.17599	0.24868	0.15287	0.050658	0.092638	0.22022	0.11657	0.20656	0.27599	0.15479	0.057194	-3.5771	-3.7167	-3.6083	-4.0792	-3.4938	-3.8917	-4.2125	-3.7042	-3.9625	-3.6104	-3.6542	-4.0792	-3.5854	-3.8125	-4.0042	-3.5812	245.611	247.198	331.095	58.471	259.038	335.661	43.962	388.879	395.535	182.857	121.932	388.280	128.844	349.055	133.984	326.619	0.00074739	0.00049912	0.00013176	1356.4	7.2853e-06	4.5199e-06	1365.1	368.67	7.4532e-06	5.9236e-06	418.6	140.78	122.52	41.833	5.4116e-06	51.676	0.00064388	0.00065036	0.00016296	1382.3	6.8033e-06	6.2602e-06	1383.4	375.8	6.2705e-06	6.8972e-06	428.37	143.54	124.93	43.035	6.4189e-06	53.266	94.841	132.506	139.892	54.611	180.957	183.605	54.394	59.436	169.426	192.881	58.945	63.350	63.736	68.297	192.550	67.400	-8191	255	
369.533	1	1	0	0	0.15563	0.2771	0.091909	0.46787	0.14782	0.20283	0.12629	0.2762	0.080532	0.099324	0.28457	0.10283	0.033058	0.13923	0.08501	0.2009	-3.5479	-3.6792	-3.6104	-3.95	-3.3333	-3.7417	-3.9958	-3.6083	-3.8729	-3.7375	-3.575	-4.125	-3.6583	-3.7854	-3.875	-3.4938	324.909	302.710	202.042	369.409	59.668	301.989	325.385	374.823	353.874	78.960	340.940	319.877	371.455	280.841	118.054	95.645	0.00077023	0.00064262	0.00014589	1360.6	6.7015e-06	4.8656e-06	1361.8	367.03	6.6932e-06	4.8264e-06	420.17	141.05	122.22	41.831	5.6364e-06	51.661	0.00063418	0.0006365	0.00017721	1383	6.466e-06	6.0532e-06	1381.9	375.03	6.2501e-06	6.6275e-06	428.03	143.61	124.86	43.078	6.2596e-06	53.27	96.587	129.951	121.676	54.789	193.594	191.273	54.493	59.647	175.158	200.543	58.789	63.242	63.604	68.235	189.607	67.566	-8191	255	
369.629	1	1	0	0	0.26713	0.070598	0.17478	0.1332	0.10295	0.041564	0.25152	0.080555	0.21408	0.15849	0.15271	0.16661	0.11077	0.13146	0.21905	0.23165	-3.4979	-3.8167	-3.6021	-3.9875	-3.7271	-3.6583	-4.0792	-3.4146	-3.8396	-3.9833	-3.5792	-4.1958	-3.9021	-3.9104	-3.9021	-3.6583	261.340	329.499	331.772	55.189	41.642	73.737	341.872	359.940	251.872	287.751	44.835	330.549	368.029	86.275	241.248	43.952	0.00076822	0.00048821	0.00011557	1358.3	5.5812e-06	4.7837e-06	1356.1	367.41	7.0859e-06	4.9927e-06	418.29	140.9	121.92	41.903	6.3167e-06	51.374	0.00063569	0.00059724	0.00016843	1379.8	6.3868e-06	6.335e-06	1379.3	374.8	6.2728e-06	6.3939e-06	427.77	143.59	124.81	43.071	6.266e-06	53.145	93.656	119.598	136.959	54.858	199.295	190.497	54.593	59.432	176.294	196.145	59.014	63.210	63.655	68.254	193.218	67.477	-8191	255	
369.748	1	1	0	0	0.1734	0.27714	0.15358	0.2421	0.18124	0.28827	0.27386	0.19408	0.058591	0.25425	0.29255	0.029663	0.13058	0.051356	0.10685	0.11102	-3.475	-3.8958	-3.4188	-4.0917	-3.7604	-3.6479	-4.1	-3.6625	-3.8729	-3.8979	-3.6167	-3.9896	-3.8625	-3.6021	-4.0271	-3.5187	243.688	289.135	147.407	330.916	128.771	357.859	378.813	48.809	214.176	383.633	349.959	353.288	47.205	312.402	334.362	239.923	0.00075229	0.00051375	0.00011378	1362.4	6.301e-06	5.7159e-06	1364.1	367.39	6.2801e-06	4.9808e-06	418.33	139.76	122.14	41.824	5.2187e-06	51.973	0.000638	0.00060934	0.00016438	1383	6.505e-06	6.4004e-06	1382.8	375.1	6.3033e-06	6.3531e-06	427.3	143.43	124.72	43.087	5.9334e-06	53.27	94.554	121.488	130.432	54.664	183.847	204.083	54.616	59.630	182.324	183.083	58.782	63.167	63.691	67.899	204.315	67.487	-8191	255	
369.844	1	1	0	0	0.17726	0.21415	0.1003	0.13478	0.15579	0.15786	0.19372	0.04942	0.098979	0.23168	0.18921	0.2376	0.051135	0.17704	0.085497	0.15941	-3.2438	-3.8958	-3.3542	-3.9604	-3.6333	-3.4604	-4.2042	-3.5792	-3.7771	-3.9188	-3.5292	-4.1521	-3.8229	-3.5104	-3.9813	-3.8583	110.925	137.399	343.377	349.455	352.073	304.631	372.581	51.822	296.297	203.413	340.061	381.058	302.925	341.179	266.037	60.018	0.0007934	0.00044362	0.00011181	1359.1	5.3765e-06	5.2726e-06	1359.5	368.68	7.7051e-06	6.267e-06	418.49	140.48	121.88	41.901	5.5778e-06	51.681	0.00067303	0.00052932	0.0001779	1382.3	6.1941e-06	6.4408e-06	1382.4	375.07	6.3847e-06	6.4535e-06	427.66	143.51	124.74	43.057	6.0965e-06	53.234	94.066	131.059	139.012	54.689	197.483	185.848	54.632	59.514	181.605	190.159	58.639	63.250	63.769	68.262	198.744	67.282	-8191	255	
369.941	1	1	0	0	0.28731	0.16293	0.14139	0.14786	0.11932	0.36297	0.29428	0.19878	0.17598	0.20806	0.27782	0.045944	0.077548	0.25472	0.030484	0.10884	-3.1771	-3.9021	-3.3646	-4.0604	-4.0062	-3.5062	-4.1167	-3.7542	-3.7438	-4.1	-3.6792	-3.9437	-3.9521	-3.6667	-3.8521	-3.7417	364.951	170.018	222.925	341.122	65.791	362.912	378.627	366.863	305.393	244.050	192.484	332.747	192.143	330.192	150.682	345.572	0.00076902	0.00044567	0.00014271	1358.5	5.1016e-06	3.5099e-06	1360	366.89	5.1952e-06	5.6943e-06	418.08	139.89	121.86	41.793	5.2926e-06	51.527	0.00064931	0.00057263	0.00016575	1381	6.5899e-06	6.5031e-06	1379.7	374.7	6.5555e-06	5.7213e-06	427.1	143.15	124.54	42.971	6.2558e-06	53.112	94.654	118.169	144.040	54.884	193.320	192.637	54.488	59.404	179.508	188.990	58.807	63.177	63.784	68.396	196.247	67.503	-8191	255	
370.037	1	1	0	0	0.0741	0.21165	0.1758	0.35581	0.083989	0.14187	0.19528	0.2188	0.17993	0.18831	0.091325	0.23145	0.37239	0.16625	0.079187	0.21034	-3.0125	-4.0125	-3.6146	-3.9042	-3.9771	-3.425	-4.0396	-3.9188	-3.5875	-4.1687	-3.5729	-3.9	-4.1062	-3.5646	-4.0875	-3.8708	327.501	209.765	285.071	339.036	54.067	173.887	363.494	316.087	297.397	311.385	374.671	44.997	368.957	313.649	380.996	108.179	0.00076685	0.00064107	0.00014753	1353.6	5.6619e-06	6.582e-06	1357.1	367.2	6.5523e-06	6.5178e-06	419.52	139.82	121.81	41.628	6.0118e-06	51.638	0.00065453	0.00057182	0.0001588	1377.8	6.3008e-06	6.623e-06	1377.7	374.8	6.594e-06	6.2653e-06	428.01	143.34	124.67	42.934	6.2839e-06	53.206	95.255	133.373	129.768	54.802	193.928	185.444	54.425	59.457	183.661	187.131	58.561	63.424	63.782	68.391	183.096	67.473	-8191	255	
370.157	1	1	0	0	0.22306	0.10202	0.13219	0.28706	0.073443	0.10192	0.35184	0.26282	0.090393	0.041178	0.13523	0.27127	0.093447	0.16356	0.083353	0.19109	-3.1083	-4.0625	-3.7417	-3.8792	-3.9021	-3.4458	-4.0729	-4.0271	-3.5083	-4.125	-3.825	-3.7812	-3.9146	-3.6562	-3.9792	-3.9938	310.069	296.887	116.650	341.849	71.838	257.469	359.946	359.603	47.349	323.478	89.465	399.251	370.491	101.675	189.912	319.953	0.0007644	0.00058421	0.00015378	1355.2	6.5078e-06	4.0786e-06	1359.1	367.45	6.886e-06	4.2699e-06	418.4	139.93	121.58	41.63	6.0707e-06	51.744	0.00065564	0.00055985	0.00018642	1379.2	6.2033e-06	6.1061e-06	1378.7	374.61	6.5555e-06	5.9784e-06	427.51	143.37	124.51	42.957	6.3336e-06	53.228	94.958	133.035	144.275	54.755	187.335	195.274	54.601	59.363	184.341	190.593	58.862	63.211	63.660	68.351	190.277	67.443	-8191	255	
370.229	1	1	0	0	0.16387	0.16248	0.11458	0.3007	0.17091	0.13878	0.1258	0.15784	0.14192	0.18962	0.16741	0.049063	0.113	0.30973	0.024923	0.1448	-3.0146	-3.9854	-3.6021	-3.8167	-4.0083	-3.5708	-3.9167	-4.0062	-3.5438	-4.1042	-3.7042	-3.625	-4.0333	-3.5812	-3.6729	-3.8937	376.887	70.436	252.566	368.202	315.189	115.775	321.750	376.813	82.519	296.257	107.754	201.857	395.197	361.392	273.297	375.181	0.00075508	0.0005862	9.7738e-05	1356	6.4569e-06	4.6521e-06	1357.7	366.72	8.0165e-06	4.6095e-06	420.3	140.25	122.21	41.884	5.7112e-06	51.63	0.00064222	0.0005542	0.00015532	1381.3	6.1459e-06	6.4377e-06	1379.5	374.27	6.5046e-06	6.0145e-06	428.18	143.28	124.87	43.063	6.4406e-06	53.118	93.219	124.380	143.488	54.674	178.519	195.228	54.524	59.650	180.444	187.377	59.089	63.302	63.732	68.245	190.025	67.398	-8191	255	
370.350	1	1	0	0	0.069389	0.27151	0.20361	0.27711	0.23235	0.10159	0.078817	0.18615	0.24129	0.15999	0.045608	0.3393	0.15408	0.27293	0.085515	0.11241	-3.125	-3.8667	-3.5312	-3.7354	-3.9729	-3.6146	-3.825	-4.1354	-3.5958	-3.9583	-3.7854	-3.4813	-4.3042	-3.6792	-3.7125	-4.1479	123.173	323.716	260.261	313.261	71.445	311.094	50.761	47.262	173.019	64.670	144.988	359.652	270.326	382.644	269.208	299.110	0.00075014	0.00055088	0.00015971	1359.4	5.4788e-06	4.8686e-06	1361.6	366.74	6.1458e-06	5.0586e-06	418.6	140.58	121.72	41.799	6.2186e-06	51.597	0.00064443	0.0005616	0.00016342	1381.3	5.9176e-06	6.8409e-06	1381.4	374.51	6.4062e-06	6.0098e-06	427.51	143.4	124.7	42.978	6.1653e-06	53.234	94.795	138.767	144.645	54.680	184.728	186.257	54.605	59.508	185.914	190.801	58.606	63.267	63.715	68.310	199.429	67.529	-8191	255	
370.444	1	1	0	0	0.14976	0.14636	0.16871	0.08548	0.038581	0.10998	0.17726	0.23151	0.20074	0.11691	0.11282	0.25653	0.21385	0.29997	0.070274	0.26189	-3.0354	-4.0604	-3.7271	-3.6333	-3.9729	-3.6542	-3.7333	-4.1625	-3.6063	-3.8375	-3.8937	-3.575	-4.0729	-3.8438	-3.7458	-3.9958	288.946	323.297	213.513	333.580	302.444	171.231	327.678	302.273	316.779	244.916	45.678	53.957	89.358	394.604	317.490	348.140	0.00078559	0.00050214	0.00013655	1353.1	5.5084e-06	5.365e-06	1359.9	367.51	6.4984e-06	4.6171e-06	417.95	140.22	122.17	41.883	5.4927e-06	51.588	0.0006684	0.0006049	0.00016526	1378.2	5.9302e-06	6.7927e-06	1379.8	374.82	6.4616e-06	6.5052e-06	427.21	143.22	124.79	43.011	6.6368e-06	53.141	93.972	138.032	135.394	54.828	191.984	195.766	54.670	59.434	185.178	186.660	58.950	63.086	63.589	68.231	195.621	67.378	-8191	255	
370.540	1	1	0	0	0.15732	0.13826	0.21825	0.26366	0.18103	0.10953	0.20245	0.323	0.033699	0.30284	0.27539	0.29216	0.26494	0.24551	0.26197	0.4154	-3.0563	-3.65	-3.8396	-3.5875	-3.95	-3.7208	-3.725	-4.0667	-3.625	-3.9396	-3.9708	-3.5	-4.0021	-3.9833	-3.625	-4.0437	116.203	52.987	61.682	69.448	352.439	205.278	371.114	336.318	398.370	258.015	383.554	58.150	351.576	99.228	217.642	364.106	0.00078469	0.00055805	0.00011756	1355.8	6.3967e-06	4.6778e-06	1362.1	366.24	7.3826e-06	4.4782e-06	416.58	140.23	121.9	41.603	5.6235e-06	51.574	0.00065675	0.00061808	0.00016273	1380.3	6.1321e-06	6.1917e-06	1380.5	374.48	6.81e-06	6.5915e-06	427.34	143.29	124.57	42.966	6.6509e-06	53.119	94.594	121.650	130.407	54.689	186.066	193.722	54.604	59.399	184.625	200.745	58.665	63.246	63.797	68.384	194.195	67.458	-8191	255	
370.636	1	1	0	0	0.13609	0.12533	0.11479	0.2883	0.10512	0.09733	0.20541	0.19451	0.22019	0.0070483	0.051842	0.069142	0.10201	0.090284	0.20809	0.13556	-3.175	-3.6271	-4.0458	-3.5208	-3.9896	-3.9125	-3.6021	-4.1896	-3.5521	-3.9562	-4.05	-3.5187	-3.8667	-3.9104	-3.55	-4.2542	54.044	323.263	90.484	333.602	130.187	181.113	306.015	270.241	367.912	217.634	306.665	73.919	399.692	160.990	247.227	375.894	0.00077542	0.00064482	0.00012344	1361.4	5.9331e-06	3.7101e-06	1359.6	366.11	6.2589e-06	5.3395e-06	418.24	140.2	122.15	41.728	6.9357e-06	51.591	0.00065363	0.00068021	0.00016728	1382.7	6.2572e-06	6.075e-06	1379.1	374.31	6.4978e-06	6.6667e-06	427.72	143.24	124.71	43.028	6.4661e-06	53.159	96.405	141.344	138.827	54.619	196.203	187.913	54.564	59.483	189.791	195.402	58.885	63.348	63.769	68.266	191.431	67.563	-8191	255	
370.757	1	1	0	0	0.03058	0.24671	0.1264	0.30463	0.037709	0.11905	0.13942	0.037586	0.046398	0.081356	0.090492	0.063759	0.28648	0.12729	0.014637	0.19381	-3.2333	-3.6958	-3.925	-3.475	-3.9083	-3.9729	-3.5854	-4.1146	-3.7042	-3.7875	-4.1771	-3.6646	-3.9833	-3.8958	-3.3771	-3.9271	226.861	390.434	380.588	64.313	388.669	319.955	149.504	208.946	79.565	115.142	381.949	93.634	381.896	309.169	323.581	378.340	0.00078593	0.00052153	0.00016062	1357.1	6.4365e-06	4.9427e-06	1359.6	367.32	6.3739e-06	5.5775e-06	417.13	140.02	121.82	41.708	5.8217e-06	51.643	0.00065489	0.00063772	0.00016151	1379.1	6.4786e-06	6.746e-06	1381.7	374.76	6.4831e-06	6.4598e-06	427.46	143.18	124.52	43.003	6.777e-06	53.158	94.722	121.904	148.602	54.831	188.062	206.309	54.449	59.521	178.200	181.827	58.914	63.073	63.782	68.521	196.060	67.497	-8191	255	
370.829	1	1	0	0	0.13789	0.012609	0.23568	0.16705	0.11163	0.12679	0.21595	0.20456	0.072239	0.046906	0.26745	0.1603	0.038437	0.1403	0.07739	0.34007	-3.4	-3.5521	-3.9625	-3.7812	-3.7313	-4.0083	-3.6208	-3.9917	-3.7062	-3.6958	-4.0833	-3.725	-3.7771	-3.9104	-3.5104	-4.1583	80.258	292.076	253.890	81.815	265.957	153.645	363.657	326.502	253.255	125.779	385.378	45.630	337.156	308.258	243.409	353.837	0.0007704	0.00048639	0.00012645	1357.5	5.714e-06	5.4681e-06	1355.2	367.12	6.4679e-06	4.4954e-06	419.95	139.95	121.73	41.761	5.7311e-06	51.489	0.00066142	0.00057774	0.00016804	1379.5	6.4465e-06	6.2665e-06	1378.7	374.35	6.4277e-06	6.6589e-06	427.85	143.22	124.52	43.018	6.7732e-06	53.078	96.078	120.388	140.384	54.791	196.506	186.385	54.572	59.462	175.542	185.811	59.072	63.164	63.544	68.136	182.453	67.194	-8191	255	
370.925	1	1	0	0	0.12301	0.070958	0.16805	0.25496	0.057485	0.23132	0.50182	0.3278	0.062878	0.12575	0.19382	0.15194	0.36516	0.058438	0.28076	0.086237	-3.4688	-3.5667	-4.0146	-3.9458	-3.6646	-4.0875	-3.6125	-4.0125	-3.7271	-3.5958	-4.1062	-3.9271	-3.8479	-4.0687	-3.6188	-3.85	63.316	385.088	356.519	291.655	198.290	216.676	338.889	251.253	339.823	352.123	378.558	320.076	343.327	94.059	199.782	350.657	0.00076913	0.00059961	0.00012016	1355.2	6.1863e-06	4.5068e-06	1358.2	368.31	5.5838e-06	5.5483e-06	418.3	139.94	122.31	41.578	5.7635e-06	51.77	0.00065001	0.00062265	0.00015517	1380.7	6.7276e-06	6.1419e-06	1380	374.67	6.2976e-06	6.234e-06	427.54	143.28	124.75	42.973	6.345e-06	53.209	95.056	129.238	129.247	54.936	186.912	198.413	54.640	59.540	176.471	202.143	58.752	63.368	63.692	68.237	186.547	67.410	-8191	255	
371.021	1	1	0	0	0.070583	0.24346	0.041292	0.20446	0.072751	0.12337	0.2226	0.21601	0.18987	0.076936	0.026483	0.21421	0.1213	0.16555	0.17668	0.23055	-3.5667	-3.3896	-4.0667	-3.9229	-3.6729	-4.075	-3.7771	-3.9146	-3.8854	-3.6437	-4.1229	-3.7625	-3.6979	-4.1771	-3.6729	-3.9354	75.934	228.206	331.201	72.507	160.606	147.931	302.800	387.906	377.026	194.731	156.682	90.399	97.753	46.407	119.759	64.965	0.00077257	0.00041337	0.00011113	1357.1	4.9949e-06	5.7406e-06	1358.2	366.25	4.6088e-06	5.6602e-06	417.53	139.48	122.04	41.585	5.5534e-06	51.556	0.00064242	0.00061149	0.00015421	1378.8	6.2308e-06	5.9909e-06	1379.3	374.47	6.0974e-06	6.7075e-06	427.37	143.01	124.72	42.97	6.568e-06	53.208	94.463	137.955	153.106	54.675	183.194	202.532	54.461	59.421	183.178	180.165	58.766	63.170	63.937	68.355	200.424	67.511	-8191	255	
371.117	1	1	0	0	0.11984	0.15031	0.038914	0.45093	0.41288	0.17908	0.2361	0.28888	0.10671	0.20067	0.12335	0.13968	0.10266	0.22643	0.18964	0.13516	-3.6	-3.35	-3.8896	-4.0583	-3.6271	-4.15	-3.7542	-3.8312	-4.0125	-3.4938	-3.9375	-3.9792	-3.6333	-4.2	-3.6021	-3.6833	97.129	286.456	141.739	358.051	280.399	386.053	335.798	384.487	373.358	364.091	313.865	123.779	71.522	310.081	394.430	118.503	0.00074985	0.00053253	0.00016671	1357.7	7.0351e-06	5.5092e-06	1357.2	366.67	5.6058e-06	7.1582e-06	417.55	140.04	121.77	41.81	6.06e-06	51.394	0.00063911	0.00061929	0.00016468	1379.4	6.2629e-06	6.335e-06	1379.5	374.71	5.9346e-06	6.9725e-06	426.91	143.27	124.7	42.984	6.489e-06	53.15	95.435	132.736	139.174	54.814	182.082	182.014	54.670	59.451	190.260	193.182	58.928	63.365	63.541	68.284	187.777	67.371	-8191	255	
371.238	1	1	0	0	0.23888	0.072173	0.31237	0.39833	0.099264	0.25235	0.14791	0.30294	0.10863	0.17158	0.089566	0.21433	0.40322	0.20196	0.17469	0.21628	-3.7	-3.4042	-3.8396	-3.8438	-3.3792	-4.0604	-3.7771	-3.8042	-4.0958	-3.4521	-4.0292	-4.0875	-3.6104	-4.0375	-3.8167	-3.625	379.747	165.042	211.071	347.712	299.680	329.111	70.557	391.132	56.797	192.525	53.669	370.685	363.437	79.219	309.617	64.740	0.00078791	0.00050039	0.00012084	1354.3	6.2159e-06	6.2051e-06	1352.8	367.03	7.0588e-06	4.719e-06	419.13	140.16	122	41.771	6.7268e-06	51.803	0.00065082	0.0006006	0.00017251	1379.2	6.4832e-06	6.3396e-06	1377.9	374.52	6.102e-06	6.8455e-06	428.06	143.39	124.67	42.968	6.5515e-06	53.222	96.377	131.891	151.556	54.756	182.580	196.522	54.585	59.507	188.578	204.718	58.845	63.154	63.887	68.337	188.907	67.385	-8191	255	
371.334	1	1	0	0	0.20404	0.12082	0.45657	0.41885	0.15869	0.15668	0.24511	0.17586	0.21848	0.11344	0.30777	0.20314	0.3029	0.30309	0.28661	0.31156	-3.7896	-3.4771	-3.6583	-4.0646	-3.55	-4.0396	-3.9542	-3.775	-4.0125	-3.65	-3.9729	-4.1271	-3.7271	-4.0146	-3.8417	-3.7896	339.704	282.834	64.983	387.449	262.075	102.009	356.162	371.656	235.272	234.271	369.199	363.683	351.860	47.054	258.634	347.383	0.00075095	0.00062718	0.00012736	1358.6	4.8517e-06	5.2906e-06	1356.7	366.22	6.9216e-06	5.3513e-06	416.86	140.33	121.75	41.802	5.5282e-06	51.391	0.0006381	0.00060867	0.00016728	1380.9	6.2664e-06	6.2073e-06	1377.3	374.03	5.8678e-06	6.2794e-06	427.2	143.37	124.69	43.008	6.6904e-06	53.074	93.079	134.418	128.082	54.786	180.370	200.053	54.602	59.496	188.301	184.039	58.686	63.103	63.903	68.193	190.503	67.339	-8191	255	
371.430	1	1	0	0	0.29265	0.024856	0.25383	0.22257	0.032335	0.075035	0.17518	0.25628	0.1443	0.24057	0.25365	0.11914	0.1872	0.12067	0.030813	0.11603	-3.6208	-3.5604	-3.7021	-4.1271	-3.4104	-3.9938	-4.075	-3.7042	-4.0042	-3.8146	-3.8396	-4.1396	-3.6083	-3.8292	-3.9146	-3.5583	298.217	237.201	340.002	390.085	310.167	297.156	277.089	380.794	334.476	97.120	347.754	326.213	209.981	395.332	293.122	387.684	0.00075109	0.00065865	0.00013735	1355.9	7.2021e-06	4.9005e-06	1354.7	366.3	7.46e-06	5.4154e-06	418.28	140.74	121.69	41.8	5.8788e-06	51.502	0.0006371	0.00060544	0.00017095	1379	6.2503e-06	6.0952e-06	1377.2	374.51	6.4865e-06	6.662e-06	427.9	143.34	124.47	43.074	6.2456e-06	53.17	94.103	133.343	130.342	54.665	185.010	190.187	54.590	59.505	187.093	179.337	58.884	63.283	63.735	68.202	199.098	67.543	-8191	255	
371.526	1	1	0	0	0.076924	0.17179	0.10089	0.1637	0.12934	0.13051	0.026016	0.080733	0.13237	0.11522	0.10173	0.22836	0.25605	0.23597	0.14379	0.13336	-3.6625	-3.8021	-3.5875	-4.0687	-3.6667	-3.8917	-4.0938	-3.5354	-4.1521	-3.6667	-3.9354	-4.1458	-3.6562	-3.7167	-4.0771	-3.6083	69.360	99.518	61.959	375.562	137.825	302.539	360.410	88.522	295.803	328.012	387.912	396.844	363.309	338.354	182.042	313.377	0.00077856	0.00057483	0.0001248	1355.9	5.6685e-06	4.8968e-06	1354.1	364.74	6.0139e-06	4.629e-06	419.15	140.31	121.95	41.797	5.2924e-06	51.374	0.00065675	0.00062978	0.00016289	1376.9	6.6622e-06	6.2462e-06	1377.9	373.86	6.1178e-06	6.292e-06	427.76	143.47	124.63	42.97	5.6875e-06	53.081	94.897	127.510	139.447	54.840	195.564	200.558	54.461	59.412	186.518	190.343	58.784	63.459	63.784	68.089	177.036	67.360	-8191	255	
371.621	1	1	0	0	0.2232	0.10962	0.043042	0.078851	0.16583	0.1052	0.35335	0.23699	0.15182	0.084103	0.17756	0.046834	0.0729	0.18615	0.11236	0.19781	-3.5187	-3.7979	-3.7	-4.2063	-3.5792	-3.8771	-4.1687	-3.7104	-4.0958	-3.8479	-3.6937	-4.175	-3.6646	-3.7667	-3.9167	-3.6146	127.724	91.731	69.107	78.092	329.380	62.483	356.377	371.792	199.927	99.922	339.041	108.740	357.321	366.930	332.773	251.646	0.00072734	0.00049849	0.00012013	1352.3	5.7585e-06	3.7345e-06	1357.8	365.79	6.0046e-06	5.3035e-06	418.5	139.84	121.94	41.763	5.7212e-06	51.845	0.00063755	0.00058002	0.00015853	1378.2	6.5256e-06	6.3194e-06	1379.1	373.86	6.3338e-06	6.212e-06	427.24	143.09	124.63	42.977	5.8608e-06	53.161	94.135	129.688	121.868	54.866	193.520	204.109	54.541	59.460	198.856	203.376	58.748	63.242	63.927	68.393	198.176	67.513	-8191	255	
371.719	1	1	0	0	0.11686	0.10821	0.23529	0.18024	0.13496	0.060729	0.17656	0.23991	0.064351	0.078819	0.23552	0.34928	0.29732	0.25556	0.21798	0.26566	-3.4938	-3.7854	-3.5375	-4.2167	-3.6896	-3.6562	-4.2167	-3.6375	-3.8917	-3.9958	-3.5438	-4.0292	-3.7875	-3.8104	-4.0854	-3.7729	394.128	157.237	266.117	395.836	111.945	259.861	303.662	331.506	238.246	132.423	285.627	47.916	336.401	347.310	330.869	329.457	0.0007748	0.00050699	0.00014898	1354.3	6.2889e-06	4.5682e-06	1357.2	365.91	6.1566e-06	5.045e-06	418.77	140.65	121.83	41.723	5.9824e-06	51.565	0.00065815	0.00058648	0.0001622	1378.8	6.435e-06	6.349e-06	1378.3	373.84	6.2841e-06	6.408e-06	427.15	143.47	124.56	42.904	5.9653e-06	53.148	94.018	130.498	131.213	54.817	182.050	193.617	54.538	59.588	179.896	187.397	58.802	63.324	63.791	68.432	188.451	67.206	-8191	255	
371.837	1	1	0	0	0.074677	0.21317	0.09433	0.16268	0.051234	0.11153	0.060621	0.18406	0.14825	0.24291	0.19377	0.3244	0.19291	0.12372	0.22312	0.19928	-3.5792	-3.9604	-3.4562	-4.2604	-3.7604	-3.6063	-4.1771	-3.8083	-3.7417	-3.9917	-3.4813	-4.1021	-3.8958	-3.65	-4.0521	-3.6437	285.939	72.261	185.213	57.789	196.070	201.514	305.197	315.652	119.758	223.848	386.619	340.731	83.707	278.691	168.421	393.672	0.00077449	0.00056189	0.00016831	1354.6	5.8799e-06	5.2413e-06	1354.1	366.7	6.6728e-06	5.7593e-06	417.09	139.92	121.31	41.862	5.1085e-06	51.415	0.00065619	0.00057733	0.00016835	1377.7	6.3295e-06	5.9395e-06	1376.5	374.2	6.2173e-06	6.408e-06	426.67	143.19	124.31	43.01	6.0073e-06	53.089	91.757	113.580	137.866	54.751	184.642	203.313	54.445	59.524	182.767	186.663	58.785	63.155	63.777	68.332	202.782	67.232	-8191	255	
371.934	1	1	0	0	0.17155	0.29874	0.36104	0.10377	0.15846	0.067668	0.054888	0.17404	0.24043	0.15326	0.31763	0.22799	0.26611	0.042765	0.10218	0.1527	-3.3167	-3.8333	-3.5646	-4.2292	-3.8875	-3.5896	-4.3521	-3.8438	-3.6604	-3.9042	-3.7729	-4.0729	-3.8854	-3.7021	-4.0833	-3.825	348.070	368.215	99.989	84.031	351.801	111.699	362.597	373.356	182.971	300.818	54.837	362.424	95.240	294.633	341.435	281.615	0.00075268	0.00051729	0.00016466	1354.7	5.7537e-06	5.1301e-06	1356.6	367	7.1981e-06	4.8405e-06	417.47	139.56	121.72	41.666	5.8522e-06	51.431	0.00064107	0.00058863	0.0001763	1377.4	6.4373e-06	6.0983e-06	1378.4	374.71	6.2467e-06	5.9972e-06	427.43	143.02	124.45	42.968	6.2979e-06	53.145	94.855	138.211	138.947	54.799	186.072	194.582	54.678	59.437	173.147	185.856	58.622	63.135	63.798	68.195	189.726	67.361	-8191	255	
372.030	1	1	0	0	0.057336	0.091475	0.10781	0.21659	0.23026	0.13373	0.1612	0.10618	0.13546	0.08515	0.060764	0.20079	0.086598	0.20033	0.1761	0.22585	-3.3708	-3.8854	-3.4917	-4.075	-3.8125	-3.3688	-4.3562	-3.7458	-3.7875	-4.1292	-3.7104	-3.7625	-4.0354	-3.5542	-3.9125	-3.8354	366.532	74.835	261.678	366.698	373.408	95.164	328.591	342.911	375.597	387.510	66.408	358.481	344.824	299.809	150.904	267.493	0.00076635	0.00041934	0.00016859	1352.3	5.8063e-06	5.2679e-06	1357.9	365.85	6.5994e-06	5.0353e-06	417.27	140.03	121.86	41.677	5.3398e-06	51.642	0.0006486	0.00054062	0.00017649	1376.5	6.2801e-06	6.6853e-06	1378	373.99	5.9278e-06	5.9706e-06	427.17	143.18	124.57	43.074	6.1513e-06	53.122	93.937	142.828	126.135	54.863	184.798	194.467	54.668	59.397	178.572	191.732	58.846	63.245	63.572	68.368	178.221	67.475	-8191	255	
372.126	1	1	0	0	0.051577	0.11851	0.29852	0.21512	0.067578	0.029378	0.083227	0.043859	0.083225	0.1631	0.15467	0.088778	0.097889	0.29193	0.27283	0.13323	-3.3104	-4.0083	-3.55	-3.9917	-3.9896	-3.5833	-4.1479	-3.925	-3.6437	-4.1167	-3.85	-4.0479	-4.0146	-3.5792	-3.9229	-3.8979	134.958	175.266	335.701	374.451	304.056	114.000	271.500	397.892	321.185	332.024	348.281	162.784	266.891	70.776	383.470	260.334	0.00080719	0.00044961	0.00012559	1357.6	5.7579e-06	6.0098e-06	1354.8	365.88	6.2849e-06	5.3645e-06	417.14	140.87	122.35	41.805	5.2956e-06	51.522	0.00067715	0.00056241	0.00016732	1379	6.1551e-06	6.5669e-06	1378.1	373.75	6.473e-06	6.0882e-06	426.49	143.57	124.61	42.992	6.1399e-06	53.054	93.824	133.484	136.820	54.827	201.975	192.327	54.649	59.390	181.406	199.015	58.897	63.277	63.614	68.421	188.583	67.420	-8191	255	
#DATA ENDS
