BOXY.EXE: ISS Imagent and Oximeter Data Acquisition Program Version 0.80
Ascii Record File

#ACQ INFORMATION
2  Detector Channels 
16  External MUX Channels 
1  Auxiliary Channels 
5000  Waveform (CCF) Frequency (Hz)
1  Waveforms Skipped 
30  Waveforms Averaged 
1  Cycles Averaged 
16  Acquisitions per Waveform 
10.0806  Updata Rate (Hz) 

#FILE INFORMATION
TRUE -- External MUX Channel results are PARSED.
FALSE -- AC DC and Phase are NOT grouped.
TRUE -- Companion Program Settings File CREATED.
FALSE -- AC data not excluded
FALSE -- DC data not excluded
FALSE -- Phase data not excluded
FALSE -- Auxillary Chn. data not excluded
Tab delimiters

#CALIBRATION STATE
TRUE -- Waveform Calibration Values APPLIED.


#AUX CALIBRATION VALUES
Val Type	aux-1	

Term	1.0000e+00	
Factor	0.0000e+00	


#WF CALIBRATION VALUES
A = Detector Channel
Val Type	A-AC1	A-AC2	A-AC3	A-AC4	A-AC5	A-AC6	A-AC7	A-AC8	A-AC9	A-AC10	A-AC11	A-AC12	A-AC13	A-AC14	A-AC15	A-AC16	A-DC1	A-DC2	A-DC3	A-DC4	A-DC5	A-DC6	A-DC7	A-DC8	A-DC9	A-DC10	A-DC11	A-DC12	A-DC13	A-DC14	A-DC15	A-DC16	A-Ph1	A-Ph2	A-Ph3	A-Ph4	A-Ph5	A-Ph6	A-Ph7	A-Ph8	A-Ph9	A-Ph10	A-Ph11	A-Ph12	A-Ph13	A-Ph14	A-Ph15	A-Ph16	

Term	0.00000e+00	0.00000e+00	0.00000e+00	0.00000e+00	0.00000e+00	0.00000e+00	0.00000e+00	0.00000e+00	0.00000e+00	0.00000e+00	0.00000e+00	0.00000e+00	0.00000e+00	0.00000e+00	0.00000e+00	0.00000e+00	0.00000e+00	0.00000e+00	0.00000e+00	0.00000e+00	0.00000e+00	0.00000e+00	0.00000e+00	0.00000e+00	0.00000e+00	0.00000e+00	0.00000e+00	0.00000e+00	0.00000e+00	0.00000e+00	0.00000e+00	0.00000e+00	0.00000e+00	0.00000e+00	0.00000e+00	0.00000e+00	0.00000e+00	0.00000e+00	0.00000e+00	0.00000e+00	0.00000e+00	0.00000e+00	0.00000e+00	0.00000e+00	0.00000e+00	0.00000e+00	0.00000e+00	0.00000e+00	
Factor	1.00000e+00	1.00000e+00	1.00000e+00	1.00000e+00	1.00000e+00	1.00000e+00	1.00000e+00	1.00000e+00	1.00000e+00	1.00000e+00	1.00000e+00	1.00000e+00	1.00000e+00	1.00000e+00	1.00000e+00	1.00000e+00	1.00000e+00	1.00000e+00	1.00000e+00	1.00000e+00	1.00000e+00	1.00000e+00	1.00000e+00	1.00000e+00	1.00000e+00	1.00000e+00	1.00000e+00	1.00000e+00	1.00000e+00	1.00000e+00	1.00000e+00	1.00000e+00	X	X	X	X	X	X	X	X	X	X	X	X	X	X	X	X	

B = Detector Channel
Val Type	B-AC1	B-AC2	B-AC3	B-AC4	B-AC5	B-AC6	B-AC7	B-AC8	B-AC9	B-AC10	B-AC11	B-AC12	B-AC13	B-AC14	B-AC15	B-AC16	B-DC1	B-DC2	B-DC3	B-DC4	B-DC5	B-DC6	B-DC7	B-DC8	B-DC9	B-DC10	B-DC11	B-DC12	B-DC13	B-DC14	B-DC15	B-DC16	B-Ph1	B-Ph2	B-Ph3	B-Ph4	B-Ph5	B-Ph6	B-Ph7	B-Ph8	B-Ph9	B-Ph10	B-Ph11	B-Ph12	B-Ph13	B-Ph14	B-Ph15	B-Ph16	

Term	0.00000e+00	0.00000e+00	0.00000e+00	0.00000e+00	0.00000e+00	0.00000e+00	0.00000e+00	0.00000e+00	0.00000e+00	0.00000e+00	0.00000e+00	0.00000e+00	0.00000e+00	0.00000e+00	0.00000e+00	0.00000e+00	0.00000e+00	0.00000e+00	0.00000e+00	0.00000e+00	0.00000e+00	0.00000e+00	0.00000e+00	0.00000e+00	0.00000e+00	0.00000e+00	0.00000e+00	0.00000e+00	0.00000e+00	0.00000e+00	0.00000e+00	0.00000e+00	-1.46573e+02	-1.30403e+02	-1.37663e+02	-1.82827e+02	-7.22735e+01	-6.30001e+01	-1.58910e+02	-1.62015e+02	-7.72400e+01	-6.72005e+01	-1.71070e+02	-1.70740e+02	-1.82889e+02	-1.76704e+02	-6.79015e+01	-1.49758e+02	
Factor	2.11726e-05	1.42107e-04	4.06141e-05	1.78644e-01	1.31213e-06	1.57184e-06	1.76680e-01	4.86151e-02	1.17736e-06	1.44838e-06	9.37926e-02	2.76980e-02	2.41818e-02	8.94260e-03	1.48299e-06	1.30437e-02	5.47952e-06	6.70541e-06	1.89136e-06	9.01438e-02	7.13655e-08	7.35607e-08	8.41523e-02	2.47218e-02	7.09250e-08	7.32396e-08	4.60402e-02	1.36710e-02	1.23919e-02	4.56909e-03	7.18436e-08	6.45217e-03	X	X	X	X	X	X	X	X	X	X	X	X	X	X	X	X	



#DISTANCE SETTINGS
A = Detector Channel
A-1	A-2	A-3	A-4	A-5	A-6	A-7	A-8	A-9	A-10	A-11	A-12	A-13	A-14	A-15	A-16	

2.5000e+00	3.0000e+00	2.5000e+00	3.0000e+00	2.0000e+00	3.0000e+00	1.5000e+00	3.0000e+00	3.0000e+00	3.0000e+00	3.0000e+00	3.0000e+00	3.0000e+00	3.0000e+00	1.5000e+00	3.0000e+00	

B = Detector Channel
B-1	B-2	B-3	B-4	B-5	B-6	B-7	B-8	B-9	B-10	B-11	B-12	B-13	B-14	B-15	B-16	

1.0000e+01	1.0000e+01	1.0000e+01	1.4400e+00	1.0000e+01	1.0000e+01	1.5100e+00	1.9400e+00	1.0000e+01	1.0000e+01	1.9900e+00	2.4900e+00	2.4100e+00	2.9000e+00	1.0000e+01	2.9800e+00	




#DATA BEGINS
time	group	step	mark	flag	A-AC1	A-AC2	A-AC3	A-AC4	A-AC5	A-AC6	A-AC7	A-AC8	A-AC9	A-AC10	A-AC11	A-AC12	A-AC13	A-AC14	A-AC15	A-AC16	A-DC1	A-DC2	A-DC3	A-DC4	A-DC5	A-DC6	A-DC7	A-DC8	A-DC9	A-DC10	A-DC11	A-DC12	A-DC13	A-DC14	A-DC15	A-DC16	A-Ph1	A-Ph2	A-Ph3	A-Ph4	A-Ph5	A-Ph6	A-Ph7	A-Ph8	A-Ph9	A-Ph10	A-Ph11	A-Ph12	A-Ph13	A-Ph14	A-Ph15	A-Ph16	B-AC1	B-AC2	B-AC3	B-AC4	B-AC5	B-AC6	B-AC7	B-AC8	B-AC9	B-AC10	B-AC11	B-AC12	B-AC13	B-AC14	B-AC15	B-AC16	B-DC1	B-DC2	B-DC3	B-DC4	B-DC5	B-DC6	B-DC7	B-DC8	B-DC9	B-DC10	B-DC11	B-DC12	B-DC13	B-DC14	B-DC15	B-DC16	B-Ph1	B-Ph2	B-Ph3	B-Ph4	B-Ph5	B-Ph6	B-Ph7	B-Ph8	B-Ph9	B-Ph10	B-Ph11	B-Ph12	B-Ph13	B-Ph14	B-Ph15	B-Ph16	aux-1	digaux	

2332.294	1	1	0	256	0.093924	0.072854	0.25105	0.11338	0.11553	0.27415	0.23687	0.13999	0.3076	0.13227	0.12624	0.15202	0.02377	0.2304	0.059982	0.11665	-2.5312	-3.1125	-2.7083	-2.9979	-3.125	-2.8167	-3.3146	-2.975	-2.7479	-3.0417	-2.9604	-3.2104	-3.1229	-3.025	-3.1625	-2.9271	161.849	269.820	401.626	425.908	374.137	312.517	424.425	165.884	331.140	306.429	315.389	386.331	351.734	219.520	213.628	87.142	0.00068461	0.0012128	0.00036893	501.56	1.5823e-05	5.7809e-06	685.44	178.75	1.4535e-05	6.3726e-06	288.48	126.8	76.341	36.8	1.1563e-05	66.86	0.0086433	0.010434	0.0027605	648.82	0.00011175	0.00011324	825.75	220.97	0.00011135	0.00011346	363.06	151.71	97.986	45.172	0.00010669	79.053	162.571	211.284	134.458	89.099	182.088	379.501	88.726	93.429	199.129	430.280	92.230	95.849	97.364	101.211	193.469	99.393	-8191	255	
2332.390	1	1	0	0	0.23808	0.1266	0.2546	0.1161	0.090752	0.16288	0.32216	0.33443	0.10834	0.2641	0.040447	0.27627	0.087235	0.05036	0.077185	0.22955	-2.5187	-3.0292	-2.6688	-2.8979	-2.9542	-2.7896	-2.8625	-2.975	-2.6875	-2.975	-2.6937	-2.9875	-3.1021	-2.8042	-3.1396	-2.8896	276.484	234.733	351.565	119.534	327.140	99.826	320.239	392.337	348.039	124.001	422.020	378.355	231.709	158.217	155.758	406.364	0.0007523	0.00043606	0.0001366	505.89	7.7744e-06	1.2174e-05	689.83	179.28	7.0596e-06	2.6673e-06	290.52	128.93	77.081	37.577	6.2313e-06	67.926	0.0088025	0.010233	0.0027663	654.87	0.00011302	0.00011029	829.25	222.65	0.00011123	0.00011052	365.47	153.87	99.096	45.88	0.00010748	80.539	160.748	175.805	168.039	89.285	330.217	166.039	88.650	93.312	256.304	268.964	92.466	95.969	97.141	101.233	301.286	99.253	-8191	255	
2332.510	1	1	0	0	0.13173	0.13333	0.12225	0.25487	0.12181	0.18372	0.32047	0.31087	0.20338	0.14176	0.0814	0.15597	0.10524	0.17058	0.20234	0.14003	-2.4062	-2.9229	-2.8396	-2.9042	-2.8979	-2.7417	-2.9813	-2.8521	-2.6729	-3.2146	-2.975	-3.0542	-3.0792	-2.8688	-3.0125	-2.925	317.293	89.338	141.431	131.220	106.498	374.818	353.483	259.706	345.889	340.238	411.031	351.838	426.353	403.327	290.296	134.972	0.00071994	0.00071768	0.00037398	493.82	4.346e-06	1.039e-05	676.26	178.1	9.3947e-06	6.8868e-06	290.9	130.23	78.051	38.232	1.5282e-05	69.312	0.0087195	0.010031	0.0028017	647.88	0.00011284	0.00010817	819.39	222.5	0.00010998	0.00010864	367.17	155.97	99.628	46.409	0.00010901	82.014	150.007	115.024	91.312	89.452	138.832	191.561	88.503	93.434	170.291	209.150	92.490	96.030	97.042	101.144	172.940	99.528	-8191	255	
2332.582	1	1	0	0	0.15452	0.089005	0.19536	0.16181	0.025032	0.19707	0.31449	0.10232	0.21872	0.059707	0.14156	0.052617	0.32744	0.058247	0.13358	0.24053	-2.3187	-3.1417	-2.9875	-2.9417	-2.9417	-2.6646	-2.9354	-3	-2.5854	-2.9833	-2.8833	-2.8771	-3.05	-2.9042	-2.9604	-3.2396	156.567	290.461	165.066	252.859	230.467	279.297	418.942	126.137	185.683	432.468	305.659	403.107	426.729	359.391	108.240	322.370	0.00062221	0.00032254	5.7773e-05	489.5	4.5864e-06	2.0241e-06	667.23	177.8	2.8104e-06	1.5571e-05	290.56	130.81	77.746	38.523	1.0006e-05	69.677	0.0085605	0.009935	0.0028522	643.13	0.00011048	0.0001077	815.23	222.41	0.00010746	0.00010887	368.76	156.61	99.105	46.594	0.00011247	82.486	154.521	272.063	278.648	89.504	284.343	144.649	88.752	93.435	339.429	231.734	92.505	96.189	97.084	101.287	230.034	99.273	-8191	255	
2332.678	1	1	0	0	0.027506	0.063804	0.06598	0.32292	0.37998	0.2277	0.27096	0.19087	0.15139	0.15056	0.17254	0.11999	0.12494	0.12175	0.11748	0.3144	-2.2	-3.0271	-2.9146	-2.9188	-2.9625	-2.7292	-2.9583	-2.8875	-2.8604	-2.9875	-3.0521	-2.95	-2.975	-2.9625	-2.8771	-3.1375	126.060	419.372	144.999	383.682	141.304	407.529	371.316	331.333	112.526	149.552	390.956	370.946	433.014	101.860	255.915	369.569	0.00061792	0.0005581	0.00018364	482.83	4.9392e-06	1.3881e-05	661.23	173.7	1.0143e-05	2.5053e-06	285.4	129.5	76.363	38.111	1.2682e-05	69.867	0.0085206	0.010239	0.0029696	640.17	0.00010987	0.00011086	809.06	219.43	0.00010676	0.00011245	365.22	155.24	97.328	46.439	0.00011361	82.752	139.477	221.237	108.305	89.597	413.114	185.132	88.645	93.276	299.956	257.747	92.075	96.085	97.106	101.177	204.696	99.229	-8191	255	
2332.774	1	1	0	0	0.061235	0.12269	0.098492	0.081772	0.22117	0.22301	0.28858	0.099629	0.058578	0.095667	0.17531	0.30989	0.036563	0.034075	0.094614	0.20416	-2.3958	-2.8542	-2.8438	-2.5979	-3.2771	-2.7687	-2.8937	-3.0271	-2.6125	-2.9354	-2.9542	-2.85	-3.0542	-2.8563	-2.9062	-3.1063	367.348	144.626	87.252	173.991	107.273	353.521	385.928	216.457	428.725	414.640	93.626	373.870	283.769	366.720	234.205	374.382	0.00079527	0.00093381	0.00019909	455.11	5.8571e-06	1.1727e-05	628.76	167	5.6932e-06	1.3982e-05	280.13	130.52	76.386	39.098	1.342e-05	71.434	0.0082994	0.010263	0.0030019	610.2	0.00010748	0.00011144	778.38	210.6	0.0001044	0.00011211	360.78	156.22	96.905	47.469	0.00011416	84.319	141.388	242.210	161.266	89.312	136.338	245.779	88.839	93.682	371.934	227.941	92.476	95.837	97.178	101.003	242.996	99.127	-8191	255	
2332.895	1	1	0	0	0.1203	0.14192	0.075418	0.15092	0.073836	0.059447	0.16679	0.18078	0.17366	0.2591	0.12866	0.33287	0.14506	0.14641	0.085354	0.1467	-2.1771	-2.8021	-2.8896	-2.675	-2.9083	-3.0458	-2.8604	-2.9625	-2.6396	-2.8896	-2.8833	-2.6792	-3.1333	-2.6604	-2.6688	-3.1875	134.549	275.366	351.289	157.823	209.689	281.238	420.506	300.319	198.396	275.427	318.023	348.558	80.073	329.652	190.415	388.140	0.00077611	0.001036	0.0002107	434.88	3.1484e-06	7.3674e-06	615.83	162.31	4.4326e-06	1.0675e-05	277.6	128.72	74.888	38.56	1.0876e-05	70.265	0.0082166	0.010397	0.0030424	586.67	0.00010736	0.000114	765.26	206.09	0.0001061	0.00011603	359.7	154.18	96.388	47.215	0.00011767	83.064	156.645	164.498	130.235	89.470	226.967	294.781	88.588	93.304	287.515	157.979	92.292	96.098	97.015	101.054	176.862	98.979	-8191	255	
2332.991	1	1	0	0	0.084992	0.1219	0.13748	0.13978	0.17012	0.18124	0.14119	0.31738	0.015698	0.43894	0.15734	0.13413	0.23024	0.1842	0.24213	0.2392	-2.3354	-2.7167	-2.9917	-2.9125	-2.9458	-2.9313	-2.9521	-3.0938	-2.95	-2.9813	-3.1792	-2.8667	-3.0771	-3.1937	-2.9333	-3.1958	263.286	316.166	337.906	389.096	210.714	80.609	385.676	379.881	145.783	298.194	405.557	384.481	431.553	255.068	243.149	398.017	0.00085042	0.00022861	0.00014571	442.13	8.6118e-06	3.7368e-06	620.91	164.42	6.437e-06	1.3621e-05	275.57	128.22	75.502	38.402	4.0427e-06	70.029	0.008552	0.010884	0.0031428	594.33	0.00011275	0.00012099	775.37	208.26	0.0001124	0.00012264	361.75	154.32	97.806	47.67	0.00012173	83.45	147.576	183.274	208.142	89.386	267.725	183.385	88.505	93.611	225.281	227.094	92.329	95.717	96.809	100.937	156.654	99.128	-8191	255	
2333.087	1	1	0	0	0.23063	0.16991	0.055242	0.11603	0.22929	0.18434	0.14706	0.11215	0.05056	0.12005	0.035302	0.039267	0.24141	0.15545	0.21767	0.11958	-2.4458	-2.9771	-3.1729	-2.7687	-3.1042	-2.9521	-2.9375	-2.9771	-2.8937	-2.9583	-3.0333	-2.8688	-2.9083	-2.9354	-2.5271	-3.1917	320.052	87.572	317.720	356.705	165.410	258.982	372.296	102.906	349.545	316.120	250.925	115.439	420.425	430.992	382.399	304.100	0.0008794	0.0010275	9.2848e-05	442.06	1.3065e-05	1.6624e-05	610.82	162.64	6.4752e-06	8.6244e-06	276.87	131.31	76.389	39.082	6.8438e-06	71.936	0.0091514	0.011569	0.0032703	597.95	0.00012059	0.00012924	772.83	208.7	0.00012016	0.00013001	364.23	157.64	100.03	48.871	0.00012433	85.662	155.466	154.475	207.090	89.187	145.593	284.995	88.819	93.363	194.981	259.101	92.217	95.792	97.167	100.946	300.685	99.175	-8191	255	
2333.183	1	1	0	0	0.17566	0.31685	0.17766	0.091133	0.25244	0.25914	0.24732	0.12331	0.22361	0.095186	0.066276	0.17124	0.12663	0.1293	0.051078	0.27207	-2.2771	-2.7667	-3.0875	-2.7333	-2.8833	-2.8771	-2.7229	-3.0625	-2.825	-2.675	-3.0958	-2.8812	-2.9062	-3.0417	-2.8958	-3.2417	109.019	223.851	271.687	290.307	291.723	326.824	342.698	341.476	319.405	419.952	381.532	299.061	310.109	284.251	267.820	389.928	0.00082736	0.0015443	0.00012957	425.61	1.4813e-05	4.6999e-06	600.29	161.4	5.5567e-06	3.3698e-06	279.29	134.11	77.624	40.025	1.0031e-05	73.975	0.009731	0.012089	0.0033077	586.37	0.0001259	0.00013308	757.88	208.12	0.0001238	0.00013102	365.41	161.06	101.82	49.778	0.00011997	87.356	160.673	172.022	181.561	88.902	187.776	253.047	88.299	93.573	158.259	316.361	92.586	95.759	96.961	100.782	197.821	99.097	-8191	255	
2333.278	1	1	0	0	0.20495	0.32623	0.047389	0.067742	0.14671	0.26863	0.16523	0.11776	0.1858	0.072106	0.29984	0.063601	0.15676	0.1803	0.12135	0.14588	-2.3125	-2.7208	-2.9062	-2.8958	-2.9979	-2.9458	-3.0187	-3.0542	-2.925	-2.8854	-3.0563	-2.9333	-2.9208	-3.1521	-2.7083	-3.0667	140.458	397.659	369.026	300.972	318.323	257.658	278.606	175.118	354.849	345.907	295.111	353.174	319.147	412.989	139.699	330.558	0.00081098	0.00073781	0.00042001	423.08	6.8103e-06	1.3504e-05	602.29	164.61	1.2432e-05	1.2551e-05	283.02	134.31	78.204	40.344	6.1982e-06	73.363	0.0097303	0.011853	0.0031757	584.71	0.00012587	0.00013003	758.21	210.46	0.00012475	0.00012774	367.15	162.07	102.23	49.913	0.00011808	87.441	150.284	87.186	228.959	89.188	308.325	243.658	88.717	93.538	226.483	235.204	92.501	95.746	97.212	100.898	224.442	98.945	-8191	255	
2333.374	1	1	0	0	0.18519	0.21046	0.14243	0.13771	0.080869	0.11087	0.19892	0.28649	0.15713	0.24024	0.36039	0.10847	0.12765	0.018337	0.20338	0.42103	-2.4938	-2.5958	-2.9938	-2.9521	-2.85	-3.0292	-3.0208	-3.1208	-2.8458	-2.7958	-3.0187	-2.9146	-2.85	-3.2313	-2.7917	-3.2542	337.586	349.677	315.648	392.882	91.083	243.383	201.321	374.702	367.120	401.210	408.384	98.817	323.856	366.085	395.956	371.706	0.00062483	7.3532e-05	0.00019661	434.7	1.1462e-05	1.2369e-05	613.07	166.1	9.5977e-06	1.0218e-05	283.84	134.27	77.932	40.165	9.6911e-06	73.376	0.0098348	0.01155	0.0031442	596.62	0.00012602	0.00012722	765.79	213.89	0.00012525	0.00012306	367.8	161.6	102.17	49.389	0.00011636	86.895	158.131	389.930	111.246	89.266	197.426	276.952	88.686	93.664	198.018	223.233	92.497	95.914	97.157	101.064	279.022	99.297	-8191	255	
2333.470	1	1	0	0	0.3333	0.35506	0.022544	0.12266	0.11144	0.15617	0.21286	0.20881	0.19988	0.21876	0.26866	0.12828	0.14083	0.052583	0.32163	0.17544	-2.4208	-2.6417	-3.0542	-2.9917	-2.9	-3.0979	-2.8979	-3.1667	-3.0812	-2.6958	-2.9021	-2.8292	-2.9833	-3.3354	-2.7708	-3.1292	294.314	409.986	209.593	187.767	224.722	140.186	323.660	377.260	433.068	420.789	341.847	362.533	396.065	417.460	356.756	351.329	0.00091234	0.0009739	0.00050115	446.25	4.5179e-06	1.2828e-05	626.69	168.89	1.9826e-05	1.128e-05	282.66	132.66	77.008	39.923	5.1405e-06	72.857	0.0096862	0.011005	0.0031066	609.64	0.00012353	0.00012172	777.95	215.45	0.00012329	0.00011876	367.26	160.52	101.09	48.892	0.00011876	86.672	153.958	110.731	140.783	89.376	434.772	222.574	88.600	93.593	208.567	271.479	92.388	95.691	97.300	101.200	214.321	99.207	-8191	255	
2333.591	1	1	0	0	0.2529	0.30313	0.1288	0.057739	0.24327	0.083951	0.10426	0.25113	0.32973	0.059567	0.16134	0.13302	0.13145	0.22803	0.12785	0.097448	-2.6458	-2.6125	-2.9625	-2.975	-2.7042	-3.1	-2.9521	-2.9917	-2.9375	-2.7375	-3.1021	-3.0083	-2.7229	-3.1354	-2.6375	-2.9917	333.815	117.922	431.514	334.913	107.478	127.507	311.769	329.204	212.919	249.171	287.596	427.400	382.614	367.995	332.404	388.761	0.00082563	0.00040149	0.00028152	439.78	6.922e-06	1.6629e-05	617.31	166.52	3.6805e-06	6.0553e-06	283.02	133.71	77.871	39.844	8.8097e-06	73.404	0.0096801	0.01085	0.0031664	605.61	0.00012196	0.00011959	770.19	213.36	0.00012044	0.00011647	368.07	161.72	100.84	48.845	0.00011915	87.17	137.335	408.265	136.592	89.209	198.317	199.852	88.658	93.588	362.230	193.569	92.701	95.672	97.065	100.994	141.416	99.181	-8191	255	
2333.687	1	1	0	0	0.029897	0.22042	0.062422	0.20376	0.18866	0.13366	0.21384	0.17692	0.20383	0.25712	0.12339	0.25273	0.1195	0.059231	0.10525	0.034346	-2.6208	-2.8042	-3.0229	-2.9104	-2.7125	-3.1521	-2.9313	-2.975	-2.9417	-2.8	-3.1396	-2.9583	-2.7271	-2.9958	-2.8021	-2.9104	150.563	140.572	226.202	411.247	152.398	134.682	395.468	326.878	146.966	93.914	345.695	402.451	88.876	323.036	374.338	240.537	0.00081914	0.00066838	0.00026357	443.06	6.2208e-06	7.6073e-06	621.31	166.36	3.7822e-06	9.6851e-06	283.9	134.41	77.666	40.278	4.4666e-06	73.732	0.0093845	0.010764	0.0031999	610.26	0.00011867	0.00012058	780.66	214.87	0.00011923	0.00011956	371.9	163.07	100.68	49.327	0.00012324	87.854	159.450	102.592	155.463	89.395	420.101	237.004	88.898	93.670	347.200	226.695	92.357	95.901	96.940	100.999	421.160	99.086	-8191	255	
2333.783	1	1	0	0	0.22333	0.057284	0.16334	0.27195	0.34629	0.15766	0.10232	0.25879	0.21461	0.11924	0.23868	0.243	0.23499	0.04772	0.33746	0.14079	-2.3646	-2.7771	-2.7917	-2.6937	-2.5875	-3.0146	-2.9458	-2.8	-3.1104	-2.8771	-2.8438	-3.0271	-2.9583	-3.1104	-3.1604	-2.8729	207.991	84.183	328.161	243.181	378.085	323.692	75.594	89.656	343.396	255.881	181.182	86.002	419.055	198.414	230.077	140.373	0.00069802	0.0018642	0.00032312	438.81	1.7677e-06	1.0029e-05	615.66	165.47	7.8182e-06	4.2864e-06	281.45	132.67	77.133	39.71	5.5446e-06	72.552	0.0092952	0.011018	0.0032745	605.44	0.00011632	0.00012241	776.56	213.32	0.00011707	0.0001213	369.36	160.98	99.506	48.786	0.00012546	86.369	140.635	178.322	161.749	88.995	397.186	314.069	88.493	93.539	364.073	163.047	92.998	95.868	97.165	101.103	272.603	98.977	-8191	255	
2333.879	1	1	0	0	0.038475	0.11926	0.22757	0.23664	0.061285	0.17593	0.2755	0.087067	0.20007	0.054381	0.32897	0.13674	0.23185	0.12088	0.15391	0.27455	-2.6688	-2.6562	-2.7625	-3.075	-2.7333	-2.9917	-2.8479	-2.7792	-3.2458	-2.8979	-2.7771	-3.1521	-2.6833	-3.0438	-2.9313	-2.7833	161.921	112.155	189.343	420.444	322.942	422.402	339.018	403.353	238.419	251.655	164.353	392.299	426.193	96.232	291.810	344.527	0.00076346	0.0010731	0.00031825	434.15	3.8359e-06	8.3809e-06	609.65	160.98	7.2991e-06	4.6247e-06	276.16	129.95	75.387	38.907	4.6541e-06	71.737	0.0092524	0.011288	0.0033327	602.31	0.00011595	0.00012562	772.16	208.55	0.00011796	0.00012481	364.55	157.75	97.732	48.226	0.00012698	85.19	155.830	163.190	141.332	88.958	296.424	168.028	88.621	93.543	229.732	240.360	92.560	95.762	97.198	100.980	212.379	99.125	-8191	255	
2333.975	1	1	0	0	0.10285	0.20266	0.074955	0.072298	0.11327	0.22311	0.23917	0.1905	0.30645	0.015162	0.12375	0.25779	0.19913	0.12486	0.23836	0.1169	-2.6646	-2.9542	-2.6875	-3.1375	-2.6958	-2.8479	-2.9125	-2.7292	-2.9125	-2.7188	-2.975	-3.0979	-2.6667	-2.9708	-2.8667	-2.7417	353.910	402.040	161.020	199.842	82.946	131.867	359.421	431.303	302.982	177.991	136.857	433.565	76.856	389.264	427.980	134.018	0.00076756	0.00050692	0.00021794	425.67	9.4903e-06	8.4928e-06	604.12	158.52	1.18e-05	1.1834e-05	272.52	128.72	75.341	38.51	9.6422e-06	71.18	0.0092625	0.011509	0.0033399	592.8	0.00011818	0.00012712	769.91	205	0.00011906	0.00012725	362.11	156.29	97.803	48.143	0.00012912	84.627	142.944	84.278	177.387	89.219	195.810	167.939	88.679	93.904	215.895	228.065	92.325	95.638	97.072	100.879	186.359	99.243	-8191	255	
2334.071	1	1	0	0	0.20244	0.13567	0.12564	0.090911	0.035369	0.274	0.1759	0.051376	0.041041	0.13503	0.053062	0.28948	0.18094	0.27116	0.18574	0.16969	-2.3542	-2.6521	-2.6813	-3.1104	-2.7188	-2.9792	-3.0979	-2.7396	-2.9542	-2.8979	-2.8667	-3.1979	-2.8208	-2.95	-3.1	-2.8354	192.428	221.108	357.575	148.061	140.501	379.317	310.577	362.086	391.164	87.330	158.188	415.941	96.686	402.467	312.953	341.134	0.00083985	0.0012632	0.00018224	430.81	9.2333e-06	5.1074e-06	610.78	159.98	1.0016e-05	1.5301e-05	274.05	129.27	74.809	38.542	6.3367e-06	71.658	0.0095002	0.011868	0.0033773	596.78	0.00012091	0.00013072	777.36	206.19	0.00012227	0.00013101	363.69	156.58	98.611	48.316	0.00012794	84.938	150.842	138.161	267.223	89.252	257.863	225.206	88.721	93.409	168.554	202.525	92.341	95.575	96.982	101.189	239.030	99.037	-8191	255	
2334.190	1	1	0	0	0.20144	0.14912	0.13664	0.095865	0.1205	0.030885	0.06312	0.1628	0.25772	0.13199	0.30215	0.15821	0.032068	0.22189	0.14058	0.23319	-2.4313	-2.9313	-2.4938	-3.0979	-2.7812	-2.8292	-3.0958	-2.6979	-2.9854	-2.8333	-2.8458	-3.0958	-2.8812	-2.8917	-3.2125	-2.9625	335.230	423.094	220.020	230.234	340.110	371.736	342.575	432.271	128.077	381.473	396.549	396.491	405.147	377.278	200.760	397.312	0.00086515	0.00047575	0.00034483	434.57	8.1218e-06	6.5311e-06	611.99	160.8	1.2023e-05	1.0191e-05	272.15	129.1	74.833	38.666	8.7611e-06	71.099	0.0097729	0.012135	0.0033136	597.18	0.00012445	0.00013324	774.06	206.17	0.00012481	0.00013268	360.8	156.44	98.584	48.213	0.00012309	84.504	148.951	172.325	299.340	89.241	170.698	265.064	88.515	93.638	200.726	95.165	92.373	95.914	96.988	101.029	384.057	99.067	-8191	255	
2334.286	1	1	0	0	0.072113	0.11708	0.10995	0.22967	0.089377	0.15059	0.51202	0.074081	0.18454	0.1532	0.2091	0.15212	0.045274	0.2608	0.1768	0.089195	-2.4042	-2.9708	-2.4938	-2.9396	-2.7938	-2.7458	-3.2062	-2.8583	-2.8937	-2.9167	-2.7646	-3.225	-2.9396	-2.7979	-2.9646	-2.8771	97.549	332.270	307.436	405.199	299.446	149.368	381.736	165.649	334.734	407.324	290.882	369.896	115.264	288.566	82.603	279.047	0.00070626	0.00080653	0.00030456	434.41	1.4444e-05	1.115e-05	612.51	160.78	3.3555e-06	8.8867e-06	273.49	129.28	74.9	38.474	4.9738e-06	71.159	0.0096895	0.011993	0.0031597	595.31	0.00012394	0.00012958	767.33	205.92	0.00012343	0.00012951	357.28	156.11	98.546	48.001	0.00011924	84.509	150.805	348.282	336.703	88.993	219.188	257.215	88.497	93.665	168.019	259.569	92.297	95.752	97.051	101.189	102.562	99.274	-8191	255	
2334.383	1	1	0	0	0.10888	0.10692	0.055287	0.079039	0.37702	0.31983	0.11096	0.19438	0.2887	0.078611	0.29354	0.12666	0.42099	0.18918	0.10636	0.19965	-2.4396	-3.1042	-2.7042	-3.1708	-2.9271	-2.7583	-3.2375	-2.8625	-2.9229	-3.0229	-3.0583	-3.0833	-3.0167	-2.7625	-3.1896	-2.7667	346.373	81.614	303.611	332.501	142.895	137.909	223.777	400.780	128.594	170.955	410.924	307.025	393.807	418.563	97.831	111.698	0.00076856	0.00064792	0.00037168	438.48	1.0263e-05	1.1043e-05	611.49	160.07	6.6326e-06	2.6135e-06	274.8	128.01	74.679	38.004	3.4803e-06	70.795	0.0096921	0.011724	0.0030921	599.48	0.0001249	0.00012767	768.46	206.92	0.00012557	0.00012824	356.95	156.07	98.787	47.615	0.00012229	84.588	157.735	248.207	336.012	88.867	237.036	214.313	88.480	93.658	140.833	367.916	92.515	95.795	97.278	100.865	352.812	99.313	-8191	255	
2334.454	1	1	0	0	0.088053	0.24951	0.031182	0.01889	0.22819	0.15731	0.14277	0.13992	0.27225	0.1636	0.031603	0.085393	0.35631	0.18346	0.12236	0.19087	-2.2562	-2.9688	-2.7354	-3.0938	-2.9167	-2.8229	-2.9583	-2.7771	-2.925	-3.0812	-2.8104	-2.975	-2.8792	-2.8417	-3.1	-2.8625	101.509	126.141	292.929	108.166	287.816	236.895	253.011	377.275	188.761	113.920	278.763	132.343	435.107	331.250	226.729	119.574	0.00090591	0.0016346	0.00039887	438.11	9.5576e-06	3.2059e-06	614.05	159.52	2.2747e-06	7.6021e-06	272.48	128.2	74.126	38.136	9.8259e-06	70.96	0.010097	0.011946	0.0032168	610.53	0.00013213	0.00012882	774.99	208.46	0.00013054	0.00012915	359.2	157.52	99.38	47.692	0.00012525	85.529	139.113	261.635	215.828	89.257	280.898	336.292	88.913	93.570	411.006	131.281	92.626	95.946	97.006	101.106	188.137	98.997	-8191	255	
2334.575	1	1	0	0	0.06031	0.25649	0.23375	0.16645	0.22457	0.12639	0.40141	0.11444	0.13123	0.16764	0.23493	0.1316	0.165	0.18557	0.11831	0.084887	-2.5104	-3.1	-2.6917	-2.8604	-2.8688	-2.7354	-3.1458	-3.1104	-2.7625	-3.1125	-2.8688	-2.9729	-3.0187	-2.7042	-3.0042	-3.2125	396.447	84.249	149.275	105.697	339.404	174.867	295.050	323.375	156.134	425.603	414.458	424.459	218.451	415.830	149.413	281.020	0.0006254	0.00026661	0.00014484	427.53	9.2651e-06	1.0002e-05	598.17	156.5	3.4187e-06	2.2271e-06	270.3	129.27	74.318	38.425	1.2689e-05	71.588	0.010221	0.011764	0.0032885	599.75	0.00013208	0.00012657	761.72	205.71	0.00012906	0.00012722	357.71	158.51	98.855	47.712	0.00012715	86.11	141.797	312.466	187.083	89.336	169.633	283.197	88.869	93.772	389.135	134.918	92.356	95.723	96.821	100.695	185.861	98.999	-8191	255	
2334.671	1	1	0	0	0.2811	0.13195	0.19784	0.093711	0.293	0.057799	0.16623	0.1141	0.11445	0.030287	0.16238	0.1115	0.19855	0.16587	0.12278	0.12882	-2.3563	-3.0938	-2.9	-2.925	-3.0396	-2.8333	-2.8708	-3.1375	-2.6583	-3.0792	-2.8646	-3.075	-3.075	-2.7917	-3.1104	-3.0417	102.855	349.678	430.113	400.733	392.623	368.624	420.826	291.268	258.225	261.221	386.791	366.623	402.980	126.732	366.733	370.971	0.00073046	0.00093881	0.00030473	408.85	3.7681e-06	1.4428e-05	579.82	151.71	7.1543e-06	6.028e-06	265.88	128.77	73.714	38.879	1.0079e-05	71.598	0.0099724	0.011503	0.0032889	580.93	0.00012769	0.00012418	742.22	201.4	0.00012505	0.00012556	353.55	158.42	97.944	47.989	0.00012837	86.314	146.387	247.801	103.686	89.364	266.846	170.282	88.492	93.730	324.733	432.166	92.377	95.871	97.136	100.712	228.240	98.999	-8191	255	
2334.767	1	1	0	0	0.085982	0.15505	0.26224	0.28392	0.11006	0.11879	0.14918	0.065028	0.10704	0.14048	0.13605	0.031255	0.21449	0.15488	0.083265	0.24997	-2.3937	-3.1354	-2.825	-2.775	-3.0729	-2.9354	-3.025	-3.0229	-2.6875	-3.1875	-2.9813	-2.9562	-3.1646	-2.8229	-2.7812	-3.0521	88.354	188.957	279.253	300.735	102.047	103.687	161.880	82.643	286.481	261.664	135.596	93.123	403.748	405.089	197.210	387.669	0.00077856	0.0010646	0.00029092	394.31	4.3879e-06	1.7912e-05	568.8	147.63	2.1362e-06	6.9736e-06	262.1	128.57	73.338	38.523	1.174e-05	72.13	0.0096628	0.011571	0.0033559	568.47	0.0001242	0.00012427	729.98	196.96	0.00011916	0.00012414	349.86	157.11	96.011	47.695	0.00012641	86.331	163.477	164.433	131.737	89.093	181.571	211.178	88.365	93.743	305.363	177.764	92.380	95.646	97.025	100.880	226.779	98.824	-8191	255	
2334.863	1	1	0	0	0.25526	0.10242	0.094349	0.18671	0.40882	0.24883	0.1114	0.14292	0.085936	0.22934	0.054173	0.30449	0.15622	0.048506	0.29482	0.34657	-2.3271	-3.0917	-2.975	-2.7438	-2.9979	-2.675	-3.0646	-3.0042	-2.5875	-2.9625	-3.0208	-2.9479	-3.2271	-2.9125	-3.0125	-3.1333	304.258	196.542	90.028	105.072	181.893	368.660	371.982	340.390	99.229	407.632	318.817	424.040	403.723	337.064	221.945	394.614	0.00076765	0.0013702	0.00029933	391.42	1.0207e-05	1.7139e-05	567.07	151.62	1.9437e-06	8.5893e-06	272.24	133.85	76.061	39.94	1.5564e-05	74.066	0.009241	0.011472	0.0033534	560.84	0.00012082	0.00012584	732.89	200.55	0.00011827	0.00012792	361.39	162.74	99.392	49.27	0.00012878	88.083	149.557	157.925	328.209	89.237	175.556	336.043	88.964	93.564	213.727	234.360	92.221	95.557	96.855	100.752	218.608	98.888	-8191	255	
2334.982	1	1	0	0	0.17991	0.15507	0.10217	0.12676	0.22759	0.26264	0.072267	0.18712	0.29759	0.28273	0.24256	0.15615	0.17296	0.12414	0.1264	0.17608	-2.3958	-2.9667	-2.8646	-2.8229	-3.0167	-2.95	-2.9458	-2.9604	-2.7896	-3.1833	-2.8625	-2.8625	-3.1708	-2.7792	-2.8438	-3.0417	170.583	168.994	336.763	122.497	242.034	235.847	366.803	354.951	113.855	277.242	377.198	365.583	90.320	165.998	298.216	331.744	0.00084984	0.00095701	0.00017101	389.83	1.1715e-05	1.0218e-05	564.84	151.86	1.5973e-06	1.6883e-05	269.51	134.2	75.636	39.586	3.4633e-07	73.879	0.0092384	0.011635	0.0033949	555.37	0.00011971	0.0001275	730.86	199.47	0.00011866	0.00012852	360.76	161.42	99.003	49.189	0.00012935	87.653	153.705	142.560	417.301	89.186	258.816	237.121	88.831	93.466	85.484	207.794	92.505	95.676	96.761	100.924	360.011	98.950	-8191	255	
2335.056	1	1	0	0	0.14919	0.11915	0.082997	0.26922	0.20774	0.12602	0.19099	0.16479	0.11465	0.047942	0.13612	0.10192	0.11794	0.27201	0.16425	0.35275	-2.3479	-2.9646	-2.8917	-2.9188	-3.0125	-2.8792	-2.8187	-3.0958	-2.7604	-2.6667	-3.0708	-2.9708	-3.0062	-3.0125	-2.7771	-3.2604	165.517	369.972	172.483	234.578	155.868	237.682	388.090	349.684	255.794	95.614	234.083	352.615	362.609	369.303	198.020	404.128	0.00092799	0.0015943	0.00019639	389.88	7.2127e-06	4.1968e-06	566.09	149.77	1.384e-05	1.2536e-05	268.19	131.77	74.59	39.396	9.0551e-06	72.829	0.0093623	0.01187	0.0034181	551.28	0.00012225	0.00013054	730.96	196.91	0.00012057	0.00013058	357.92	159.1	98.412	49.002	0.00012779	86.511	155.161	139.875	310.604	88.950	209.412	209.882	88.768	93.729	230.077	192.043	92.547	95.569	97.113	100.789	297.413	98.823	-8191	255	
2335.152	1	1	0	0	0.080198	0.051622	0.19242	0.27504	0.13866	0.21945	0.075879	0.057516	0.13789	0.12561	0.024497	0.16268	0.122	0.23324	0.19294	0.12593	-2.2708	-2.9313	-3.0604	-2.8312	-2.9167	-2.9979	-2.8729	-3.1229	-2.8125	-2.9354	-3.1646	-2.9875	-3.1292	-3.0021	-2.6396	-3.1396	127.508	236.329	330.538	209.675	77.440	269.331	301.552	87.627	110.805	229.340	350.212	416.852	167.035	374.225	382.662	355.358	0.00094825	0.0010165	0.0002223	385.03	1.4232e-05	8.6579e-06	561.61	148.98	6.6724e-06	1.0496e-05	265.22	130.63	74.13	39.123	9.7604e-06	72.818	0.0095365	0.012013	0.0033895	548.14	0.00012406	0.00013233	722.5	195.37	0.00012343	0.00013196	354.32	157.88	98.167	48.886	0.00012536	86.337	150.566	169.775	231.611	89.196	297.747	201.937	88.583	93.930	188.621	186.922	92.640	95.416	96.747	100.535	96.360	99.058	-8191	255	
2335.272	1	1	0	0	0.11037	0.29851	0.14546	0.19029	0.10433	0.32312	0.13156	0.0983	0.16703	0.051667	0.17941	0.069897	0.094284	0.31529	0.057145	0.22842	-2.2292	-2.7271	-3.2208	-2.9604	-3.0458	-3.0062	-2.75	-3.0479	-2.8417	-2.825	-3.1583	-2.9208	-3.1208	-3.0708	-2.8021	-3.2146	370.424	350.189	430.867	341.222	109.142	167.005	390.760	354.767	257.834	373.453	380.137	185.652	379.954	139.479	159.480	348.381	0.00058565	0.0006544	0.00015148	391.15	5.818e-06	3.176e-06	565.15	149.03	2.6771e-06	6.3353e-06	264.86	130.94	74.211	38.914	6.6896e-06	72.873	0.0097681	0.012179	0.0033137	552.32	0.00012638	0.00013398	722.25	195.81	0.0001252	0.00013183	351.57	157.97	98.232	48.782	0.00012034	86.448	144.851	94.672	250.089	89.361	209.463	158.121	88.569	93.798	352.283	353.699	92.556	95.770	96.856	100.836	395.363	99.124	-8191	255	
2335.367	1	1	0	0	0.10968	0.16001	0.0065999	0.3091	0.23006	0.085319	0.068238	0.083502	0.23241	0.14832	0.074706	0.11402	0.11184	0.33877	0.11413	0.33552	-2.4083	-2.7854	-3.0375	-2.7604	-2.925	-3.0104	-3.0021	-3.1292	-2.825	-2.7854	-3.2042	-2.8646	-3.0812	-3.2708	-2.6937	-2.9646	332.603	281.605	410.235	366.567	226.091	378.791	259.723	373.409	372.343	88.594	435.025	329.108	233.257	384.107	323.799	330.069	0.00092421	0.00027892	0.00025291	387.02	1.3715e-05	5.8713e-06	557.63	148.31	6.9602e-06	1.1512e-05	267	131.52	74.584	39.47	6.5043e-06	73.491	0.0097068	0.011797	0.0031578	544.9	0.0001243	0.00012871	709.58	194.27	0.0001225	0.00012635	348.81	158.74	98.021	48.615	0.00011435	86.835	146.068	170.340	211.261	89.236	188.754	385.154	88.739	94.118	248.923	249.853	92.526	95.651	96.756	100.619	235.673	98.868	-8191	255	
2335.463	1	1	0	0	0.34339	0.3514	0.14155	0.18318	0.1877	0.10212	0.168	0.09378	0.22558	0.094452	0.11973	0.19869	0.14635	0.17154	0.29758	0.046211	-2.45	-2.5687	-3.05	-2.8583	-2.8896	-3.0625	-2.775	-2.9292	-3.0396	-2.7687	-3.3187	-3.1917	-2.8479	-3.1208	-2.5812	-3.1667	231.785	121.752	167.384	251.643	346.659	431.468	352.596	174.835	223.074	270.083	154.702	104.982	130.594	414.467	393.655	86.260	0.00093553	0.00053842	0.00036035	381.31	1.4561e-05	6.1031e-06	547.58	147.04	7.4292e-06	8.9179e-06	263.57	131.02	74.137	39.138	4.9869e-06	73.145	0.0094775	0.011158	0.0030274	535.62	0.00012145	0.00012393	696.95	192.56	0.00012247	0.0001218	345.55	158.5	97.713	48.32	0.00011534	86.65	143.976	386.286	120.021	89.084	247.379	347.500	88.864	93.616	262.273	204.357	92.616	95.543	96.894	100.868	185.277	98.988	-8191	255	
2335.584	1	1	0	0	0.15209	0.2063	0.30106	0.060085	0.15358	0.058133	0.31415	0.16949	0.20216	0.07472	0.244	0.10269	0.25826	0.13896	0.099842	0.23841	-2.5312	-2.85	-2.9875	-2.8083	-3.1021	-3.0625	-2.9208	-3.0604	-2.9271	-2.8125	-3.2292	-3.0396	-2.6083	-3.1833	-2.6917	-3.1354	129.669	230.833	209.863	112.631	373.529	415.273	304.250	392.447	397.503	147.214	387.874	261.486	254.629	120.988	283.396	381.650	0.00073732	0.00044432	0.0003007	375.54	4.6974e-06	4.9e-06	547.5	146.76	1.1575e-05	1.2594e-06	263.74	131.7	74.756	39.201	7.2236e-06	72.971	0.0096203	0.010928	0.0030862	537.23	0.00012312	0.00012085	697.03	193.15	0.0001223	0.00011769	346.14	159.05	97.828	48.251	0.00011651	86.883	150.283	261.308	104.400	89.262	178.326	220.733	88.638	93.873	242.930	313.936	92.582	95.822	96.597	100.522	217.364	98.648	-8191	255	
2335.680	1	1	0	0	0.049126	0.098173	0.1089	0.1468	0.037598	0.062461	0.21856	0.37587	0.012606	0.19243	0.18243	0.25084	0.11931	0.18496	0.33102	0.12683	-2.5583	-2.9583	-2.9333	-2.9792	-2.7146	-3.1396	-2.7729	-2.9583	-3.0875	-2.7021	-3.0625	-3.1437	-2.775	-3.0625	-2.8417	-2.875	113.070	396.074	177.706	273.691	137.256	262.464	121.290	341.948	411.691	239.266	127.426	400.760	195.729	308.235	326.762	380.636	0.00078052	0.0009565	0.00046244	379.87	1.0385e-05	8.096e-06	551.63	147.6	8.0902e-06	4.3692e-06	266.47	132.33	74.659	39.211	9.1964e-06	73.521	0.0095871	0.010764	0.0031282	542.05	0.00012129	0.00011911	702.47	194.76	0.00012166	0.00011741	350.02	160.47	97.907	48.282	0.00011934	87.312	152.679	351.951	128.579	89.200	224.590	406.197	88.540	93.816	308.714	235.501	92.552	95.743	96.888	100.819	180.206	99.009	-8191	255	
2335.751	1	1	0	0	0.28278	0.15421	0.057663	0.11705	0.18928	0.10991	0.32354	0.17913	0.12799	0.073179	0.18342	0.021839	0.26711	0.21893	0.02736	0.45507	-2.7208	-2.7	-2.9208	-2.9229	-2.7375	-3.1229	-2.9	-2.8438	-3.2542	-2.8208	-2.8229	-3.0604	-2.6708	-3.0042	-2.9271	-3.0583	319.065	111.232	259.902	340.505	154.303	430.804	401.486	394.392	153.418	212.258	91.001	335.412	281.141	335.370	344.198	365.315	0.00077361	0.00058471	0.00041452	380.83	5.8264e-06	1.0205e-05	553.99	148.07	6.2196e-06	6.5918e-06	266.02	132.13	74.178	39.36	8.3349e-06	73.634	0.0094041	0.010743	0.0031904	547.2	0.00011882	0.00012052	710.1	195.38	0.00011953	0.00011844	350.66	160.22	96.952	48.397	0.00012166	87.358	153.646	265.940	141.698	89.024	365.223	216.093	88.719	93.843	352.330	137.466	92.352	95.672	96.867	100.570	404.377	98.979	-8191	255	
2335.872	1	1	0	0	0.11178	0.10894	0.19403	0.2371	0.24589	0.16233	0.17672	0.085869	0.18488	0.21035	0.22677	0.18209	0.2421	0.19926	0.18104	0.19909	-2.5771	-2.7521	-2.9021	-2.8896	-2.8063	-3.0438	-2.8229	-2.6896	-2.9917	-2.8312	-3.0812	-3.1229	-2.9583	-3.05	-2.7833	-3	320.130	250.125	261.104	239.003	223.653	79.021	379.555	384.427	173.419	415.493	312.727	429.746	129.651	111.735	226.790	333.283	0.0005707	0.001866	0.00029485	380.49	7.7712e-06	7.7196e-06	557.06	147.88	8.7362e-06	5.7363e-06	265.6	132.15	74.455	39.308	7.0326e-06	73.113	0.0091808	0.010845	0.0032304	547.44	0.00011567	0.00012103	713.48	194.43	0.00011564	0.00011977	351.7	159.67	96.441	48.373	0.00012362	87.05	164.455	180.065	76.886	88.868	257.995	167.648	88.645	94.059	207.379	178.321	92.647	95.657	97.002	100.509	189.890	99.049	-8191	255	
2335.968	1	1	0	0	0.10954	0.09994	0.14608	0.071322	0.12049	0.23732	0.21099	0.12677	0.17968	0.18855	0.13525	0.19379	0.24414	0.17598	0.22532	0.28076	-2.8146	-2.775	-2.8583	-3.1646	-2.8312	-2.9833	-2.9625	-2.7042	-2.9375	-2.8646	-2.9875	-3.2313	-2.7729	-3.1375	-3.0438	-2.8937	111.486	88.724	379.209	99.331	161.447	331.594	295.461	189.377	116.467	414.956	422.218	312.871	153.851	376.588	379.452	356.214	0.00084453	0.00065711	0.00023805	381.05	1.3218e-05	6.1929e-06	549.81	146.79	9.9046e-06	3.2451e-06	264.24	131.1	74.51	39.227	1.1242e-05	73.116	0.0090563	0.011077	0.0032451	543.54	0.00011382	0.00012286	709	192.8	0.0001154	0.00012177	350.97	158.88	96.323	48.418	0.00012456	86.386	156.454	150.517	193.718	89.140	222.472	114.910	88.699	93.575	221.931	148.023	92.446	95.729	97.020	100.574	219.118	98.913	-8191	255	
2336.064	1	1	0	0	0.23479	0.20168	0.12899	0.34303	0.17472	0.20067	0.2276	0.072577	0.11587	0.16292	0.17546	0.13632	0.075634	0.25679	0.14497	0.23274	-2.7708	-2.7042	-2.7458	-2.9167	-2.8771	-2.8812	-3.125	-2.8521	-3.0854	-3.0458	-2.8229	-3.325	-2.6708	-3.1854	-3.0875	-2.9813	411.352	174.424	202.172	353.528	364.039	118.209	435.173	159.509	230.880	103.046	209.512	154.172	405.851	352.762	243.825	356.665	0.00078774	0.00088144	9.0852e-05	377.04	7.3696e-06	6.3093e-06	547.57	147.15	4.3129e-06	7.5402e-06	262.31	131.28	74.334	39.278	1.2201e-05	73.664	0.0090575	0.011135	0.0032287	534.91	0.00011289	0.00012195	704.39	190.35	0.00011335	0.00012064	347.69	157.4	95.867	48.279	0.00011947	86.129	154.744	141.298	119.267	89.012	174.604	288.237	88.674	93.762	228.297	274.884	92.664	95.691	96.767	100.884	309.984	99.026	-8191	255	
2336.161	1	1	0	0	0.19574	0.051566	0.081598	0.14776	0.20782	0.029368	0.16897	0.091148	0.11288	0.12149	0.18298	0.17379	0.25518	0.14219	0.12845	0.29688	-2.5417	-2.7854	-2.8458	-2.9562	-2.8646	-2.8958	-2.9688	-2.7562	-3.025	-2.8896	-2.8396	-3.0125	-2.7313	-2.7875	-3.0375	-2.8479	124.381	196.972	238.447	411.925	129.456	80.109	305.794	351.916	261.628	423.536	349.303	415.396	124.035	173.257	419.186	416.453	0.00073362	0.0020644	0.00060358	372.09	7.1875e-06	7.9894e-06	539.49	145.87	6.7394e-06	6.373e-06	265.88	132.84	75.042	39.567	5.0088e-06	74.19	0.008742	0.010849	0.0030863	519.71	0.00011029	0.00011887	692.02	187.53	0.00011087	0.00011855	345.69	158.32	96.433	48.627	0.00011576	86.675	153.659	193.445	361.314	89.052	209.575	379.034	88.738	93.853	378.154	215.974	92.273	95.664	97.059	100.872	208.094	98.909	-8191	255	
2336.279	1	1	0	0	0.23127	0.067062	0.2022	0.25396	0.13642	0.12214	0.1083	0.1671	0.15226	0.060676	0.14165	0.2165	0.34467	0.15045	0.060856	0.057287	-2.5646	-2.9208	-2.675	-3.2104	-2.5708	-3.0062	-3.1125	-2.8312	-3.0187	-2.8917	-2.8042	-3.2729	-2.85	-2.8167	-2.9708	-2.9521	302.443	245.435	156.828	367.112	380.534	241.789	305.065	309.707	434.227	318.594	432.727	348.290	78.109	147.846	303.888	152.715	0.00083139	0.00024331	0.00020945	373.38	1.2355e-05	8.5052e-06	544.88	148.08	1.5092e-05	1.009e-05	268.49	134.83	76.072	39.87	1.1544e-05	74.613	0.0088167	0.011015	0.0030212	521.34	0.00011325	0.00012127	695.99	190.21	0.00011447	0.00012218	348.5	160.34	98.102	49.16	0.00011504	87.41	154.242	362.070	81.492	89.294	193.952	298.733	88.672	93.979	229.945	265.320	92.506	95.721	96.952	100.741	311.910	99.116	-8191	255	
2336.351	1	1	0	0	0.27805	0.13955	0.18531	0.22664	0.18928	0.14644	0.21744	0.12688	0.28266	0.12814	0.071145	0.27652	0.053187	0.085424	0.13662	0.3845	-2.5104	-2.9771	-2.5021	-2.9708	-2.7896	-2.6125	-2.9854	-2.8229	-2.8979	-2.9729	-2.7542	-3.1646	-2.9229	-2.775	-2.9708	-3.0229	288.370	203.863	327.591	112.642	193.920	159.754	331.863	327.565	410.066	153.025	391.391	384.982	144.048	348.514	408.695	357.709	0.00078612	0.00017415	0.00035155	380.43	5.4287e-06	3.2078e-06	552.74	149.8	1.1577e-05	5.8025e-06	268.71	133.67	76.228	39.784	5.8857e-06	73.931	0.0091419	0.011326	0.0030064	531.34	0.00011805	0.00012422	700.19	193.34	0.00011802	0.0001242	349.36	160.42	98.883	49.041	0.00011427	86.926	151.609	271.449	382.809	89.213	219.457	232.739	88.721	93.798	228.734	240.023	92.164	95.778	96.648	100.866	86.021	99.003	-8191	255	
2336.447	1	1	0	0	0.17389	0.088632	0.10439	0.19191	0.034923	0.14335	0.18666	0.36002	0.050885	0.10946	0.23636	0.1099	0.20076	0.21198	0.066858	0.40763	-2.4437	-2.9729	-2.55	-2.9458	-2.8646	-2.6792	-3.0646	-2.7125	-2.8312	-3.1479	-2.75	-2.8708	-2.8417	-2.6917	-3.1125	-3.0646	169.550	94.999	142.448	83.765	263.967	164.300	92.611	92.108	215.959	387.735	396.470	107.678	142.558	139.987	416.300	349.391	0.00086344	0.00061666	6.0867e-05	379.27	8.3925e-06	5.4031e-06	551.54	149.88	1.7183e-05	1.0089e-05	267.76	133.22	75.26	39.67	7.6821e-06	73.726	0.0093188	0.011309	0.0029683	534.38	0.00011962	0.00012217	696.46	193.35	0.00011941	0.00012188	345.88	159.76	98.231	48.629	0.00011267	86.714	149.898	288.325	175.067	89.404	214.879	339.255	88.471	93.699	220.569	249.625	92.673	95.409	96.889	100.674	205.701	99.122	-8191	255	
2336.543	1	1	0	0	0.30951	0.44064	0.19167	0.1971	0.05822	0.19783	0.18068	0.069604	0.039655	0.2208	0.1827	0.40357	0.13895	0.092998	0.1764	0.25842	-2.2854	-2.9854	-2.5229	-2.9375	-2.8958	-2.7375	-3.025	-2.8	-2.6792	-3.0896	-2.7604	-2.725	-2.9167	-2.9	-2.9958	-3.1021	189.118	402.318	168.676	111.505	360.951	197.325	383.117	131.503	388.996	259.387	427.831	421.077	367.079	421.026	293.135	387.484	0.00076819	0.00052129	0.00027911	373.73	2.2929e-06	5.9806e-06	546.18	147.81	7.3772e-06	5.659e-06	266	133.36	75.028	39.485	1.291e-05	73.918	0.0092289	0.010841	0.0029126	528.72	0.00011885	0.00011624	690.14	192.04	0.0001173	0.00011632	344.79	159.48	97.967	48.296	0.00011282	87.007	153.431	119.767	263.687	88.994	412.550	349.225	88.841	93.719	220.381	359.790	92.463	95.650	96.868	100.741	189.447	98.916	-8191	255	
2336.664	1	1	0	0	0.10706	0.11123	0.16515	0.11765	0.11667	0.17597	0.27356	0.10348	0.31405	0.093827	0.054134	0.18661	0.079692	0.39712	0.12279	0.21789	-2.3125	-2.9146	-2.5333	-2.9021	-3.0708	-2.6333	-2.9875	-2.8958	-2.8979	-2.9417	-2.7625	-2.9021	-3.1333	-2.7062	-2.9562	-2.9667	321.670	340.019	192.633	229.799	427.738	325.209	116.190	312.082	321.151	403.097	334.699	98.432	251.257	426.087	110.434	326.279	0.00078684	0.0012868	0.00018081	377.16	5.6626e-06	1.1968e-05	548.89	148.08	3.6366e-06	4.975e-06	264.9	131.83	74.127	39.395	6.9599e-06	73.681	0.0092279	0.010603	0.0029725	534.55	0.00011978	0.00011509	698.04	193.32	0.00011814	0.00011628	346.36	159.25	97.306	48.107	0.00011698	87.253	158.448	228.953	173.906	89.057	214.335	337.829	88.973	93.883	233.477	388.099	92.858	95.764	96.798	100.973	263.328	98.961	-8191	255	
2336.760	1	1	0	0	0.032903	0.17623	0.2395	0.14188	0.11983	0.16873	0.3346	0.1391	0.15405	0.23213	0.028441	0.20603	0.21242	0.021977	0.24044	0.096896	-2.275	-2.8312	-2.7229	-2.8917	-3.0229	-2.5479	-2.8958	-2.8083	-2.7604	-2.95	-2.8917	-3.0167	-3.2167	-2.7625	-2.9188	-3.1125	137.365	318.126	141.850	302.717	162.624	286.470	361.512	326.040	160.518	126.429	241.692	195.975	110.880	136.576	299.703	161.082	0.00082936	0.00050073	0.00032336	379.33	8.1328e-06	1.2456e-05	549.88	147.22	4.8587e-06	5.1987e-06	263.76	130.85	73.97	39.15	1.1131e-05	72.955	0.0091943	0.010665	0.0030663	540.52	0.00011864	0.00011552	702.05	193.47	0.00011645	0.00011662	346.1	158.3	96.546	47.96	0.00011812	86.743	143.829	126.078	224.816	89.061	397.793	212.558	88.686	93.638	234.946	139.986	92.564	95.711	96.902	100.617	241.378	98.802	-8191	255	
2336.856	1	1	0	0	0.18721	0.12775	0.19725	0.30379	0.23296	0.24175	0.16072	0.21525	0.13426	0.24774	0.28311	0.22262	0.21874	0.2067	0.12163	0.14785	-2.5354	-2.9583	-2.8458	-2.8792	-2.9792	-2.6792	-3.0771	-3.0375	-2.6458	-3.0479	-2.9938	-2.7917	-3.1375	-2.8542	-2.9	-3.0375	351.635	272.474	97.485	355.939	251.751	375.034	139.452	340.776	394.332	85.576	406.396	395.375	90.412	129.219	282.506	380.521	0.00067585	0.0010308	0.00019952	376.66	1.2296e-05	4.5877e-06	548.84	146.89	1.0077e-05	6.9168e-06	262.38	129.98	73.55	39.148	9.6009e-06	72.83	0.0089814	0.010679	0.0031049	539.38	0.00011591	0.00011658	701.82	193.04	0.00011334	0.00011785	346.48	157.41	95.902	47.969	0.00012093	86.51	150.361	432.879	242.035	88.886	168.200	208.845	88.821	93.639	116.632	78.850	92.210	95.835	97.044	100.976	283.811	98.984	-8191	255	
2336.952	1	1	0	0	0.15573	0.18824	0.062313	0.10552	0.21291	0.27948	0.20555	0.24231	0.11774	0.04013	0.20697	0.020425	0.13379	0.12914	0.062551	0.2755	-2.2083	-2.9979	-2.8583	-2.8958	-2.95	-2.8812	-2.9667	-2.9979	-2.6729	-2.875	-3.0958	-2.9271	-3.2146	-2.8458	-2.8604	-3.0667	422.487	235.548	80.540	397.939	240.227	135.404	368.273	406.725	89.679	370.592	378.913	393.123	152.612	144.719	221.593	345.985	0.00085092	0.00062806	0.00051833	380.6	4.3604e-06	1.6079e-05	549.37	146.84	5.3099e-06	8.3835e-06	263	130.26	73.877	39.139	1.5872e-05	73.313	0.0088829	0.010909	0.0031945	541.13	0.00011455	0.00011865	706.41	192.93	0.00011182	0.00011994	348.9	157.76	95.857	48.167	0.00012102	86.604	150.292	187.982	145.310	88.765	101.708	162.192	88.784	93.605	247.118	192.499	92.372	95.701	97.141	100.665	213.292	99.012	-8191	255	
2337.049	1	1	0	0	0.17086	0.15567	0.1195	0.19202	0.17772	0.13364	0.038152	0.093346	0.24979	0.23682	0.33888	0.03969	0.19063	0.34866	0.085656	0.016233	-2.2167	-3.1813	-2.7458	-2.7854	-3.15	-2.8521	-2.8833	-3.0187	-2.6833	-3.025	-3.1542	-2.7604	-3.2042	-2.9208	-2.8083	-3.1688	313.715	296.324	390.777	116.624	364.944	367.017	360.434	284.103	121.829	388.327	366.406	230.357	332.252	367.890	225.302	206.005	0.00069894	0.0017223	0.00017317	377.6	1.6578e-06	1.6737e-05	545.31	146.64	1.1788e-05	7.968e-06	265.07	130.8	73.943	39.324	7.8789e-06	73.294	0.0087549	0.011063	0.003225	534.75	0.00011457	0.00012091	704.48	191.95	0.00011241	0.00012117	350.09	157.64	96.133	48.444	0.00012145	86.657	154.076	177.338	99.785	89.160	257.722	212.191	88.805	93.913	204.661	221.245	92.465	95.663	96.712	100.728	247.782	99.072	-8191	255	
2337.145	1	1	0	0	0.058587	0.057311	0.061377	0.26682	0.28384	0.23526	0.17661	0.19756	0.17159	0.21923	0.12183	0.12701	0.15521	0.17603	0.051536	0.1872	-2.1708	-2.9354	-2.9479	-2.6125	-3.1063	-2.8833	-2.8771	-3.1312	-2.8312	-2.8979	-3.0771	-2.7188	-3.1875	-3.1292	-2.8563	-3.1979	90.167	314.897	287.122	397.050	123.974	82.746	85.567	408.686	133.137	124.717	112.904	351.109	219.439	396.908	77.291	425.008	0.00080219	0.00055031	0.00038489	375.05	1.8814e-06	1.9106e-05	546.45	147.7	8.6376e-06	2.865e-06	267.01	131.62	74.934	39.509	1.0623e-05	73.404	0.0088126	0.011092	0.0032092	527.82	0.00011458	0.00012212	704.94	191.26	0.00011305	0.00012223	350.89	157.81	96.809	48.766	0.00012103	86.535	156.211	86.218	226.197	89.160	160.849	302.085	88.784	93.891	219.562	422.026	92.401	95.635	96.839	100.768	387.468	98.978	-8191	255	
2337.264	1	1	0	0	0.2969	0.1194	0.19932	0.033961	0.24726	0.087984	0.087743	0.21368	0.18972	0.24794	0.10698	0.18719	0.35292	0.15672	0.19209	0.20519	-2.3458	-3.0354	-2.9396	-2.8	-3.0583	-2.8792	-2.9313	-3.1937	-2.6542	-2.8563	-3.0875	-2.6021	-3.0771	-3.1917	-2.7208	-3	341.617	248.781	423.418	204.502	326.454	109.294	416.984	392.630	411.789	119.985	127.496	376.755	405.599	433.299	207.578	335.865	0.00089966	0.0004384	0.00023181	375.31	7.0863e-06	1.1353e-05	545.82	147.12	9.1205e-06	1.8647e-06	263.44	131.2	74.524	39.576	4.4577e-06	73.13	0.0090391	0.011365	0.0032016	528.35	0.00011801	0.00012533	701.4	191.74	0.00011681	0.00012485	349.53	157.43	97.23	48.878	0.0001181	86.14	151.420	123.458	164.323	89.467	181.465	177.646	88.445	93.977	227.362	247.032	92.416	95.557	96.960	100.627	370.052	99.021	-8191	255	
2337.360	1	1	0	0	0.26746	0.25542	0.18435	0.12728	0.24243	0.25392	0.14237	0.075711	0.28672	0.20768	0.27394	0.27863	0.30259	0.1371	0.14509	0.27337	-2.2875	-2.7375	-2.9271	-2.8958	-2.85	-3.0938	-2.7729	-3.1458	-2.7354	-2.8979	-3.1063	-2.9938	-2.9604	-2.9604	-2.8104	-3.1208	207.631	319.785	390.288	294.934	332.770	373.731	162.314	205.211	241.934	256.447	346.840	412.668	373.757	380.437	93.094	345.473	0.00081652	0.00062051	0.00030591	375.33	7.9074e-06	1.0528e-05	547.47	147.76	2.9636e-06	6.9872e-06	265.83	132.14	75.207	39.503	1.3471e-05	73.442	0.0091424	0.011379	0.0031264	528.28	0.00011859	0.0001257	698.24	192.33	0.00011806	0.00012531	348.2	158.25	98.059	48.997	0.00011572	86.732	141.693	132.326	422.249	88.889	241.075	122.288	88.730	94.058	187.152	121.182	92.387	95.578	97.055	100.931	297.097	98.787	-8191	255	
2337.456	1	1	0	0	0.30235	0.03204	0.22105	0.14384	0.22949	0.12494	0.10485	0.13571	0.19248	0.19845	0.075562	0.26106	0.18101	0.13047	0.27703	0.29342	-2.4083	-2.8458	-3.0312	-2.7438	-2.925	-3.0812	-2.7687	-3.05	-2.8979	-2.7271	-2.9479	-2.9813	-2.9708	-3.0521	-2.9521	-2.9854	178.327	433.331	297.692	178.775	104.267	77.684	266.267	325.662	404.099	280.161	328.884	104.697	387.728	248.233	324.319	422.532	0.00086601	0.00090948	0.00037518	383.06	3.056e-06	6.8966e-06	554.71	148.78	5.7861e-06	4.1394e-06	267.99	131.84	74.566	39.731	4.0408e-06	73.732	0.0093733	0.011495	0.0030947	537.26	0.0001222	0.00012744	701.84	194.67	0.00012136	0.00012513	349.35	158.88	98.527	49.064	0.00011598	87.193	144.623	241.275	237.745	89.256	320.742	112.205	88.590	93.807	224.860	177.543	92.531	95.672	96.717	100.814	132.001	99.088	-8191	255	
2337.552	1	1	0	0	0.27395	0.15858	0.15351	0.032033	0.17102	0.16377	0.29668	0.083068	0.077945	0.1758	0.30542	0.34233	0.065169	0.12926	0.12072	0.069123	-2.4958	-2.7313	-3.0042	-2.6646	-2.8583	-2.9688	-2.7292	-3.1	-3.0229	-2.6188	-3.0354	-3.025	-2.7646	-3.0354	-2.6583	-3.1042	413.425	355.729	429.826	344.474	199.338	246.763	355.959	410.125	344.488	343.688	293.104	375.122	166.239	100.040	84.284	366.520	0.00089561	0.0013135	0.00021335	383.69	1.3884e-05	9.9361e-06	555.51	150.52	1.8895e-06	6.9018e-06	267.04	132.18	75.028	39.751	3.9534e-06	73.696	0.009662	0.01146	0.0030983	544.27	0.00012445	0.00012661	708.13	196.72	0.0001246	0.00012337	351.03	159.9	98.973	48.96	0.00011636	87.495	148.169	337.754	162.382	89.318	246.150	142.342	88.779	93.950	407.963	163.245	92.604	95.712	97.017	100.884	109.963	99.182	-8191	255	
2337.648	1	1	0	0	0.20093	0.14527	0.1535	0.24506	0.21338	0.10691	0.1472	0.15362	0.11129	0.096399	0.092369	0.14008	0.23938	0.24788	0.23248	0.22108	-2.6708	-2.7708	-3.0875	-2.9479	-2.7146	-3.1479	-2.8667	-2.9625	-3.0125	-2.9146	-3.2771	-2.8708	-2.5771	-3.2333	-2.7	-3.0854	385.436	125.685	313.579	313.636	211.978	374.752	363.975	402.856	127.463	157.405	430.632	360.831	349.345	218.175	326.274	317.122	0.00070509	0.00080329	0.00019072	384.8	4.1595e-06	9.5724e-06	557.52	149.36	6.6812e-06	1.3978e-05	266.82	131.75	74.816	39.696	2.0139e-05	72.872	0.0097172	0.011139	0.0031107	546.89	0.00012491	0.00012273	708.55	196.46	0.00012494	0.00012042	349.79	159.49	98.567	48.662	0.00011793	87.02	143.044	220.089	297.312	89.079	335.509	79.717	89.058	93.983	143.062	159.303	92.571	95.969	96.909	100.889	155.027	99.205	-8191	255	
2337.744	1	1	0	0	0.19582	0.27944	0.073826	0.14057	0.043858	0.17249	0.14909	0.093789	0.022069	0.14436	0.08557	0.16283	0.025505	0.19582	0.066787	0.12458	-2.6271	-2.7417	-2.8875	-2.9833	-2.6104	-3.1375	-2.9271	-2.8958	-2.8812	-2.7521	-3.0375	-2.9417	-2.7583	-3.1542	-2.9625	-3.1042	401.174	310.363	115.231	353.820	426.080	238.285	217.397	164.924	363.656	171.757	301.424	380.709	417.062	188.502	321.788	288.897	0.00074301	0.00087269	7.0958e-05	384.45	9.6287e-06	1.3637e-05	557.61	150.45	6.0668e-06	3.602e-06	268.16	130.8	74.815	39.556	1.7333e-05	73.106	0.0097068	0.010922	0.0031732	550.63	0.00012415	0.00012188	711.7	197.96	0.00012372	0.00012008	352.78	159.48	98.474	48.745	0.00012156	87.324	150.999	117.538	135.680	89.307	371.337	95.230	88.660	93.491	164.552	111.778	92.612	95.419	96.865	100.994	172.497	99.013	-8191	255	
2337.841	1	1	0	0	0.045376	0.14945	0.19324	0.11117	0.1116	0.096111	0.057705	0.18592	0.22325	0.14078	0.063553	0.10362	0.36269	0.15955	0.15324	0.080888	-2.6271	-2.6625	-2.8979	-3.0104	-2.6667	-2.9854	-2.9375	-2.8979	-3.0917	-2.775	-2.9229	-3.0125	-2.75	-2.8812	-2.9104	-2.9792	373.120	336.256	257.546	87.639	245.999	368.390	158.346	347.188	156.832	315.519	332.019	88.295	412.096	81.931	150.132	79.296	0.00067601	0.00080572	0.00018377	384.25	1.4752e-05	1.5542e-05	558.93	150.68	7.0916e-06	7.5384e-06	267.72	131.58	74.815	39.73	1.3644e-05	73.556	0.009593	0.01098	0.0032314	553.37	0.00012131	0.00012182	714.1	198.29	0.00012095	0.00012001	354.5	160.35	97.817	48.85	0.00012259	87.58	151.855	238.560	120.474	89.296	377.690	255.227	88.921	93.665	205.903	366.032	92.358	95.732	97.094	100.951	183.616	98.917	-8191	255	
2337.937	1	1	0	0	0.056298	0.069094	0.08991	0.26911	0.21713	0.25557	0.15304	0.070655	0.13413	0.17125	0.09448	0.087953	0.2847	0.18304	0.27047	0.14579	-2.5396	-2.7146	-2.9917	-3.0396	-2.8354	-3.0708	-2.9417	-2.7667	-3.1521	-2.8208	-2.9062	-3.1021	-2.8479	-3.2	-3	-2.9729	251.981	409.141	291.340	276.491	397.330	350.717	93.001	216.295	330.235	269.033	380.925	370.269	350.478	112.391	300.104	342.798	0.00073629	0.0006818	0.00041679	384.46	1.841e-06	1.0594e-05	554.49	150.19	1.3108e-05	1.1608e-05	268.16	133.01	75.707	39.923	6.8333e-06	73.968	0.0092586	0.010956	0.0032443	549.92	0.00011739	0.00012251	713.55	197.78	0.00011751	0.00012088	356.17	161.24	97.935	49.079	0.00012478	87.908	154.185	181.655	93.512	89.081	221.057	237.586	88.555	93.658	293.356	215.845	92.465	95.855	96.889	100.985	412.216	99.055	-8191	255	
2338.056	1	1	0	0	0.039619	0.25135	0.18331	0.081147	0.061001	0.029118	0.11194	0.096936	0.08733	0.13457	0.12812	0.27598	0.090006	0.2635	0.017217	0.28486	-2.5229	-2.6667	-2.7521	-3.0333	-2.6958	-2.8667	-3.0479	-2.7375	-3.0125	-2.8771	-2.85	-3.1437	-2.7167	-3.1396	-3.0854	-2.8396	228.293	295.635	191.908	296.325	209.690	431.548	216.236	377.440	222.861	341.573	141.573	384.048	427.570	401.610	341.899	343.676	0.00069481	0.00030432	9.2674e-05	385.1	6.0697e-06	1.4046e-05	553.8	150.16	2.425e-06	8.8516e-06	268.63	132.32	75.501	39.926	1.0429e-05	73.635	0.0091904	0.011243	0.0033187	550.5	0.00011684	0.000125	718.53	197.76	0.00011758	0.00012477	357.68	160.68	97.885	49.215	0.00012747	87.212	149.122	209.788	96.998	89.172	313.636	213.195	88.737	94.010	267.053	136.892	92.600	95.620	96.800	100.967	241.892	98.911	-8191	255	
2338.152	1	1	0	0	0.21227	0.2587	0.044391	0.035473	0.083183	0.23408	0.079082	0.18112	0.31236	0.18298	0.26212	0.14606	0.44321	0.13026	0.19673	0.12315	-2.6312	-2.775	-2.8292	-3.1021	-2.575	-2.9604	-3.0833	-2.6958	-3.0417	-2.8771	-2.7875	-3.3125	-2.725	-3.0333	-2.8479	-2.8583	84.752	189.278	346.099	177.429	426.559	155.944	188.762	400.938	143.846	304.091	334.742	426.104	106.727	401.714	251.578	120.811	0.00085048	0.00075227	9.6707e-05	381.6	5.6736e-06	1.4649e-05	552.73	150.03	1.3662e-05	3.253e-06	268.24	131.86	75.141	39.738	8.9548e-06	73.369	0.0092676	0.011499	0.00336	545.52	0.00011835	0.00012701	717.68	196.62	0.00011863	0.00012715	356.44	159.35	97.935	49.288	0.00012734	86.673	142.737	75.790	284.341	89.190	262.738	149.864	88.988	93.656	164.026	131.628	92.104	95.652	96.715	100.753	82.653	98.975	-8191	255	
2338.225	1	1	0	0	0.3305	0.22375	0.081367	0.053485	0.16586	0.12629	0.25199	0.072967	0.060542	0.13596	0.17286	0.064354	0.11375	0.064038	0.17123	0.31815	-2.5458	-2.8542	-2.8187	-3.075	-2.7458	-2.8604	-3.0292	-2.7792	-2.8958	-2.8458	-2.8583	-3.1729	-2.8021	-2.9313	-3.0167	-2.7771	315.073	137.423	338.877	255.084	395.502	296.555	109.860	359.111	298.404	114.251	251.095	85.951	162.039	311.938	365.562	356.334	0.00089302	8.3587e-05	0.00011021	381.15	6.2239e-06	1.6253e-05	556.26	149.9	8.1272e-06	1.3352e-05	267.18	132.1	75.322	39.643	7.1504e-06	73.356	0.0093755	0.011667	0.0033321	541.88	0.00011948	0.00012919	717	195.5	0.00012105	0.00012951	355.82	159.43	98.588	49.329	0.00012652	86.826	146.536	350.348	80.612	89.025	295.568	211.934	88.804	93.812	167.427	207.519	92.450	95.518	97.025	100.850	249.714	98.987	-8191	255	
2338.344	1	1	0	0	0.13109	0.21675	0.23819	0.27877	0.12347	0.23346	0.21099	0.16219	0.055537	0.21372	0.052434	0.051781	0.34412	0.16559	0.02632	0.37529	-2.4958	-2.9604	-2.5563	-2.9229	-2.7875	-2.7375	-2.9708	-2.8667	-3.1333	-2.9688	-2.9437	-3.0854	-3.0167	-2.9125	-2.9896	-2.9646	281.746	286.754	149.228	93.909	187.190	272.707	375.689	262.990	308.798	111.175	407.626	364.925	412.667	212.012	400.213	432.252	0.00080085	0.00085002	0.00014768	378.87	7.7294e-06	5.3077e-06	556.19	150.19	8.4024e-06	1.6987e-05	268.86	132.08	75.443	39.967	3.8224e-06	73.949	0.0095263	0.011863	0.0032612	541.19	0.00012083	0.00012922	715.02	195.07	0.00012132	0.00012939	353.74	159.35	98.647	49.541	0.00012219	87.141	142.262	234.746	200.728	89.246	143.555	198.119	88.624	93.979	242.698	249.401	92.408	95.808	96.839	100.866	105.211	99.095	-8191	255	
2338.440	1	1	0	0	0.24408	0.15642	0.26473	0.065638	0.30898	0.17235	0.047426	0.11005	0.0727	0.090601	0.34362	0.11106	0.13688	0.26808	0.28636	0.20835	-2.5458	-2.9125	-2.5417	-3.0938	-2.9792	-2.775	-3.1917	-2.8396	-2.925	-2.9896	-2.8312	-3.1146	-2.8125	-2.7917	-3.0792	-2.8937	430.319	402.178	255.987	198.459	354.622	283.234	422.714	184.194	151.681	394.420	433.670	359.501	417.143	388.045	397.690	93.028	0.00078356	6.6504e-05	0.00026639	383.56	2.2148e-06	1.4473e-05	558.53	150.94	8.7573e-06	1.2528e-05	266.55	132.65	75.404	39.831	1.1109e-05	73.78	0.0095841	0.011887	0.0031638	543.61	0.00012297	0.0001288	713.37	196.05	0.00012322	0.00012983	351.97	159.93	99.206	49.447	0.00012057	87.192	163.197	161.754	306.698	89.125	260.616	204.059	88.634	94.005	222.899	227.780	92.132	95.960	97.125	100.894	244.556	99.028	-8191	255	
2338.536	1	1	0	0	0.11497	0.11172	0.072473	0.15958	0.15336	0.022851	0.18534	0.1399	0.18642	0.23982	0.050749	0.152	0.1235	0.22262	0.0026359	0.40072	-2.5438	-3.0125	-2.5563	-3.1125	-2.7938	-2.7188	-3.1229	-2.8604	-2.8563	-3.0333	-2.8604	-2.9917	-3.025	-2.7979	-3.325	-2.7958	419.921	323.293	249.120	126.657	154.226	273.848	213.538	399.286	100.587	227.324	217.761	418.031	236.106	400.752	420.475	381.848	0.0007062	0.00050008	0.00010864	386.88	1.8116e-05	8.9086e-06	557.34	150.31	1.1507e-05	8.5317e-06	267.51	131.63	75.139	39.537	2.3333e-06	73.141	0.009777	0.011882	0.0031292	549.42	0.00012616	0.00012889	712.45	197.1	0.00012571	0.00012928	350.71	159.36	99.236	49.176	0.00012026	86.979	152.649	185.048	118.818	89.208	238.686	273.559	88.847	93.947	229.601	405.899	92.564	95.755	96.883	100.943	188.276	99.121	-8191	255	
2338.632	1	1	0	0	0.29619	0.25109	0.17369	0.10103	0.19779	0.062524	0.075409	0.053884	0.083431	0.13895	0.2006	0.17701	0.11394	0.33949	0.041785	0.32186	-2.2979	-3.2	-2.6771	-2.9083	-2.8583	-2.7625	-3.0312	-2.7875	-2.8083	-2.9688	-2.8771	-3.0958	-3.0896	-2.8312	-2.9125	-2.95	423.689	308.502	415.077	365.160	318.190	308.403	336.688	110.562	344.821	182.517	241.345	369.031	375.007	323.662	215.643	314.339	0.00079352	0.00021663	0.00020132	384.82	1.2082e-05	9.5316e-06	561.29	151.06	1.1736e-05	7.2903e-06	268.91	130.81	74.908	39.683	3.9352e-06	73.189	0.0098514	0.011667	0.0031326	551.81	0.00012718	0.00012536	713.5	197.62	0.00012603	0.00012528	350.88	159.19	99.131	48.87	0.00012017	87.078	153.801	365.370	135.801	89.253	110.862	164.273	89.005	94.074	241.220	336.474	92.395	95.789	97.060	101.001	118.875	99.070	-8191	255	
2338.753	1	1	0	0	0.20235	0.1259	0.068503	0.21731	0.1454	0.21949	0.1978	0.09543	0.091439	0.27221	0.10691	0.054369	0.3344	0.23504	0.09768	0.31594	-2.3	-2.9313	-2.7229	-2.8937	-2.9083	-2.7708	-3.0854	-2.9542	-2.6125	-3.1271	-2.9104	-2.9354	-3.0521	-2.6458	-3.0583	-2.9625	297.364	90.439	105.335	89.400	209.610	238.530	350.421	129.298	122.609	356.094	83.603	324.155	78.634	429.117	228.497	380.639	0.00070017	0.00092282	0.00048271	384.82	4.5818e-06	5.8752e-06	556.56	149.96	3.7621e-06	1.2837e-06	268.58	131.51	74.417	39.673	1.0389e-05	73.254	0.0097575	0.011274	0.00312	548.99	0.0001254	0.00012059	710.44	197.26	0.00012324	0.00012065	351.06	159.78	98.655	48.656	0.00012039	87.334	152.079	316.734	167.815	89.653	315.407	147.496	88.864	93.822	223.501	378.119	92.538	95.860	97.041	101.128	217.282	98.938	-8191	255	
2338.849	1	1	0	0	0.11438	0.032807	0.064382	0.022007	0.03303	0.21817	0.23269	0.18986	0.14504	0.12545	0.22065	0.30143	0.077827	0.058496	0.15195	0.23525	-2.3375	-2.8708	-2.65	-2.6896	-2.9062	-2.7771	-3.1312	-2.9396	-2.6437	-3.2042	-2.9979	-3.0583	-3.075	-2.8	-3.1896	-2.975	283.859	254.312	158.575	126.698	257.497	304.099	340.759	95.525	283.112	134.143	371.764	293.863	411.358	412.163	172.439	386.675	0.00063813	0.0012659	0.00037219	385.14	4.4173e-06	8.8821e-06	557.37	150.14	1.0607e-05	1.9691e-05	267	132.7	75.063	39.706	5.9929e-06	73.706	0.0094817	0.01102	0.0031476	549.02	0.00012273	0.00011869	710.83	197.69	0.00012011	0.00011982	352.61	160.35	98.347	48.594	0.00012144	87.717	156.324	384.912	428.190	89.237	220.732	299.867	89.058	93.846	78.649	190.028	92.679	95.852	96.955	100.891	165.870	99.005	-8191	255	
2338.945	1	1	0	0	0.080951	0.1748	0.36836	0.16991	0.27267	0.16249	0.19172	0.25377	0.12534	0.071466	0.11595	0.11194	0.023992	0.065864	0.092983	0.086815	-2.1167	-2.9938	-2.9271	-2.8354	-3.1354	-2.9021	-3.0583	-2.9604	-2.6396	-3.0146	-2.8812	-2.7917	-3.0792	-2.7771	-2.9021	-3.2458	97.720	232.583	305.279	299.632	172.486	405.786	388.187	379.280	130.313	107.218	277.931	354.268	207.358	330.310	170.449	429.186	0.00079204	0.001284	0.00043277	380.85	1.6559e-06	7.7259e-06	552.36	149.13	5.104e-06	3.3265e-06	267.7	131.43	74.743	39.783	1.1585e-05	73.239	0.0092507	0.010931	0.0031719	546.54	0.0001185	0.00011839	708.65	196.56	0.00011548	0.00011913	351.59	159.59	97.406	48.63	0.00012262	87.243	157.483	231.215	131.660	89.565	419.438	266.112	88.676	93.632	395.955	400.990	92.278	95.771	96.739	100.732	161.521	98.983	-8191	255	
2339.042	1	1	0	0	0.26056	0.16661	0.15052	0.11322	0.15009	0.029071	0.15695	0.16113	0.044494	0.046022	0.26324	0.32578	0.043572	0.078918	0.10817	0.37112	-2.3667	-2.9562	-2.8875	-2.8375	-2.9938	-2.8354	-2.9396	-3.0563	-2.9125	-3.0854	-3.0521	-2.7687	-3.0687	-3.0458	-2.9708	-3.2979	313.883	430.246	209.406	432.124	249.687	81.549	417.540	297.643	226.772	240.358	264.628	366.653	427.146	350.126	310.557	368.708	0.00070429	0.00038797	0.00025397	380.4	1.4078e-05	1.0288e-05	551	148.97	2.6629e-06	9.2454e-06	268.35	130.94	74.515	39.817	1.4672e-05	73.14	0.0090207	0.011067	0.0032304	544.42	0.00011656	0.00012035	710.6	196.64	0.00011375	0.000122	353.93	159.18	97.242	48.842	0.00012351	86.974	144.172	423.846	172.313	89.081	275.665	283.872	88.760	93.953	385.524	219.478	92.221	95.741	96.928	100.947	229.090	99.001	-8191	255	
2339.138	1	1	0	0	0.21703	0.071134	0.23778	0.20967	0.09618	0.043982	0.10539	0.052707	0.18739	0.17334	0.43155	0.060758	0.13743	0.34121	0.074686	0.091572	-2.3438	-3.0604	-3.0104	-2.6333	-3.1063	-2.7083	-3.0208	-3.3167	-2.6979	-2.9708	-2.9479	-2.7146	-3.0312	-2.8833	-2.7208	-3.1813	195.784	325.507	106.377	435.891	177.987	243.706	138.780	296.483	175.743	300.701	413.806	386.016	405.624	415.140	204.482	357.060	0.00061015	0.0011313	0.00028026	382.32	7.9453e-06	1.9685e-05	555.13	149.48	5.2937e-06	8.2458e-06	267.45	131.26	75.256	39.716	1.1619e-05	73.358	0.0089481	0.011191	0.0032635	543.94	0.00011623	0.00012311	715.41	195.92	0.00011373	0.00012356	354.74	158.32	97.552	49.059	0.00012417	86.886	145.137	98.442	167.203	89.271	170.052	359.780	88.719	94.075	283.529	152.293	92.454	95.619	96.877	101.024	236.020	99.037	-8191	255	
2339.234	1	1	0	0	0.055388	0.14287	0.26234	0.07136	0.075796	0.14304	0.18562	0.13032	0.3294	0.14061	0.048038	0.2754	0.068669	0.08426	0.15716	0.26913	-2.3729	-2.825	-3.0042	-2.8708	-3.1646	-2.8771	-2.8521	-3.1312	-2.75	-2.9646	-3.1208	-2.8167	-3.1125	-2.9104	-2.825	-3.2	257.780	321.259	427.806	190.689	297.185	159.347	430.318	264.106	269.470	115.177	76.565	84.603	392.548	99.936	379.388	383.305	0.00080288	0.00080088	0.00011314	385.41	5.9653e-06	1.1207e-05	558.93	149.91	9.1096e-06	1.1211e-05	266.89	132.09	75.224	39.612	9.8618e-06	73.302	0.0090017	0.011358	0.0032954	541.55	0.00011697	0.0001243	716.57	195.32	0.00011444	0.00012358	354.32	157.88	97.381	49.038	0.00012154	86.67	148.223	171.506	228.594	89.152	295.742	265.340	88.598	93.864	238.860	247.309	92.710	95.542	96.748	100.900	227.980	98.971	-8191	255	
2339.353	1	1	0	0	0.27605	0.19216	0.21159	0.083923	0.20886	0.15081	0.11393	0.035528	0.18321	0.14713	0.32247	0.15662	0.17026	0.13407	0.16653	0.18476	-2.2271	-2.9521	-2.9083	-2.7458	-3.0021	-3.0042	-2.7771	-3.1312	-2.8271	-2.8354	-2.9979	-2.85	-3.2229	-3.0583	-2.6917	-3.3479	294.153	271.424	130.564	247.969	281.624	331.956	224.931	371.163	281.439	230.737	423.452	149.674	119.749	409.213	162.012	363.816	0.00092029	0.00073528	0.00020003	383.96	8.8206e-06	2.2154e-06	557.95	150.44	2.8524e-06	8.6115e-06	267.14	131.49	74.887	39.758	9.2363e-06	73.039	0.0089681	0.011298	0.0031957	536.3	0.00011625	0.0001243	711.73	194.16	0.00011491	0.00012434	352.17	157.22	97.215	49.001	0.00011801	86.184	134.084	187.277	359.408	89.099	293.488	174.967	89.045	93.807	157.150	250.450	92.509	95.551	97.308	100.994	281.275	99.060	-8191	255	
2339.449	1	1	0	0	0.070595	0.10847	0.13637	0.27579	0.17609	0.209	0.18289	0.13247	0.30389	0.036524	0.24209	0.29771	0.17912	0.049149	0.10395	0.42742	-2.4104	-2.8708	-2.9292	-2.8063	-2.9667	-3.0458	-2.8312	-3.0229	-2.8875	-2.8833	-3.1542	-2.9938	-3.0521	-3.2479	-2.725	-3.1437	206.769	194.343	99.225	425.494	403.836	415.229	408.727	431.294	418.480	270.844	257.247	364.788	334.972	422.388	97.771	413.576	0.00083416	0.0001504	0.00015787	384.08	4.2823e-06	3.013e-06	557.56	150.23	9.2781e-06	1.1543e-05	266.19	130.03	74.437	39.545	1.0284e-05	72.933	0.0090768	0.011327	0.0031241	536.2	0.0001178	0.00012581	707.39	194.1	0.00011745	0.00012457	348.08	155.93	97.221	49.002	0.00011509	86.003	138.740	82.615	252.160	89.323	183.081	186.694	88.751	94.029	295.572	233.285	92.389	95.598	97.348	100.979	418.782	99.081	-8191	255	
2339.521	1	1	0	0	0.3007	0.15492	0.31103	0.11543	0.13841	0.11164	0.14649	0.18749	0.060722	0.19244	0.049031	0.093353	0.16912	0.12551	0.1387	0.044293	-2.5542	-2.8063	-3.0646	-2.9833	-3.1229	-2.9813	-2.675	-2.95	-2.8208	-2.8021	-3.1875	-2.8125	-2.8229	-3.1292	-2.7958	-3.1854	194.598	236.953	387.785	293.574	373.656	143.479	309.182	384.876	86.638	268.016	391.990	311.766	104.884	110.857	243.035	273.568	0.00079726	0.00054463	6.3818e-06	385.12	1.2487e-05	7.2867e-06	555.44	149.35	1.7259e-05	6.6581e-06	265.87	130.54	75.103	39.818	9.7396e-07	73.258	0.0092502	0.011344	0.0030524	538.49	0.00011898	0.00012487	702.73	194.05	0.00011799	0.00012248	346.78	156.64	97.664	48.898	0.00011214	86.247	138.501	254.055	80.112	89.449	192.660	172.337	88.667	93.797	189.911	91.821	92.412	95.683	97.213	100.956	375.998	99.176	-8191	255	
2339.617	1	1	0	0	0.12634	0.27928	0.22306	0.036689	0.21512	0.21012	0.20071	0.3019	0.1427	0.068415	0.085226	0.059878	0.09742	0.14554	0.099553	0.38087	-2.5292	-2.6396	-2.9562	-2.8792	-3.0417	-3.1979	-2.7396	-3.0687	-2.9104	-2.7438	-2.8708	-3.0229	-2.8521	-3.2479	-2.7771	-3.2542	303.373	159.534	326.174	432.518	149.726	267.624	281.090	95.760	184.469	122.894	320.349	181.641	119.850	154.699	325.858	372.229	0.0010335	0.0010211	0.00019624	386.49	7.3335e-06	5.7193e-06	555.57	150.43	6.5266e-06	5.1031e-06	266.49	131.04	74.705	39.651	1.0118e-05	73.691	0.0092779	0.011073	0.0029874	539.13	0.00011886	0.00012108	698.91	194.77	0.00011905	0.00011893	346.36	157.61	97.78	48.755	0.0001123	86.807	145.184	219.152	90.935	89.219	115.653	388.704	89.047	93.762	211.182	217.594	92.616	95.855	97.159	100.680	194.664	98.960	-8191	255	
2339.737	1	1	0	0	0.093862	0.11673	0.20321	0.033705	0.067572	0.13153	0.093458	0.044342	0.17899	0.17272	0.308	0.012197	0.24273	0.15255	0.15723	0.24222	-2.4062	-2.7646	-2.9375	-2.9354	-2.8833	-3.1354	-3.0604	-2.9604	-2.9188	-2.7167	-3.025	-2.8604	-2.8042	-3.0979	-2.7271	-2.8854	306.128	360.645	137.290	180.141	382.102	280.294	136.953	347.911	382.386	226.705	124.019	395.957	432.063	168.025	87.536	361.945	0.00069648	0.0011348	0.00025236	385.47	6.7938e-06	5.9745e-06	555.04	150.68	6.2742e-06	7.2482e-06	268.45	131.61	74.964	39.766	1.8084e-05	73.216	0.0094398	0.010769	0.0029954	540.72	0.00011947	0.00011842	701.84	195.44	0.00011902	0.00011507	347.34	158.21	97.788	48.607	0.00011261	86.857	148.239	386.313	77.016	89.206	218.250	347.082	88.883	94.019	220.138	385.618	92.993	95.754	96.825	101.091	239.756	99.218	-8191	255	
2339.833	1	1	0	0	0.094256	0.097257	0.30118	0.1541	0.038621	0.20358	0.086183	0.30538	0.11588	0.21229	0.054239	0.2135	0.1777	0.2539	0.25465	0.29062	-2.6063	-2.7438	-3.0792	-2.8583	-2.7542	-2.9167	-2.9604	-2.8937	-3.1188	-2.675	-3.1875	-2.9208	-2.8063	-3.25	-3.0083	-2.9938	394.610	132.110	371.418	330.652	287.218	313.885	222.415	333.048	415.941	155.339	304.796	96.676	367.818	427.883	121.621	320.878	0.00082377	0.00060238	0.00038161	383.85	4.7777e-06	2.0166e-06	552.73	150.35	1.3022e-05	6.2898e-06	266.7	130.83	74.355	39.592	1.3446e-05	73.141	0.0092835	0.010465	0.0029958	540.24	0.00011781	0.00011539	699.91	195.29	0.00011716	0.00011319	346.69	157.56	97.074	48.314	0.00011391	86.381	158.651	176.507	167.106	89.144	80.645	78.618	88.981	93.815	277.542	348.421	92.287	95.980	97.001	100.891	181.491	98.980	-8191	255	
2339.930	1	1	0	0	0.030991	0.25944	0.14485	0.18867	0.055545	0.25111	0.18449	0.13379	0.19876	0.083579	0.045718	0.16237	0.12074	0.030954	0.17056	0.27295	-2.8688	-2.6063	-2.9104	-2.8833	-2.8521	-2.9854	-2.8438	-2.8417	-3.0938	-2.8396	-2.9375	-2.8812	-2.9833	-3.1771	-2.8104	-2.9562	95.891	375.741	263.892	405.576	264.248	320.135	126.238	336.268	86.840	301.342	107.539	408.112	383.718	409.427	143.879	413.593	0.00076344	0.00018607	0.00064567	380.44	9.1378e-06	1.7127e-06	550.43	149.07	6.1193e-06	8.5049e-06	265.05	130.24	74.098	39.588	9.9121e-06	72.819	0.0091192	0.010273	0.0030354	539.3	0.00011468	0.0001139	698.13	194.47	0.00011398	0.00011249	347.07	157.61	96.352	48.269	0.00011607	86.461	155.209	426.243	163.792	89.289	265.251	198.149	88.444	93.851	308.527	263.594	92.755	95.850	97.189	100.984	251.551	99.182	-8191	255	
2340.026	1	1	0	0	0.23255	0.13213	0.067524	0.21146	0.16149	0.1692	0.13491	0.072002	0.054948	0.046897	0.17801	0.3162	0.28629	0.19346	0.31386	0.12574	-2.6708	-2.6521	-3.025	-2.8021	-2.8583	-2.9313	-2.9938	-2.8167	-3.1458	-2.8271	-2.8833	-3.1104	-2.7042	-3.0208	-2.7667	-2.9562	86.286	88.367	167.032	150.619	225.906	258.785	384.556	299.184	374.599	312.274	413.767	421.040	133.658	102.457	145.982	191.340	0.00078546	0.0011704	0.00038869	382.76	4.4396e-06	9.0181e-06	551.32	150.27	3.2358e-06	1.9997e-05	265.89	130.34	74.177	39.606	6.3866e-06	73.114	0.0088582	0.010377	0.0030643	541.94	0.00011089	0.00011454	700.75	194.74	0.00011123	0.00011367	348.16	157.58	95.696	48.325	0.00011692	86.456	153.842	179.510	235.956	89.445	304.502	282.507	88.596	93.684	188.626	175.096	92.787	95.748	97.031	100.868	270.089	98.964	-8191	255	
2340.122	1	1	0	0	0.20501	0.18565	0.20773	0.20714	0.27295	0.2915	0.31388	0.2074	0.13669	0.084166	0.048072	0.17049	0.27484	0.13283	0.21712	0.34384	-2.7083	-2.75	-2.8646	-2.9313	-2.7271	-3.2042	-3.0687	-2.7729	-2.9229	-2.9729	-2.8542	-3.1208	-2.9646	-3.0854	-3.0312	-2.7667	357.457	107.568	205.245	310.849	350.772	188.867	396.972	303.856	163.513	155.949	340.105	198.064	360.262	434.659	304.475	344.385	0.00070614	0.0015165	9.7841e-05	383.83	1.6654e-05	1.0638e-05	556.03	149.85	6.8432e-06	6.6354e-06	266.45	130.73	74.428	39.655	7.2779e-06	73.437	0.0086559	0.010519	0.0030919	541.58	0.00010952	0.00011686	706.96	194.78	0.00011062	0.00011675	349.9	157.4	95.829	48.568	0.00011878	86.579	154.186	129.811	434.172	89.113	246.528	174.022	88.871	93.683	292.880	229.324	92.830	95.651	97.155	100.827	301.710	98.950	-8191	255	
2340.218	1	1	0	0	0.04848	0.1846	0.12585	0.040539	0.077104	0.21436	0.25778	0.12118	0.03969	0.048175	0.35802	0.048248	0.11412	0.26617	0.11867	0.091398	-2.6333	-2.8208	-2.7	-3.1854	-2.7562	-3.0021	-2.8625	-2.5687	-3.1854	-2.9188	-2.8521	-3.175	-2.9167	-3.2	-3.125	-2.8708	220.892	83.467	398.096	166.538	366.326	428.122	130.771	288.697	382.779	287.535	409.295	168.824	122.527	369.389	290.869	233.478	0.00076265	0.0007981	0.00035903	384.81	5.1492e-06	3.1926e-06	557.15	149.56	5.1245e-06	5.2777e-06	267.31	130.18	74.385	39.637	1.7555e-05	73.003	0.0086669	0.010724	0.0031439	539.73	0.00010952	0.00011908	710.41	193.41	0.0001104	0.00011832	350.06	156.04	95.625	48.568	0.00011999	85.691	141.728	118.498	145.200	89.257	184.673	308.857	88.577	93.664	322.479	320.031	92.330	95.766	96.572	101.060	227.973	99.170	-8191	255	
2340.314	1	1	0	0	0.093577	0.038513	0.10937	0.10381	0.13102	0.053599	0.075604	0.14937	0.30268	0.16078	0.1587	0.17809	0.10583	0.061332	0.13837	0.1046	-2.5896	-2.8167	-2.6979	-3.0479	-2.7854	-2.9854	-3.075	-2.7646	-3.0938	-2.8979	-2.8354	-3.0375	-2.8187	-3.0979	-3.0958	-2.9437	180.064	261.249	335.744	226.133	190.754	86.212	259.331	396.989	246.093	237.982	106.489	219.194	366.339	135.797	168.415	314.165	0.00085899	0.00029433	0.00024728	387.55	1.4188e-05	1.6971e-05	550.89	149.84	1.221e-05	7.9319e-06	263.84	129.28	73.668	39.471	9.3447e-06	72.879	0.0087584	0.010912	0.0031475	536.47	0.00011165	0.00012073	708.32	192.63	0.00011244	0.00012007	347.56	154.67	95.643	48.509	0.00011717	85.103	144.629	157.863	376.691	89.046	210.646	229.389	88.644	93.845	235.798	280.800	92.483	95.798	96.874	100.971	336.133	99.110	-8191	255	
2340.433	1	1	0	0	0.34018	0.10907	0.11549	0.31702	0.32627	0.18421	0.12082	0.23448	0.18114	0.10682	0.11637	0.20962	0.052601	0.14818	0.1411	0.12983	-2.5938	-2.7479	-2.7208	-3.15	-2.8917	-2.8208	-3.2292	-2.5979	-2.95	-2.8292	-2.7625	-3.1312	-2.8812	-2.95	-3.1854	-2.9229	334.663	361.566	407.279	95.358	189.396	376.157	334.842	212.592	173.733	412.612	414.163	344.289	366.957	81.603	397.845	432.063	0.00074066	0.0015546	0.0001292	383.15	9.1072e-06	1.3348e-05	548.98	149.55	7.1079e-06	7.9593e-06	264.52	129.82	74.066	39.434	1.2367e-06	72.935	0.0088149	0.010984	0.0030199	530.81	0.00011131	0.00011961	699.56	190.38	0.00011076	0.00011847	343.04	154.53	95.357	48.268	0.00011109	85.153	135.126	109.966	402.411	88.951	228.542	225.481	88.646	93.617	226.549	240.223	92.527	95.645	96.781	100.953	400.516	99.173	-8191	255	
2340.529	1	1	0	0	0.043066	0.28195	0.082977	0.038475	0.17289	0.2455	0.29367	0.19143	0.13255	0.17613	0.31409	0.076572	0.11903	0.25402	0.087537	0.18391	-2.5854	-2.9021	-2.7958	-3.0625	-2.8646	-2.7917	-2.9562	-2.7938	-2.8063	-2.9875	-2.6646	-3.1292	-2.8375	-2.8875	-2.9938	-3.0146	393.915	386.737	265.941	188.000	143.494	168.245	405.258	393.681	190.345	276.329	92.315	87.108	158.227	315.476	313.977	420.682	0.00086618	0.00082167	0.00026506	378.32	8.7777e-06	3.4461e-06	546.79	147.64	7.84e-06	1.3608e-05	263.98	130.24	74.265	39.321	5.8446e-06	72.902	0.0086293	0.010691	0.002864	520.6	0.00010995	0.00011631	687.28	188.44	0.00010917	0.00011526	338.39	154.34	95.05	48.065	0.00010653	85.123	154.635	128.796	343.167	89.480	276.294	423.071	88.602	94.249	214.374	203.597	92.434	95.669	96.925	101.007	357.850	99.170	-8191	255	
2340.625	1	1	0	0	0.17972	0.28369	0.13506	0.26889	0.12336	0.048719	0.37184	0.054627	0.062852	0.13767	0.13329	0.27118	0.063806	0.18956	0.15965	0.31037	-2.4396	-2.8958	-2.6479	-3.0375	-2.925	-2.825	-3.0438	-2.6854	-2.7083	-2.9062	-2.85	-2.9708	-2.9021	-2.7646	-3.0104	-2.9354	205.327	208.372	225.158	430.272	291.725	199.071	351.723	346.070	142.433	215.756	422.393	340.204	411.585	160.188	228.412	433.801	0.00076651	0.00053329	0.00023215	379.3	1.1141e-05	1.5388e-05	550.81	147.62	5.6233e-06	5.9248e-06	263.37	130.04	73.688	39.479	1.158e-06	72.356	0.0085466	0.010456	0.0027472	520.36	0.0001097	0.00011311	683.65	188.33	0.00010904	0.00011247	336.89	154.49	95.219	47.869	0.00010442	84.797	147.648	246.481	424.733	89.287	187.440	417.939	88.831	94.411	334.014	269.544	92.609	95.661	97.257	100.863	261.188	98.993	-8191	255	
2340.746	1	1	0	0	0.060015	0.12977	0.15737	0.26293	0.068467	0.20218	0.47341	0.19281	0.088147	0.09751	0.29758	0.32833	0.15912	0.20515	0.19708	0.22652	-2.2792	-2.9208	-2.7854	-2.7958	-2.8125	-2.6229	-3.0167	-2.8583	-2.9771	-3.0479	-2.7104	-2.9771	-3.0604	-2.775	-2.8208	-2.9188	132.386	335.753	78.891	393.665	384.083	135.393	351.179	166.900	106.877	145.743	302.491	373.567	101.615	369.907	396.897	295.643	0.0007202	0.00057272	0.00030176	374.89	6.7849e-06	3.8402e-06	539.58	146.54	6.5883e-06	6.0304e-06	261.06	129.01	73.808	39.248	2.0096e-05	72.732	0.0085742	0.010151	0.0027049	517.66	0.00011044	0.0001094	675.53	187.26	0.00010944	0.00010957	334.04	153.69	94.843	47.523	0.00010434	84.766	149.893	270.949	409.072	89.445	223.410	185.158	89.083	94.048	325.534	310.375	92.295	95.809	96.776	101.240	258.497	99.244	-8191	255	
2340.818	1	1	0	0	0.20231	0.26732	0.28442	0.25333	0.17128	0.17094	0.16231	0.27477	0.31235	0.04404	0.096888	0.1724	0.22277	0.13356	0.037986	0.14982	-2.45	-2.95	-2.6583	-2.7542	-2.9833	-2.6521	-3.0125	-2.9771	-2.7438	-3.1583	-2.8521	-3.0958	-2.9917	-2.7125	-3.0458	-3.1771	222.328	400.348	211.915	336.808	156.742	318.647	304.280	377.539	255.913	291.690	299.990	301.942	83.083	345.085	425.788	383.001	0.00063712	0.0009975	0.00026319	374.34	8.6237e-06	9.1046e-06	537.79	146.6	3.733e-06	7.3428e-06	262.53	129.2	73.86	39.387	6.7444e-06	72.571	0.0085789	0.0098437	0.0027167	517.99	0.00011039	0.00010673	675.05	188.3	0.0001087	0.00010664	335.77	154.2	95.069	47.488	0.00010541	85.249	153.466	324.206	102.741	89.269	208.417	85.363	88.807	93.781	372.924	87.054	92.503	95.849	96.944	100.898	231.294	99.188	-8191	255	
2340.914	1	1	0	0	0.075275	0.1421	0.0623	0.30474	0.10919	0.17372	0.10815	0.13117	0.24891	0.114	0.31022	0.036177	0.13915	0.21401	0.17411	0.071512	-2.3667	-3.0187	-2.7625	-2.8417	-3.1437	-2.7458	-3.1271	-3.0604	-2.6937	-3.2521	-2.8708	-2.9083	-3.2083	-2.8083	-3.0354	-3.0583	137.427	227.547	365.813	410.735	368.525	342.025	124.942	408.881	143.395	350.229	142.868	226.946	103.980	344.338	221.121	117.885	0.00089017	0.00040927	0.00023035	374.3	7.1247e-06	1.5969e-06	543.43	146.81	5.4547e-06	4.8324e-06	263.06	130.01	73.976	39.509	1.4711e-05	73.033	0.0085033	0.0097221	0.002783	521.95	0.00010947	0.00010585	681	189.62	0.00010789	0.00010683	338.29	155.21	95.102	47.641	0.00010824	85.806	152.658	168.013	150.687	89.174	87.324	209.878	88.681	94.037	210.145	312.941	92.363	95.745	96.815	101.009	219.966	99.230	-8191	255	
2341.034	1	1	0	0	0.072302	0.1573	0.17042	0.14402	0.32769	0.054664	0.25506	0.08871	0.25415	0.19403	0.25048	0.10938	0.23189	0.11285	0.13058	0.2205	-2.4688	-2.8771	-2.8375	-2.9229	-3.0812	-2.8187	-2.925	-2.7188	-2.7375	-3.0479	-2.9167	-2.8417	-2.9229	-2.9708	-2.8167	-3.0958	327.960	177.666	110.651	422.987	97.828	138.137	325.467	361.168	80.988	426.335	372.961	161.948	81.838	128.398	84.075	388.478	0.00076378	0.0012397	0.00016487	375.73	5.3719e-06	9.5042e-06	544.56	147.37	9.3023e-06	8.2255e-06	264.74	130.27	74.437	39.512	9.3862e-06	73.386	0.0083542	0.0098212	0.0028349	525.8	0.00010779	0.00010689	687.3	191.26	0.00010579	0.00010868	341.74	156.15	95.094	47.863	0.00011157	86.34	153.194	146.737	102.847	89.079	78.213	172.257	88.815	94.176	408.365	200.371	92.433	95.804	96.773	101.175	193.998	99.024	-8191	255	
2341.129	1	1	0	0	0.26832	0.28594	0.13996	0.030902	0.2608	0.21589	0.041375	0.072634	0.097707	0.11768	0.41751	0.13874	0.38119	0.2606	0.14103	0.26593	-2.1375	-3.1688	-2.7771	-2.85	-3.0875	-2.7896	-3.0146	-2.9375	-2.6229	-3.0896	-2.8417	-3.0042	-3.0125	-2.7583	-2.8958	-3.0771	174.378	327.290	333.151	286.241	426.946	360.307	182.005	133.332	148.396	127.681	346.253	410.797	366.444	113.264	123.421	362.732	0.00080265	0.00082181	0.00027019	382.15	4.615e-06	1.038e-05	545.43	147.65	7.76e-06	1.0662e-05	263.28	129.59	73.522	39.567	1.3737e-05	72.643	0.0083335	0.010141	0.0029707	531.67	0.00010753	0.00011065	692.75	192.05	0.00010527	0.00011132	343.09	155.35	94.856	48.051	0.00011424	85.704	148.588	169.167	118.462	89.307	156.516	200.175	89.000	93.865	357.421	225.258	92.499	95.793	96.804	100.838	268.335	98.992	-8191	255	
2341.225	1	1	0	0	0.26727	0.30639	0.11262	0.16727	0.18173	0.056201	0.20379	0.10499	0.20083	0.11706	0.049256	0.13739	0.09864	0.12358	0.1859	0.25219	-2.2854	-2.9667	-2.925	-2.7396	-3.1458	-2.7854	-2.9375	-3.0583	-2.7313	-2.9813	-2.9271	-2.7938	-3.05	-2.6646	-2.7042	-3.0292	303.135	350.719	388.201	396.898	368.365	371.892	245.735	99.221	358.961	354.313	337.326	307.701	346.266	417.212	392.840	425.388	0.00073013	0.0010476	0.00015899	378.29	2.7139e-06	6.506e-06	546.75	148.11	1.0862e-05	3.7683e-06	263.48	129.6	74.037	39.362	1.0596e-05	72.743	0.0082631	0.010396	0.003033	530.46	0.00010764	0.00011404	697.7	191.88	0.00010592	0.00011444	344.57	154.6	94.941	48.133	0.00011688	85.302	140.766	160.502	359.491	89.327	93.982	164.949	88.535	94.006	202.766	376.983	92.460	95.847	97.255	101.141	227.652	99.013	-8191	255	
2341.321	1	1	0	0	0.089676	0.086187	0.20435	0.31882	0.18519	0.16646	0.25759	0.13429	0.10158	0.042044	0.31367	0.11026	0.289	0.2366	0.037965	0.18069	-2.1729	-2.9375	-2.8354	-2.7083	-2.9479	-2.9083	-2.7167	-3.0979	-2.8042	-2.85	-3.0604	-2.7333	-3.0521	-2.8833	-2.8229	-3.0146	371.816	406.667	334.529	78.112	78.179	285.830	387.795	385.941	113.104	424.098	408.859	191.275	397.934	106.225	215.922	79.729	0.00081219	0.00053819	0.00013657	379.66	1.0425e-05	9.3141e-06	549.17	148.89	8.0133e-06	1.4657e-06	263.32	128.71	74.408	39.427	1.3166e-05	72.577	0.0084065	0.010614	0.0030914	528.24	0.00010931	0.00011577	698.41	190.79	0.00010724	0.00011594	345.33	154.16	95.109	48.315	0.00011534	85.335	152.732	134.564	98.591	89.115	179.670	238.091	88.909	93.939	208.696	360.720	92.659	95.759	97.054	101.015	343.509	99.147	-8191	255	
2341.417	1	1	0	0	0.22239	0.1339	0.14805	0.28488	0.18887	0.13216	0.15831	0.24182	0.051876	0.091847	0.23486	0.27671	0.02949	0.29009	0.31012	0.41482	-2.3479	-2.8187	-2.9833	-2.6875	-2.975	-2.7833	-2.8229	-3.1625	-2.8042	-2.7792	-3.1458	-2.8021	-2.9208	-2.9688	-2.6312	-3.2396	198.214	283.754	433.382	261.739	202.838	419.091	350.560	345.561	139.828	292.087	381.609	419.977	82.576	87.947	416.249	328.494	0.00090535	0.00048669	0.00027836	380.09	1.0207e-05	6.254e-06	548.74	148.68	1.0197e-05	1.2314e-05	265.53	129.86	74.032	39.47	1.7183e-05	72.868	0.0084712	0.01067	0.0030387	525.2	0.0001101	0.00011777	695.6	190.52	0.00010882	0.00011734	344.53	154.14	95.395	48.468	0.00011265	85.4	140.229	325.526	246.851	89.513	191.907	367.627	89.109	93.873	234.500	232.890	92.532	95.696	96.991	101.121	216.479	98.990	-8191	255	
2341.513	1	1	0	0	0.22143	0.11389	0.20945	0.22067	0.13649	0.19143	0.23528	0.10746	0.086095	0.21285	0.21383	0.27873	0.18612	0.16124	0.14147	0.12759	-2.3042	-2.7	-3.0875	-2.7792	-2.9271	-3.1854	-2.8521	-3.0396	-2.7125	-2.9062	-3.15	-2.8479	-2.9396	-3.0771	-2.8396	-3.1792	335.756	197.191	374.260	407.583	412.974	109.813	359.820	184.348	305.222	364.570	406.812	361.937	365.040	77.377	368.328	395.630	0.00091093	0.00086531	0.00013725	384.86	8.5233e-06	6.9913e-06	551.72	148.42	4.2704e-06	5.5559e-06	262.54	129.19	73.562	39.363	6.4884e-06	72.624	0.0086435	0.010851	0.0030024	526.59	0.00011234	0.00011978	695.67	190.52	0.00011157	0.00011926	341.75	153.5	95.528	48.393	0.00011074	84.968	147.395	116.652	157.529	89.239	214.978	188.860	88.781	93.942	275.147	98.604	92.562	95.833	96.996	101.028	370.528	99.076	-8191	255	
2341.610	1	1	0	0	0.31061	0.024065	0.098104	0.16666	0.17252	0.079107	0.11899	0.1638	0.13286	0.080916	0.10328	0.28595	0.21245	0.081561	0.13499	0.21176	-2.3333	-2.85	-2.9542	-2.7021	-2.8333	-2.9562	-2.7979	-2.8958	-2.8271	-2.7708	-3.0604	-2.7875	-2.8458	-2.9542	-2.7979	-3.0458	236.907	330.592	145.745	316.755	158.979	188.904	380.000	360.582	341.905	360.513	432.820	245.749	412.454	392.216	144.112	96.663	0.00075606	0.00064838	0.00021992	380.8	8.4852e-06	5.545e-06	545.27	147.54	9.4041e-06	7.6556e-06	259.33	128.21	73.605	39.051	7.1973e-06	72.347	0.0088331	0.010932	0.0029321	526.66	0.00011403	0.00012	687.92	189.64	0.00011346	0.00011842	338.27	152.96	95.625	48.147	0.00010846	84.906	157.534	410.948	199.110	89.191	233.154	314.952	88.808	94.195	156.431	387.645	92.255	95.590	97.135	101.014	292.924	99.101	-8191	255	
2341.706	1	1	0	0	0.015832	0.41801	0.18047	0.32084	0.071615	0.049575	0.069745	0.20099	0.14784	0.2504	0.32981	0.25991	0.25181	0.056262	0.083734	0.13768	-2.4437	-2.7229	-3.1437	-2.6792	-2.8917	-3.0312	-2.7271	-2.8083	-2.6958	-2.8083	-3.05	-2.8937	-2.8271	-3.0875	-2.7562	-3.1271	181.701	208.951	123.598	367.691	398.660	216.335	353.162	358.248	265.642	241.460	377.931	90.423	330.085	391.756	280.821	394.914	0.0009119	0.0011733	0.00020409	379.09	4.4093e-06	1.2446e-06	546.29	146.81	4.756e-06	6.5376e-06	260.95	127.5	73.592	39.228	4.9364e-06	72.159	0.0089404	0.010727	0.0028749	526.3	0.00011538	0.00011781	685.19	190.02	0.00011449	0.00011506	337.54	153.08	95.562	47.993	0.00010776	84.959	149.093	286.857	152.040	89.562	383.881	422.742	88.808	93.850	110.583	250.858	92.103	95.691	97.006	100.872	125.754	99.255	-8191	255	
2341.826	1	1	0	0	0.040376	0.086314	0.23533	0.083775	0.066956	0.050699	0.36294	0.25519	0.048537	0.14376	0.25603	0.10992	0.22911	0.1066	0.14843	0.16803	-2.4583	-2.8333	-3.1792	-2.7333	-2.9729	-3.0646	-2.7625	-2.9021	-2.8812	-2.7208	-3.0333	-2.7708	-2.7958	-2.9625	-2.5833	-3.0208	92.189	300.097	362.054	263.373	394.870	86.152	325.152	132.342	301.358	316.480	404.785	119.023	387.639	129.460	106.602	312.151	0.00080724	0.00056835	0.00014713	381.09	9.2056e-06	7.6553e-06	546.16	147.41	9.5107e-06	6.5443e-06	259.47	128.48	73.782	39.33	7.1628e-06	72.319	0.0090338	0.010443	0.0028919	530.75	0.00011602	0.00011513	688.27	190.96	0.00011639	0.00011302	338.66	154.12	95.789	47.956	0.00011018	85.521	146.041	284.918	119.577	89.364	269.101	239.513	88.722	93.738	239.714	366.092	92.707	95.822	97.309	101.124	246.961	99.255	-8191	255	
2341.923	1	1	0	0	0.12327	0.23638	0.022708	0.26317	0.13938	0.096022	0.13631	0.12656	0.065703	0.13239	0.1795	0.06474	0.17071	0.32409	0.2113	0.34709	-2.5458	-2.6458	-2.9521	-2.8688	-2.6562	-3.0125	-2.7354	-2.8229	-2.8542	-2.6396	-3.0396	-3.0083	-2.7562	-3.0521	-2.6958	-2.8271	119.194	261.566	248.922	408.302	349.966	264.151	270.345	293.579	209.393	334.479	333.452	355.276	114.988	374.153	384.082	374.469	0.00088495	0.001048	0.00013101	382.14	2.212e-06	8.4724e-06	553.38	147.74	6.0112e-06	2.1721e-06	260.95	127.78	72.956	39.422	7.8058e-06	72.371	0.009133	0.010303	0.0029667	537.23	0.00011726	0.00011421	696.86	192.73	0.00011713	0.00011343	342.05	154.74	95.722	48.042	0.00011411	85.766	152.069	138.586	146.703	89.442	94.939	153.877	88.975	93.990	276.421	309.389	92.481	95.676	97.267	100.870	209.326	99.140	-8191	255	
2342.019	1	1	0	0	0.11317	0.098047	0.071192	0.13693	0.16483	0.098553	0.11838	0.14631	0.35478	0.15784	0.2092	0.1611	0.16707	0.18542	0.19306	0.24214	-2.5271	-2.6458	-2.9021	-2.9167	-2.5625	-3.1813	-2.7458	-2.8958	-3.0958	-2.6896	-2.9146	-2.9062	-2.7729	-2.8729	-2.7521	-2.9125	191.252	266.807	327.041	333.860	303.215	100.812	234.291	404.286	325.382	243.052	404.963	77.398	183.243	166.016	188.823	342.649	0.00055641	0.000795	0.00026677	385.34	1.0858e-05	5.2963e-06	553.31	148.37	3.8718e-06	4.7924e-06	259.99	126.95	73.264	39.169	1.1819e-05	71.74	0.0091742	0.010369	0.003033	544.91	0.000116	0.00011538	701.36	194.31	0.00011628	0.00011436	342.57	154.05	95.423	47.872	0.00011764	85.325	156.591	110.608	106.692	89.096	432.497	306.976	88.421	94.043	357.274	153.658	92.433	95.831	97.218	100.994	244.455	99.087	-8191	255	
2342.115	1	1	0	0	0.1975	0.18591	0.35995	0.17373	0.019478	0.055596	0.023025	0.063475	0.22055	0.20739	0.33384	0.26909	0.16261	0.13765	0.10825	0.28567	-2.7083	-2.6542	-2.8396	-2.9313	-2.7542	-3.1125	-2.7958	-2.825	-3.075	-2.9542	-2.95	-3.1354	-2.7521	-2.9437	-2.9375	-2.8375	215.251	416.161	193.016	432.854	409.095	179.025	433.714	272.153	137.930	154.187	287.728	82.723	407.279	426.227	85.101	421.207	0.00067778	0.00070751	0.00032841	388.76	1.1585e-05	7.723e-06	555.84	148.08	1.0263e-05	8.1601e-06	260.76	126.92	72.834	39	6.4834e-06	71.777	0.009048	0.010602	0.003136	551.25	0.00011418	0.00011769	706.87	194.31	0.00011414	0.00011623	344.17	153.94	94.71	47.971	0.00011979	85.286	145.513	242.595	139.865	89.354	313.074	276.258	88.721	94.025	423.244	198.816	92.509	95.709	97.184	101.134	202.194	99.130	-8191	255	
#DATA ENDS
