BOXY.EXE: ISS Imagent and Oximeter Data Acquisition Program Version 0.80
Ascii Record File

#ACQ INFORMATION
2  Detector Channels 
16  External MUX Channels 
1  Auxiliary Channels 
5000  Waveform (CCF) Frequency (Hz)
1  Waveforms Skipped 
30  Waveforms Averaged 
1  Cycles Averaged 
16  Acquisitions per Waveform 
10.0806  Updata Rate (Hz) 

#FILE INFORMATION
TRUE -- External MUX Channel results are PARSED.
FALSE -- AC DC and Phase are NOT grouped.
TRUE -- Companion Program Settings File CREATED.
FALSE -- AC data not excluded
FALSE -- DC data not excluded
FALSE -- Phase data not excluded
FALSE -- Auxillary Chn. data not excluded
Tab delimiters

#CALIBRATION STATE
TRUE -- Waveform Calibration Values APPLIED.


#AUX CALIBRATION VALUES
Val Type	aux-1	

Term	1.0000e+00	
Factor	0.0000e+00	


#WF CALIBRATION VALUES
A = Detector Channel
Val Type	A-AC1	A-AC2	A-AC3	A-AC4	A-AC5	A-AC6	A-AC7	A-AC8	A-AC9	A-AC10	A-AC11	A-AC12	A-AC13	A-AC14	A-AC15	A-AC16	A-DC1	A-DC2	A-DC3	A-DC4	A-DC5	A-DC6	A-DC7	A-DC8	A-DC9	A-DC10	A-DC11	A-DC12	A-DC13	A-DC14	A-DC15	A-DC16	A-Ph1	A-Ph2	A-Ph3	A-Ph4	A-Ph5	A-Ph6	A-Ph7	A-Ph8	A-Ph9	A-Ph10	A-Ph11	A-Ph12	A-Ph13	A-Ph14	A-Ph15	A-Ph16	

Term	0.00000e+00	0.00000e+00	0.00000e+00	0.00000e+00	0.00000e+00	0.00000e+00	0.00000e+00	0.00000e+00	0.00000e+00	0.00000e+00	0.00000e+00	0.00000e+00	0.00000e+00	0.00000e+00	0.00000e+00	0.00000e+00	0.00000e+00	0.00000e+00	0.00000e+00	0.00000e+00	0.00000e+00	0.00000e+00	0.00000e+00	0.00000e+00	0.00000e+00	0.00000e+00	0.00000e+00	0.00000e+00	0.00000e+00	0.00000e+00	0.00000e+00	0.00000e+00	0.00000e+00	0.00000e+00	0.00000e+00	0.00000e+00	0.00000e+00	0.00000e+00	0.00000e+00	0.00000e+00	0.00000e+00	0.00000e+00	0.00000e+00	0.00000e+00	0.00000e+00	0.00000e+00	0.00000e+00	0.00000e+00	
Factor	1.00000e+00	1.00000e+00	1.00000e+00	1.00000e+00	1.00000e+00	1.00000e+00	1.00000e+00	1.00000e+00	1.00000e+00	1.00000e+00	1.00000e+00	1.00000e+00	1.00000e+00	1.00000e+00	1.00000e+00	1.00000e+00	1.00000e+00	1.00000e+00	1.00000e+00	1.00000e+00	1.00000e+00	1.00000e+00	1.00000e+00	1.00000e+00	1.00000e+00	1.00000e+00	1.00000e+00	1.00000e+00	1.00000e+00	1.00000e+00	1.00000e+00	1.00000e+00	X	X	X	X	X	X	X	X	X	X	X	X	X	X	X	X	

B = Detector Channel
Val Type	B-AC1	B-AC2	B-AC3	B-AC4	B-AC5	B-AC6	B-AC7	B-AC8	B-AC9	B-AC10	B-AC11	B-AC12	B-AC13	B-AC14	B-AC15	B-AC16	B-DC1	B-DC2	B-DC3	B-DC4	B-DC5	B-DC6	B-DC7	B-DC8	B-DC9	B-DC10	B-DC11	B-DC12	B-DC13	B-DC14	B-DC15	B-DC16	B-Ph1	B-Ph2	B-Ph3	B-Ph4	B-Ph5	B-Ph6	B-Ph7	B-Ph8	B-Ph9	B-Ph10	B-Ph11	B-Ph12	B-Ph13	B-Ph14	B-Ph15	B-Ph16	

Term	0.00000e+00	0.00000e+00	0.00000e+00	0.00000e+00	0.00000e+00	0.00000e+00	0.00000e+00	0.00000e+00	0.00000e+00	0.00000e+00	0.00000e+00	0.00000e+00	0.00000e+00	0.00000e+00	0.00000e+00	0.00000e+00	0.00000e+00	0.00000e+00	0.00000e+00	0.00000e+00	0.00000e+00	0.00000e+00	0.00000e+00	0.00000e+00	0.00000e+00	0.00000e+00	0.00000e+00	0.00000e+00	0.00000e+00	0.00000e+00	0.00000e+00	0.00000e+00	-1.46573e+02	-1.30403e+02	-1.37663e+02	-1.82827e+02	-7.22735e+01	-6.30001e+01	-1.58910e+02	-1.62015e+02	-7.72400e+01	-6.72005e+01	-1.71070e+02	-1.70740e+02	-1.82889e+02	-1.76704e+02	-6.79015e+01	-1.49758e+02	
Factor	2.11726e-05	1.42107e-04	4.06141e-05	1.78644e-01	1.31213e-06	1.57184e-06	1.76680e-01	4.86151e-02	1.17736e-06	1.44838e-06	9.37926e-02	2.76980e-02	2.41818e-02	8.94260e-03	1.48299e-06	1.30437e-02	5.47952e-06	6.70541e-06	1.89136e-06	9.01438e-02	7.13655e-08	7.35607e-08	8.41523e-02	2.47218e-02	7.09250e-08	7.32396e-08	4.60402e-02	1.36710e-02	1.23919e-02	4.56909e-03	7.18436e-08	6.45217e-03	X	X	X	X	X	X	X	X	X	X	X	X	X	X	X	X	



#DISTANCE SETTINGS
A = Detector Channel
A-1	A-2	A-3	A-4	A-5	A-6	A-7	A-8	A-9	A-10	A-11	A-12	A-13	A-14	A-15	A-16	

2.5000e+00	3.0000e+00	2.5000e+00	3.0000e+00	2.0000e+00	3.0000e+00	1.5000e+00	3.0000e+00	3.0000e+00	3.0000e+00	3.0000e+00	3.0000e+00	3.0000e+00	3.0000e+00	1.5000e+00	3.0000e+00	

B = Detector Channel
B-1	B-2	B-3	B-4	B-5	B-6	B-7	B-8	B-9	B-10	B-11	B-12	B-13	B-14	B-15	B-16	

1.0000e+01	1.0000e+01	1.0000e+01	1.4400e+00	1.0000e+01	1.0000e+01	1.5100e+00	1.9400e+00	1.0000e+01	1.0000e+01	1.9900e+00	2.4900e+00	2.4100e+00	2.9000e+00	1.0000e+01	2.9800e+00	




#DATA BEGINS
time	group	step	mark	flag	A-AC1	A-AC2	A-AC3	A-AC4	A-AC5	A-AC6	A-AC7	A-AC8	A-AC9	A-AC10	A-AC11	A-AC12	A-AC13	A-AC14	A-AC15	A-AC16	A-DC1	A-DC2	A-DC3	A-DC4	A-DC5	A-DC6	A-DC7	A-DC8	A-DC9	A-DC10	A-DC11	A-DC12	A-DC13	A-DC14	A-DC15	A-DC16	A-Ph1	A-Ph2	A-Ph3	A-Ph4	A-Ph5	A-Ph6	A-Ph7	A-Ph8	A-Ph9	A-Ph10	A-Ph11	A-Ph12	A-Ph13	A-Ph14	A-Ph15	A-Ph16	B-AC1	B-AC2	B-AC3	B-AC4	B-AC5	B-AC6	B-AC7	B-AC8	B-AC9	B-AC10	B-AC11	B-AC12	B-AC13	B-AC14	B-AC15	B-AC16	B-DC1	B-DC2	B-DC3	B-DC4	B-DC5	B-DC6	B-DC7	B-DC8	B-DC9	B-DC10	B-DC11	B-DC12	B-DC13	B-DC14	B-DC15	B-DC16	B-Ph1	B-Ph2	B-Ph3	B-Ph4	B-Ph5	B-Ph6	B-Ph7	B-Ph8	B-Ph9	B-Ph10	B-Ph11	B-Ph12	B-Ph13	B-Ph14	B-Ph15	B-Ph16	aux-1	digaux	

2349.844	1	1	0	256	0.11372	0.25392	0.11324	0.36314	0.30311	0.21553	0.15729	0.17008	0.18654	0.11556	0.21571	0.33856	0.12787	0.11132	0.11903	0.14154	-2.3146	-2.7417	-2.9062	-2.7208	-3.0563	-2.7708	-2.5521	-3.1708	-2.6542	-2.8354	-3.0917	-2.8604	-2.8208	-3.0083	-2.7104	-3.1208	239.849	202.099	78.953	96.240	233.502	352.847	264.984	166.516	221.945	381.804	423.172	347.515	320.373	428.631	132.348	76.971	0.00069729	0.00049944	0.00014184	350.65	1.2647e-05	7.5468e-06	533.78	162.1	9.2789e-06	5.6963e-06	291.25	141.96	81.977	39.415	5.3782e-06	70.636	0.003252	0.0039681	0.0011143	410.77	4.182e-05	4.2525e-05	596.78	181.48	4.0403e-05	4.3355e-05	325.36	154.24	91.528	43.654	4.19e-05	76.778	147.399	212.866	205.901	89.195	221.467	240.156	88.968	93.614	226.992	324.089	92.216	95.361	96.776	100.627	293.544	99.243	-8191	255	
2349.940	1	1	0	0	0.099435	0.27007	0.13849	0.32384	0.30439	0.11118	0.12067	0.15668	0.16027	0.20863	0.24077	0.079081	0.04837	0.24649	0.20141	0.29709	-2.275	-2.9062	-2.9458	-2.7521	-2.9062	-2.9417	-2.8542	-3.0167	-2.875	-2.6937	-3.1479	-2.8354	-2.9708	-2.9917	-2.5333	-3.1896	255.165	240.671	266.050	411.194	236.924	98.737	424.282	155.544	105.584	246.467	135.750	163.973	137.803	321.391	367.121	427.632	0.00077222	0.00017907	0.00033336	351.7	3.5157e-06	7.0692e-06	533.68	163.08	2.0746e-06	4.9771e-06	289.29	140.5	81.374	39.359	5.8524e-06	70.007	0.0032708	0.0039935	0.0011037	410.8	4.2178e-05	4.2977e-05	593.45	181.32	4.0312e-05	4.3162e-05	322.19	152.6	90.8	43.391	4.0083e-05	76.211	159.483	360.636	195.428	89.227	211.937	233.297	88.953	93.621	195.930	207.664	92.211	95.500	96.586	100.785	183.453	99.164	-8191	255	
2350.060	1	1	0	0	0.29403	0.15207	0.12014	0.081327	0.094337	0.36452	0.26909	0.056527	0.26417	0.15171	0.13592	0.049646	0.23466	0.06655	0.13539	0.27259	-2.3729	-2.6042	-2.8417	-2.7687	-2.7562	-2.9292	-2.7313	-3.0604	-2.8042	-2.7479	-2.9771	-2.9104	-2.8937	-2.9521	-2.8146	-3.0083	194.000	302.124	163.327	399.819	338.275	342.909	307.309	379.612	136.491	210.310	294.392	316.453	382.054	189.847	171.607	385.538	0.00084898	0.00081548	7.9027e-05	353.78	6.1904e-06	6.5157e-06	535.89	161.26	5.6886e-06	3.4174e-06	287.82	140.87	80.691	39.149	5.491e-06	69.852	0.0032507	0.0039041	0.0010737	412.23	4.1341e-05	4.2435e-05	594.87	180.27	4.0347e-05	4.2081e-05	320.31	151.82	90.091	43.245	3.9407e-05	75.867	147.765	146.636	135.844	88.977	204.122	233.500	88.702	93.484	210.098	193.196	92.389	95.753	96.688	100.884	221.246	99.399	-8191	255	
2350.156	1	1	0	0	0.067844	0.2704	0.071121	0.21086	0.057475	0.18743	0.16008	0.17026	0.1106	0.16545	0.056603	0.29829	0.14395	0.25485	0.15615	0.27741	-2.4646	-2.7188	-2.9292	-2.7708	-2.9062	-3	-2.8104	-2.9917	-2.8521	-2.6479	-3.1708	-2.7875	-2.9604	-3.2188	-2.7812	-3.0542	254.149	315.784	84.586	350.839	163.937	218.334	99.015	266.359	372.620	409.641	116.202	144.995	246.652	374.281	211.339	288.749	0.00078432	0.00014762	0.00017818	358.7	6.4337e-06	5.1647e-06	541.05	160.3	7.9084e-06	4.3844e-06	281.2	137.06	78.875	38.647	4.7374e-06	69.318	0.0032993	0.0038732	0.00107	416.88	4.1936e-05	4.2798e-05	597.71	179.22	4.1471e-05	4.2597e-05	315.54	149.1	88.458	42.858	4.1185e-05	75.397	147.481	428.896	232.722	88.974	225.855	82.860	88.671	93.523	186.597	193.933	92.646	95.677	96.722	101.069	232.662	99.341	-8191	255	
2350.253	1	1	0	0	0.27685	0.094202	0.26767	0.12105	0.16298	0.16823	0.042721	0.13896	0.315	0.31953	0.17997	0.30487	0.27241	0.14429	0.12285	0.15879	-2.5792	-2.5104	-2.8438	-2.8375	-2.7583	-2.9313	-2.5292	-2.8812	-2.9104	-2.8604	-3.0604	-2.9833	-2.7979	-3.1125	-2.675	-2.9417	135.329	393.217	236.544	321.721	308.852	183.857	110.199	267.756	262.609	425.961	343.150	338.489	343.273	109.018	217.568	363.753	0.00081789	0.00013975	0.00032487	361.82	3.0198e-06	8.7454e-06	541	157.53	7.5918e-06	5.8383e-06	277.57	133.87	76.939	38.428	4.7279e-06	68.397	0.003423	0.0039096	0.0011133	423.87	4.3533e-05	4.377e-05	601.58	177.16	4.2934e-05	4.2879e-05	312.45	146.3	86.838	42.457	4.2018e-05	74.629	150.282	150.220	121.006	89.078	211.637	216.498	88.909	93.662	189.439	266.055	92.412	95.920	97.109	101.032	179.675	99.539	-8191	255	
2350.349	1	1	0	0	0.16391	0.11755	0.11859	0.071776	0.14104	0.10476	0.23106	0.16448	0.081709	0.22126	0.041255	0.076327	0.15935	0.1034	0.076227	0.18918	-2.5542	-2.7188	-3	-2.9938	-2.6979	-2.8979	-2.6813	-2.8937	-2.7958	-2.75	-3.0438	-2.8375	-2.5312	-3.1937	-2.7833	-3.0812	264.841	308.721	305.142	136.646	315.012	345.931	317.103	373.646	255.826	150.880	377.953	375.351	409.628	169.701	384.915	405.183	0.0006781	0.0014454	7.8529e-05	368.43	4.8713e-06	5.5991e-06	543.13	154.28	3.3281e-06	4.4374e-06	268.61	128.75	73.64	37.375	1.1361e-05	66.409	0.0034954	0.0039127	0.001153	430.88	4.395e-05	4.4335e-05	605.46	173.94	4.4355e-05	4.3624e-05	304.49	141.25	83.92	41.676	4.382e-05	72.585	147.031	155.771	102.465	89.103	200.677	206.221	88.467	93.940	143.519	190.975	92.535	95.943	97.489	101.297	192.046	99.717	-8191	255	
2350.445	1	1	0	0	0.17057	0.028318	0.19476	0.33533	0.16699	0.23165	0.19914	0.10703	0.045687	0.040911	0.12062	0.23015	0.21036	0.13475	0.30845	0.35744	-2.775	-2.6188	-2.9083	-2.8	-2.7625	-2.975	-2.8083	-3.0104	-2.9333	-2.6958	-3.075	-3.0083	-2.7521	-3.0625	-2.8167	-2.9125	133.676	139.026	365.579	404.622	103.095	371.909	346.283	332.587	110.159	344.242	244.793	404.607	413.437	351.986	395.742	319.356	0.00071227	0.00016971	0.00023701	373.58	5.7399e-06	8.3542e-06	541.93	152.05	1.1164e-05	1.0692e-05	263.24	126.26	73.071	37.142	6.6044e-06	65.411	0.0035713	0.0040074	0.0011921	435.59	4.441e-05	4.5382e-05	607.59	172.2	4.4735e-05	4.3847e-05	300.12	139	82.652	41.43	4.4656e-05	71.953	144.192	186.502	164.657	88.974	209.157	322.706	88.555	94.123	209.026	253.145	92.584	96.180	97.494	101.155	193.980	99.618	-8191	255	
2350.541	1	1	0	0	0.20025	0.29701	0.076821	0.10011	0.23916	0.20764	0.11942	0.16587	0.22825	0.11163	0.15419	0.14437	0.15613	0.2096	0.28374	0.11967	-2.8021	-2.5646	-2.8167	-2.8771	-2.7229	-3.0354	-2.9062	-2.8563	-2.9583	-2.7479	-2.8646	-3.0771	-2.7896	-2.7396	-2.7708	-2.9938	200.022	395.781	210.485	400.225	114.831	247.774	352.420	412.518	120.730	114.967	433.473	345.339	198.169	82.241	350.118	295.053	0.00061655	2.4631e-05	5.6652e-05	368.91	7.8205e-07	2.5818e-06	540.96	150.74	6.1939e-06	2.6725e-06	262.7	125.35	72.456	37.21	1.0147e-05	65.454	0.0035891	0.0040715	0.0012128	436.09	4.3996e-05	4.7062e-05	606.95	171.27	4.5092e-05	4.5568e-05	299.16	138.33	82.132	41.451	4.6148e-05	72.106	149.710	377.128	197.670	89.166	253.740	376.956	88.496	94.045	262.125	282.870	92.863	95.929	97.340	101.449	249.909	99.543	-8191	255	
2350.637	1	1	0	0	0.028943	0.30981	0.0679	0.047077	0.13951	0.22159	0.23783	0.16939	0.01717	0.21114	0.27529	0.24707	0.26316	0.20441	0.08401	0.40379	-2.7354	-2.6833	-2.7958	-2.8333	-2.4958	-3.025	-3.0458	-2.7646	-2.9792	-2.9458	-2.8896	-3.0792	-2.5833	-3.0187	-2.9437	-2.875	114.597	320.032	218.672	371.116	163.662	240.497	125.784	111.558	331.872	306.560	299.030	424.216	392.431	350.624	179.592	350.362	0.00084324	0.00039784	0.00017688	369.96	5.8716e-06	7.6055e-06	539.77	151.51	3.6442e-06	1.2289e-06	263.54	126.29	72.848	37.355	8.4729e-06	65.847	0.0036097	0.0041965	0.0012351	436.34	4.4084e-05	4.7505e-05	607.11	171.42	4.4887e-05	4.5979e-05	300.16	139.18	82.422	41.627	4.65e-05	72.467	143.188	211.425	90.653	89.017	226.727	222.710	88.605	93.674	201.112	271.644	92.680	96.089	97.335	100.997	167.334	99.658	-8191	255	
2350.758	1	1	0	0	0.33502	0.10013	0.075155	0.072485	0.21869	0.16866	0.12073	0.062348	0.099663	0.15308	0.12463	0.21651	0.39238	0.10189	0.16585	0.19577	-2.6167	-2.7042	-2.7771	-3.1167	-2.7208	-3.1104	-3.0292	-2.8479	-2.9542	-2.8625	-2.8521	-3.2292	-2.65	-2.9958	-3.0812	-2.7729	89.436	385.544	173.454	76.501	404.321	328.410	195.844	175.446	350.469	241.507	311.022	113.340	382.783	381.332	324.094	190.931	0.00080385	0.00057366	9.4949e-05	368.17	3.0834e-06	5.5933e-06	539.87	150.59	7.1032e-06	6.435e-06	262.08	125.63	72.471	37.171	9.0381e-06	65.531	0.0036418	0.0042535	0.0012439	435.76	4.4322e-05	4.8348e-05	609.3	171.08	4.5958e-05	4.7079e-05	299.39	138.49	82.262	41.552	4.7296e-05	71.833	146.996	177.745	191.842	89.042	249.604	330.245	88.859	93.806	249.791	286.715	92.509	95.934	97.202	101.068	183.500	99.566	-8191	255	
2350.852	1	1	0	0	0.23368	0.14285	0.37476	0.061201	0.060471	0.38792	0.14841	0.097874	0.1552	0.11685	0.23855	0.12535	0.15876	0.2684	0.054331	0.1679	-2.5792	-2.6979	-2.6417	-2.9562	-2.8208	-2.9188	-2.9417	-2.6437	-3.0354	-2.9	-2.8229	-3.1479	-2.8583	-3.025	-3.0458	-2.7771	377.166	87.804	342.702	170.797	112.774	100.584	326.799	87.159	335.269	426.418	142.790	390.284	83.875	397.328	234.912	380.611	0.00066498	0.00043903	0.00010999	368.42	1.0251e-05	6.7938e-06	534.19	149.91	2.8468e-06	2.135e-06	260.58	124.63	72.346	37.006	1.0871e-05	65.191	0.0036829	0.0043499	0.00125	434.3	4.5154e-05	4.8599e-05	603.2	169.87	4.6247e-05	4.7675e-05	297.31	137.4	82.16	41.393	4.7269e-05	71.463	149.468	123.758	183.414	89.028	275.077	255.140	88.832	93.854	196.379	299.695	92.682	96.164	97.304	101.117	213.694	99.638	-8191	255	
2350.948	1	1	0	0	0.22534	0.20016	0.093516	0.26296	0.17424	0.14094	0.25654	0.20941	0.25796	0.34893	0.13691	0.18023	0.25797	0.22573	0.17194	0.38367	-2.55	-2.7812	-2.8104	-3.0396	-2.8396	-2.7687	-2.9521	-2.8125	-3.0563	-2.9333	-2.7604	-2.8771	-2.8875	-2.9021	-2.8625	-2.725	375.853	285.183	137.192	155.741	240.086	347.869	418.519	214.955	268.834	265.793	418.802	414.041	332.471	167.938	208.366	380.484	0.00071553	0.00036585	0.00026247	365.34	5.5686e-06	6.9369e-06	532.4	150.48	4.3308e-06	8.8937e-07	259.45	124.45	72.117	36.792	7.1576e-06	64.909	0.0037225	0.0043765	0.0012366	431.62	4.5421e-05	4.85e-05	597.91	169.89	4.6507e-05	4.7954e-05	296.21	136.94	82.051	41.24	4.6931e-05	71.212	155.149	96.051	192.844	88.996	190.272	210.202	88.637	94.003	173.382	179.353	92.896	95.770	97.166	101.226	208.602	99.494	-8191	255	
2351.045	1	1	0	0	0.074596	0.040784	0.083508	0.09831	0.19594	0.061457	0.18879	0.267	0.069632	0.20487	0.042735	0.17955	0.080647	0.0046353	0.30268	0.17674	-2.3958	-2.9146	-2.6562	-3.0021	-2.6792	-2.8937	-3.175	-2.6208	-2.9354	-2.8563	-2.6958	-3.1437	-2.7146	-2.7542	-3.2083	-2.65	87.322	378.999	186.441	235.488	306.538	207.410	319.694	260.668	323.009	315.872	229.102	373.137	398.310	118.949	364.471	415.549	0.0007345	8.2293e-05	0.00014647	364.92	5.2056e-06	1.0309e-05	532.86	149.74	8.1277e-06	9.5227e-06	261.04	125.3	72.333	37.001	9.6442e-06	65.272	0.0037279	0.0043983	0.0012046	430.04	4.5931e-05	4.842e-05	595.58	169.31	4.6448e-05	4.7916e-05	295.95	138.04	82.286	41.261	4.6147e-05	71.492	157.175	138.524	127.856	88.891	227.719	211.686	88.868	93.904	289.906	245.027	92.743	95.879	97.017	101.254	286.429	99.425	-8191	255	
2351.141	1	1	0	0	0.012343	0.094768	0.08597	0.23353	0.12583	0.090951	0.17588	0.22379	0.19496	0.079261	0.19547	0.26976	0.26075	0.32274	0.13278	0.078925	-2.4437	-2.7812	-2.6021	-2.9854	-2.6792	-2.6375	-3.1	-2.9062	-2.8729	-2.8563	-2.8521	-3.0458	-2.8271	-2.7542	-2.8271	-2.925	361.681	353.147	411.429	352.627	297.933	157.168	76.552	290.678	253.734	181.169	367.062	398.558	382.677	396.842	92.010	100.777	0.00074345	0.00021857	0.00021678	359.51	1.1085e-05	1.1392e-06	527.28	149.23	5.3841e-06	6.5927e-06	261.04	125.8	72.951	37.021	5.8993e-06	65.48	0.0037223	0.0043907	0.0011725	425.38	4.6343e-05	4.8001e-05	591.3	168.9	4.7141e-05	4.8446e-05	296.37	138.85	83.074	41.41	4.6616e-05	71.955	152.883	210.141	146.412	89.181	267.689	217.472	88.634	93.820	199.949	214.784	92.372	96.096	97.149	101.056	160.715	99.429	-8191	255	
2351.237	1	1	0	0	0.014675	0.16794	0.24619	0.30554	0.093205	0.1041	0.11625	0.025516	0.23776	0.075877	0.27628	0.28669	0.082914	0.21721	0.23225	0.16554	-2.2167	-2.8521	-2.5438	-2.8271	-2.8104	-2.6	-2.9188	-2.8771	-2.6979	-2.9417	-2.6417	-3.1	-2.8104	-2.6167	-2.6813	-2.9854	102.377	228.494	347.798	257.583	428.741	191.664	287.021	350.177	321.080	286.629	378.162	102.215	82.755	399.826	77.227	417.029	0.00074691	0.00099732	9.4948e-05	352.37	4.9958e-06	7.3255e-06	522.44	148.21	4.0553e-06	3.7468e-06	261.18	125.98	73.021	36.96	5.456e-06	65.231	0.0037705	0.0044502	0.0011892	421.09	4.674e-05	4.7151e-05	585.6	168.07	4.6427e-05	4.7864e-05	294.89	138.71	82.959	41.19	4.5617e-05	71.542	151.806	212.299	218.256	88.827	96.515	133.865	89.040	94.122	205.047	195.545	92.749	95.650	97.170	101.149	214.970	99.364	-8191	255	
2351.357	1	1	0	0	0.24844	0.17719	0.093988	0.12321	0.22987	0.088499	0.27032	0.10104	0.16783	0.1376	0.082385	0.074892	0.22389	0.40724	0.21623	0.20476	-2.4833	-2.9271	-2.5896	-3.1708	-2.9292	-2.75	-3.0687	-2.8667	-2.7917	-3.1708	-2.575	-2.9125	-2.9125	-2.7667	-3.0896	-2.9958	385.746	382.887	368.451	369.668	185.948	214.939	286.493	163.620	365.329	139.409	88.575	358.363	311.928	390.612	425.412	291.224	0.00075484	0.00031459	0.0002605	350.46	2.0532e-06	7.3216e-06	514.21	148.12	3.7576e-06	3.8144e-06	259.26	126.83	73.284	37.109	4.1106e-06	65.324	0.0036741	0.004285	0.001162	416.31	4.641e-05	4.5623e-05	579.77	168.06	4.5747e-05	4.6446e-05	294.96	139.24	83.174	41.204	4.546e-05	71.747	153.085	394.497	174.500	89.092	137.509	194.148	88.703	93.883	246.347	271.318	92.442	95.932	97.012	101.142	247.705	99.367	-8191	255	
2351.454	1	1	0	0	0.20465	0.086571	0.20141	0.073494	0.15998	0.063926	0.077341	0.26398	0.19305	0.064281	0.10603	0.095939	0.058262	0.11353	0.11386	0.28881	-2.2646	-2.9938	-2.7271	-2.8563	-2.8979	-2.6271	-3.1021	-2.8708	-2.6292	-2.9104	-2.85	-2.9167	-2.9542	-2.6896	-3.1813	-2.9604	221.173	261.072	109.176	397.014	104.980	238.684	429.305	310.946	81.396	297.527	379.115	312.217	317.585	97.458	166.530	405.984	0.00068843	0.00026609	0.00021833	349.07	6.9819e-06	9.5041e-06	512.96	148.59	2.5926e-06	5.1254e-06	263.79	127.71	73.648	37.195	1.1833e-05	65.719	0.0035924	0.0041535	0.0011539	414.02	4.5369e-05	4.3734e-05	577.79	168.77	4.4083e-05	4.5005e-05	297.34	140.31	83.592	41.226	4.4754e-05	72.082	160.760	80.083	81.336	89.337	198.266	303.196	88.735	93.720	271.826	310.643	92.849	95.851	97.180	100.890	253.595	99.735	-8191	255	
2351.550	1	1	0	0	0.13852	0.26975	0.078459	0.16997	0.062835	0.17456	0.17577	0.31757	0.19094	0.48967	0.15432	0.053632	0.15754	0.023236	0.18072	0.13296	-2.1771	-3.0708	-2.6937	-2.7771	-3.1458	-2.7083	-2.9188	-3.0062	-2.65	-3.0812	-2.8021	-2.8	-3	-2.9062	-2.9083	-3.1583	156.059	211.709	281.230	85.852	245.287	114.684	87.187	211.967	80.633	284.003	390.369	392.105	284.897	332.566	279.441	398.687	0.00065036	0.00026151	0.00011901	347.33	1.2037e-06	6.3201e-06	517.35	149.99	4.3313e-06	2.3376e-06	264.44	129.1	74.782	37.468	1.0835e-05	66.444	0.0034552	0.0040853	0.0011428	412.18	4.3997e-05	4.3089e-05	577.97	169.16	4.2118e-05	4.4112e-05	299.02	141.44	84.348	41.481	4.3935e-05	72.868	156.845	297.212	89.810	89.294	176.274	281.266	89.008	93.814	254.548	211.038	92.548	95.831	97.095	100.939	247.301	99.299	-8191	255	
2351.644	1	1	0	0	0.035314	0.14056	0.16562	0.16829	0.092613	0.069739	0.23036	0.1917	0.29078	0.16134	0.10199	0.48851	0.26197	0.11177	0.17148	0.012308	-2.3187	-3.0667	-2.6542	-2.7854	-3.0021	-2.7542	-2.9167	-3.0125	-2.6167	-2.9979	-2.8812	-2.8063	-3.1979	-2.7562	-2.8854	-3.2812	289.459	283.530	284.379	268.937	317.603	264.265	103.616	324.639	370.350	177.786	410.330	421.263	86.457	301.564	265.242	127.281	0.0007009	0.00086806	0.00016575	347.52	7.8289e-06	1.0542e-05	519.43	151.16	7.2023e-06	5.2553e-06	267.59	129.61	74.871	37.321	8.0252e-06	66.062	0.0033465	0.004038	0.0011299	410.66	4.2577e-05	4.264e-05	579.95	170.45	4.0655e-05	4.3614e-05	300.93	141.62	84.1	41.389	4.32e-05	72.279	146.670	216.784	407.390	88.943	243.062	203.745	88.602	93.665	420.578	209.805	92.534	95.622	96.905	101.136	260.992	99.290	-8191	255	
2351.740	1	1	0	0	0.050167	0.068982	0.24453	0.26658	0.10113	0.11143	0.1888	0.1331	0.017486	0.17692	0.17738	0.27163	0.20721	0.16895	0.32028	0.16862	-2.15	-3.0312	-2.6979	-2.6333	-3	-2.7646	-2.8958	-2.9813	-2.6813	-2.9875	-3.0021	-2.925	-3.1521	-2.9896	-2.8667	-2.9708	411.434	310.249	102.528	80.777	229.171	435.331	112.168	325.953	268.217	191.853	401.469	382.257	140.204	426.994	104.266	418.526	0.00070533	0.00055935	0.00019193	348.24	5.7899e-06	1.7348e-06	514.39	150.28	8.7103e-06	1.5215e-06	264.64	128.84	74.799	37.427	3.0192e-06	66.153	0.0032471	0.0039958	0.0011392	410.37	4.1981e-05	4.3101e-05	577.65	169.89	4.0435e-05	4.4137e-05	299	140.82	84.018	41.531	4.3782e-05	72.211	149.330	169.588	144.863	89.188	261.170	200.071	88.713	93.983	247.122	348.798	92.638	95.623	96.748	100.979	427.649	99.326	-8191	255	
2351.836	1	1	0	0	0.10506	0.063012	0.32994	0.065677	0.091152	0.19101	0.02243	0.39646	0.27883	0.13865	0.045211	0.13785	0.26797	0.27236	0.21779	0.16845	-2.0708	-2.8979	-2.8833	-2.625	-3.0833	-2.9104	-2.9104	-3.0687	-2.8229	-2.8292	-3.0667	-2.5771	-2.9813	-3.1021	-2.5833	-3.1729	106.053	286.259	250.940	113.168	140.032	228.632	314.066	387.202	326.692	76.256	250.284	378.031	314.715	425.008	233.629	174.660	0.00069083	0.00098285	0.00015313	349.89	6.4096e-06	2.3671e-06	518.24	151.75	4.3865e-06	5.8196e-06	267.93	130	75.432	37.693	7.3655e-06	66.617	0.003274	0.0040692	0.0011565	410.65	4.2489e-05	4.3656e-05	580.02	170.89	4.1246e-05	4.4577e-05	302.65	141.99	84.961	41.843	4.3957e-05	72.867	148.136	133.067	180.852	88.542	250.850	378.309	88.721	94.019	204.723	191.223	92.684	95.760	97.200	101.151	237.467	99.361	-8191	255	
2351.933	1	1	0	0	0.10692	0.19379	0.10262	0.09662	0.083122	0.37389	0.083429	0.2209	0.29589	0.088341	0.22438	0.33502	0.1714	0.3753	0.156	0.45613	-2.1312	-2.7667	-2.7604	-2.5333	-3.1625	-2.6917	-2.7812	-3.2313	-2.7083	-2.8542	-3.0979	-2.8958	-2.9813	-2.8042	-2.6667	-3.0875	392.875	376.982	318.363	297.661	192.151	130.239	185.301	339.223	245.319	431.045	196.289	418.490	336.883	317.695	224.654	85.163	0.00075395	0.00075785	0.00015641	352.7	1.1101e-05	6.2229e-06	517.56	152.21	4.5117e-06	8.9084e-06	266.08	129.54	75.432	37.805	6.2459e-06	67.122	0.0033599	0.0041398	0.0011885	412.85	4.4156e-05	4.5478e-05	583.37	171.77	4.2851e-05	4.5937e-05	302.84	142.08	85.112	42.09	4.4505e-05	73.376	151.301	177.467	414.871	89.027	218.584	112.091	89.044	94.085	200.427	171.102	92.535	95.937	97.085	101.081	177.271	99.284	-8191	255	
2352.029	1	1	0	0	0.24632	0.1958	0.19037	0.052013	0.057605	0.14989	0.13147	0.26021	0.13109	0.018042	0.13929	0.13417	0.28749	0.14218	0.13	0.030276	-2.3063	-2.8042	-2.9042	-2.65	-3.0187	-2.7687	-2.75	-3.0438	-2.9375	-2.8458	-3.0729	-2.7729	-3.0229	-3.025	-2.6042	-3.075	255.636	242.099	278.749	125.314	297.412	165.930	218.412	422.226	368.025	337.315	384.110	312.651	393.243	379.959	227.480	344.363	0.00079772	0.00034759	9.4583e-05	355.39	8.644e-06	7.8059e-06	520.33	153.65	5.431e-06	7.5444e-06	268.66	130.71	75.495	38.077	2.1211e-06	66.798	0.0034792	0.0042174	0.0011956	414.47	4.4713e-05	4.6134e-05	584.74	172.73	4.348e-05	4.6119e-05	305.04	142.88	85.696	42.377	4.3973e-05	73.367	147.109	338.700	113.740	89.351	200.441	196.625	89.036	93.900	253.697	198.942	92.408	95.943	96.899	101.113	255.329	99.410	-8191	255	
2352.149	1	1	0	0	0.25751	0.19147	0.097548	0.054821	0.2044	0.14295	0.11016	0.11165	0.18408	0.20206	0.15272	0.16869	0.14256	0.08287	0.23087	0.13404	-2.3063	-2.8604	-2.9625	-2.7729	-3.0021	-2.9042	-2.8167	-3.0917	-2.7583	-2.6312	-3.1292	-2.8792	-2.9104	-3.0167	-2.6979	-3.0625	313.131	386.864	322.046	82.985	424.059	102.320	148.983	302.476	255.273	178.223	132.351	334.073	321.645	412.117	364.398	304.556	0.00067704	0.00048306	3.8166e-05	350.25	4.502e-06	4.9852e-06	515.94	153.61	4.9139e-06	3.7812e-06	265.91	130.02	75.637	37.9	5.3926e-06	66.608	0.0035152	0.004234	0.0011938	413.37	4.541e-05	4.6929e-05	579.3	172.81	4.4225e-05	4.6104e-05	302.52	142.34	85.606	42.271	4.3199e-05	73.029	147.051	183.969	289.000	89.095	211.099	328.713	88.613	93.676	219.598	242.659	92.587	95.757	96.773	101.114	249.883	99.269	-8191	255	
2352.221	1	1	0	0	0.36728	0.093712	0.063761	0.25917	0.32966	0.21451	0.11137	0.26724	0.1807	0.11599	0.18044	0.13185	0.1672	0.16684	0.17511	0.27187	-2.3833	-2.6396	-2.9604	-2.6167	-2.9208	-2.8979	-2.7292	-2.8896	-2.7	-2.8146	-2.9792	-2.7125	-2.9	-2.9708	-2.7396	-2.9896	362.809	418.766	424.324	169.497	283.803	136.608	256.762	204.788	222.312	132.482	434.902	397.402	108.768	335.685	103.957	346.205	0.00083829	0.00030942	0.0001045	349.67	6.0474e-06	1.8941e-06	512.52	152.69	1.1768e-06	1.5082e-06	269.04	131.25	76.469	37.985	8.6323e-06	66.819	0.0036074	0.0042286	0.0011739	410.84	4.5394e-05	4.6734e-05	573.46	172.62	4.4615e-05	4.5066e-05	304.21	143.56	86.207	42.314	4.2479e-05	73.171	151.685	255.518	90.570	89.241	176.098	91.994	88.921	93.663	271.584	331.703	92.629	95.436	96.722	101.016	274.013	99.274	-8191	255	
2352.317	1	1	0	0	0.21294	0.25612	0.12781	0.055861	0.11948	0.22001	0.20151	0.32121	0.2089	0.27611	0.022654	0.27797	0.37177	0.075558	0.061074	0.18545	-2.3896	-2.6125	-3.0812	-2.7188	-2.6083	-2.9021	-2.6646	-3.0062	-2.8292	-2.6896	-2.8667	-2.7646	-2.5896	-3.1813	-2.7375	-3.125	185.210	103.527	245.078	328.966	432.094	408.626	358.076	77.055	148.501	277.122	355.623	99.808	425.786	223.375	241.157	141.225	0.0007297	0.00090575	0.00010236	345.01	1.1992e-05	5.0007e-06	511.5	151.95	2.5075e-06	2.6737e-06	268.98	131.87	76.754	38.01	7.5958e-06	67.224	0.0035896	0.0041087	0.0011613	407.3	4.4941e-05	4.6011e-05	571.03	172.36	4.4867e-05	4.409e-05	304.4	144.4	86.526	42.342	4.3004e-05	73.482	154.195	183.348	84.680	89.279	162.861	270.662	88.771	93.513	92.896	122.729	92.538	95.541	96.892	101.063	219.285	99.110	-8191	255	
2352.438	1	1	0	0	0.15427	0.12273	0.080893	0.081145	0.064851	0.031752	0.2463	0.131	0.15681	0.080723	0.17256	0.14797	0.10603	0.23912	0.2855	0.17815	-2.4125	-2.6542	-2.8563	-2.9021	-2.8604	-3.05	-2.7958	-2.95	-3.1458	-2.6771	-2.9292	-2.8688	-2.6583	-3.0896	-2.6688	-3.0417	360.602	115.666	392.969	262.023	192.250	98.955	432.074	359.009	146.127	114.384	352.719	381.826	376.051	433.402	248.749	358.662	0.00072401	0.00049907	0.00013853	343.69	6.9443e-06	2.879e-06	505.43	153.01	5.8262e-06	7.3473e-06	269.27	132.5	77.036	38.28	3.6215e-06	67.376	0.0036299	0.0040333	0.0011731	405.79	4.4528e-05	4.5258e-05	569.81	172.31	4.5e-05	4.3576e-05	304.83	144.95	86.652	42.497	4.4072e-05	73.898	146.407	252.813	103.983	89.319	240.775	244.766	88.804	93.843	180.780	201.185	92.819	95.643	96.559	100.749	218.630	99.271	-8191	255	
2352.534	1	1	0	0	0.12022	0.21524	0.08749	0.14024	0.23603	0.25306	0.18824	0.34634	0.073239	0.14413	0.051961	0.16876	0.14649	0.25171	0.18448	0.33424	-2.4875	-2.6271	-2.9646	-2.7583	-2.8208	-3.1125	-2.8583	-2.9437	-2.8604	-2.675	-2.9083	-3.025	-2.7292	-3.0062	-2.7188	-2.9229	285.559	304.872	192.461	402.619	270.758	306.383	418.667	357.470	177.594	145.731	206.403	91.917	230.285	389.945	142.602	380.207	0.00070823	0.00029477	0.00013253	339.41	2.2143e-06	6.0073e-06	504.77	151.48	5.6641e-06	1.5178e-06	267.65	131.35	76.379	38.171	7.8011e-06	66.855	0.0036549	0.0040266	0.0011981	405	4.4674e-05	4.5797e-05	567.88	171.66	4.5822e-05	4.4248e-05	304.09	144.6	86.387	42.432	4.5284e-05	73.42	152.623	116.202	157.331	89.276	297.248	243.090	88.987	93.982	211.693	207.918	92.355	95.766	96.902	100.667	200.329	99.285	-8191	255	
2352.630	1	1	0	0	0.15751	0.062855	0.18475	0.10839	0.02723	0.14049	0.15999	0.20587	0.030748	0.1678	0.072766	0.22907	0.11166	0.27804	0.1112	0.29708	-2.6229	-2.6021	-2.8187	-2.8187	-2.6542	-3.0187	-2.875	-2.7354	-2.8208	-2.6396	-2.7167	-2.8875	-2.7812	-3.15	-2.6021	-2.8604	172.022	378.517	154.631	78.402	361.854	144.761	350.222	409.759	321.683	322.680	362.056	399.960	130.027	396.836	213.316	403.046	0.00066254	0.00019989	7.8436e-05	339.3	7.8461e-07	8.4795e-06	500.58	150.97	2.8337e-07	6.9763e-06	266.97	131.14	76.596	38.194	2.908e-06	66.866	0.0036509	0.004068	0.001209	403.59	4.408e-05	4.6567e-05	563.61	170.95	4.5272e-05	4.4732e-05	302.55	144.01	86.267	42.494	4.5758e-05	73.35	147.849	221.014	158.433	88.948	188.916	263.491	88.935	93.965	134.378	299.727	92.422	95.728	96.801	101.049	227.662	99.436	-8191	255	
2352.749	1	1	0	0	0.037079	0.11798	0.084639	0.17482	0.13275	0.12957	0.10825	0.16868	0.25406	0.21849	0.015042	0.25809	0.074962	0.094404	0.24173	0.087035	-2.5812	-2.6167	-2.8542	-2.8937	-2.6708	-2.8875	-2.9167	-2.8667	-3.125	-2.7104	-3.1104	-3.1583	-2.7604	-2.8854	-2.7458	-2.7375	419.847	123.583	383.541	103.567	344.652	94.923	292.204	169.588	392.180	102.853	80.942	428.691	163.315	98.632	308.045	299.720	0.00068608	0.00071381	0.0001256	336.48	5.3137e-06	1.6969e-05	499.87	151.76	6.7444e-06	3.1792e-06	265.71	131.07	76.455	38.299	1.237e-06	66.932	0.0036067	0.0041334	0.00122	403.28	4.3751e-05	4.7135e-05	564.04	170.96	4.4826e-05	4.5779e-05	302.31	143.95	86.041	42.525	4.6516e-05	73.415	148.750	135.577	101.762	89.229	290.813	218.935	88.955	93.796	138.246	427.806	92.469	95.616	96.742	100.957	357.176	99.188	-8191	255	
2352.821	1	1	0	0	0.075722	0.17723	0.093624	0.1689	0.13894	0.075742	0.068731	0.25568	0.20533	0.024533	0.16781	0.036271	0.11133	0.27073	0.038094	0.11738	-2.7333	-2.7	-2.8021	-3.0604	-2.8	-2.9813	-2.8958	-2.7458	-2.8583	-2.8021	-2.7917	-3.0333	-2.6958	-3.0208	-2.9688	-2.8479	242.003	96.738	333.634	309.506	410.884	218.939	354.812	390.915	215.302	369.667	340.262	77.199	364.130	105.120	374.957	311.903	0.00064898	0.00032259	0.00022253	337.36	1.7277e-06	3.4732e-06	501.24	151.27	4.8721e-06	4.8858e-06	266.48	131.82	76.731	38.285	4.4252e-06	67.346	0.0036024	0.0042272	0.0012187	403.22	4.38e-05	4.7166e-05	566.09	171.18	4.4985e-05	4.6803e-05	303.28	144.7	86.449	42.763	4.6991e-05	73.776	148.957	112.610	392.092	89.452	263.626	253.853	88.808	94.114	212.697	215.306	92.459	95.568	96.934	100.918	224.409	99.118	-8191	255	
2352.917	1	1	0	0	0.19885	0.23664	0.10509	0.17592	0.26257	0.37169	0.06325	0.1267	0.063678	0.17839	0.1083	0.02295	0.12295	0.17349	0.14405	0.25567	-2.5104	-2.8625	-2.8187	-2.925	-2.7333	-2.9958	-2.9792	-2.7708	-2.8521	-2.8812	-2.6958	-3.0979	-2.8146	-2.9813	-3.0521	-2.8521	186.137	262.477	392.838	137.549	350.146	167.472	345.458	320.124	126.447	236.048	346.205	381.488	188.954	370.073	79.575	359.290	0.00076287	0.00046867	0.0001389	336.7	6.9053e-06	4.6044e-06	500.52	150.98	8.884e-06	1.8184e-06	266.98	132.18	76.718	38.353	5.806e-06	67.133	0.0036298	0.0042864	0.0012342	403.14	4.4626e-05	4.7764e-05	567.87	170.78	4.5586e-05	4.7158e-05	303.44	144.67	86.58	42.725	4.7473e-05	73.44	147.372	276.666	177.156	89.472	270.425	167.618	88.962	93.510	215.186	177.281	92.377	95.639	96.844	100.861	268.985	98.978	-8191	255	
2353.037	1	1	0	0	0.11	0.20178	0.12212	0.22388	0.031215	0.12491	0.28119	0.10049	0.11802	0.24779	0.071394	0.34067	0.20304	0.14487	0.15852	0.02192	-2.7292	-2.7896	-2.6354	-3.0438	-2.7833	-2.8771	-3.05	-2.8604	-2.8688	-2.8312	-2.8229	-3.1875	-2.8	-2.975	-2.9604	-2.8729	196.109	93.195	389.812	286.442	122.109	170.521	299.918	323.797	383.993	119.803	166.934	378.661	158.819	303.896	425.460	429.012	0.00072671	0.0010324	4.5101e-05	340.34	3.9178e-06	8.8269e-06	497.2	151.46	2.0226e-06	1.2469e-05	265.79	131.06	76.501	38.129	5.3302e-06	66.802	0.0036705	0.0043617	0.0012151	403.05	4.5039e-05	4.8043e-05	565.57	170.76	4.6021e-05	4.8046e-05	301.98	143.85	86.668	42.656	4.7666e-05	73.198	155.394	145.641	414.507	89.140	176.051	187.602	88.952	93.892	221.930	205.856	92.495	95.652	96.724	100.715	293.280	99.165	-8191	255	
2353.134	1	1	0	0	0.14477	0.1579	0.28723	0.1659	0.37075	0.076496	0.27399	0.13668	0.082968	0.15693	0.14439	0.30065	0.11548	0.082814	0.3927	0.22384	-2.6146	-2.8417	-2.6208	-2.9542	-2.8104	-3.0833	-3.1521	-2.7708	-3.0396	-2.9208	-2.6854	-3.1917	-2.7812	-2.4854	-3.1208	-2.7938	311.661	115.652	206.448	393.505	132.883	222.467	385.658	362.425	109.474	176.920	82.320	393.962	302.465	373.628	252.206	411.458	0.00075814	0.00031459	0.00016052	337.77	5.0044e-06	4.4427e-06	500.3	150.33	2.7946e-06	1.9132e-06	264.92	131.29	76.626	38.472	6.1088e-06	66.955	0.003738	0.0044676	0.0012198	404.45	4.6481e-05	4.8702e-05	567.09	170.72	4.6984e-05	4.9095e-05	301.98	144.17	86.872	42.834	4.7208e-05	73.581	150.060	203.930	168.691	89.479	218.640	183.718	89.030	93.675	185.322	248.122	92.601	95.590	96.773	100.778	293.799	99.255	-8191	255	
2353.230	1	1	0	0	0.053442	0.03247	0.25436	0.1006	0.041819	0.25143	0.19654	0.15472	0.14752	0.20672	0.10526	0.39426	0.11912	0.020258	0.02596	0.08977	-2.6042	-2.9042	-2.4729	-3.0062	-2.9396	-2.95	-2.9354	-2.9146	-2.9646	-2.9396	-2.7875	-2.975	-2.9875	-2.8625	-3.0979	-2.8688	408.947	119.250	350.899	207.257	196.035	85.470	378.717	303.347	359.731	418.215	410.539	395.960	257.011	95.213	108.537	405.452	0.00073029	0.00030467	8.415e-05	340.97	7.0617e-06	2.1302e-06	503.23	151.3	5.7858e-06	5.9958e-06	267.61	131.46	76.786	38.649	3.7554e-06	67.566	0.0037805	0.0045439	0.0012036	407.49	4.7194e-05	4.8768e-05	570.11	171.89	4.7102e-05	4.956e-05	303.17	144.67	87.179	43.044	4.7134e-05	74.131	146.060	213.662	259.806	89.507	274.355	232.752	88.696	94.188	311.461	216.909	92.567	95.789	96.804	100.799	229.675	99.261	-8191	255	
2353.350	1	1	0	0	0.33598	0.10343	0.093325	0.21565	0.032226	0.058378	0.022744	0.14073	0.23586	0.13276	0.18616	0.2415	0.062717	0.15559	0.13028	0.087022	-2.4479	-2.9833	-2.6521	-3.15	-2.925	-2.7021	-2.9833	-2.8021	-2.8063	-2.7646	-2.8229	-3.1354	-2.7958	-2.6417	-3.0583	-2.8896	430.641	183.383	429.856	200.985	191.777	77.786	429.211	432.716	159.696	341.576	259.613	360.665	316.738	329.355	266.595	149.107	0.00078446	0.00073181	0.00017637	343.08	6.4809e-06	7.5884e-06	505.15	152.43	2.4014e-06	4.9542e-06	266.74	131.82	76.669	38.688	8.0051e-06	67.552	0.0038077	0.0045716	0.0012068	411.78	4.8529e-05	4.8936e-05	574.96	172.82	4.7996e-05	5.017e-05	303.46	145.11	87.4	43.183	4.7986e-05	74.436	152.753	164.063	108.187	89.164	204.161	289.833	88.783	93.930	134.190	213.179	92.868	95.633	96.651	101.021	251.977	99.197	-8191	255	
2353.447	1	1	0	0	0.20325	0.13403	0.16926	0.1594	0.16248	0.12228	0.21352	0.23293	0.12135	0.057992	0.3224	0.23179	0.16315	0.20202	0.32176	0.081753	-2.4062	-3.05	-2.5229	-2.9188	-2.8333	-2.6646	-3.1625	-2.7562	-2.7562	-2.8729	-2.7479	-2.9958	-2.9375	-2.6479	-2.9396	-3.0312	140.331	315.397	77.059	206.311	403.265	180.989	357.121	406.099	270.852	86.079	365.509	235.727	150.386	369.934	135.098	379.704	0.00077721	0.00061906	7.7711e-05	347.17	3.3818e-06	2.5909e-06	509.35	152.07	5.0784e-06	5.7801e-06	266.69	131.01	76.566	38.54	6.1226e-06	67.24	0.0038547	0.0045974	0.0012271	414.51	4.9206e-05	4.8585e-05	576.15	173.04	4.8226e-05	4.9626e-05	302.86	144.28	87.156	42.967	4.8292e-05	73.964	148.764	228.040	180.929	89.280	179.417	202.337	89.025	93.652	341.878	250.141	92.488	95.682	96.772	101.253	231.629	99.233	-8191	255	
2353.518	1	1	0	0	0.21556	0.17729	0.32916	0.39774	0.24584	0.18704	0.068375	0.12574	0.031557	0.18095	0.23203	0.12963	0.14156	0.098397	0.23066	0.22108	-2.2146	-3.0354	-2.8063	-2.8646	-3.0354	-2.7188	-3.2313	-2.9167	-2.9	-3.0896	-2.9875	-2.9646	-3.0792	-2.9125	-3.0271	-3.0583	255.734	339.544	227.456	130.763	309.334	161.889	409.442	232.533	374.155	329.128	183.846	331.403	82.920	215.813	139.311	395.746	0.00060648	0.00022817	5.7163e-05	347.9	1.4353e-06	6.341e-06	508.89	152.73	5.8303e-07	8.4037e-06	266.61	131.79	76.732	38.826	1.3159e-05	67.464	0.0038461	0.0045139	0.0012463	414.33	4.9563e-05	4.7718e-05	576.13	173.62	4.7617e-05	4.88e-05	303.84	144.54	87.332	43.11	4.8493e-05	74.386	149.616	168.080	153.120	89.213	97.988	203.216	89.086	93.847	229.392	281.689	92.506	95.583	96.850	100.702	193.023	99.388	-8191	255	
2353.614	1	1	0	0	0.24838	0.099145	0.084242	0.10037	0.23523	0.28293	0.26147	0.081734	0.25392	0.18991	0.15558	0.30223	0.1486	0.35776	0.31811	0.3	-2.4167	-2.9875	-2.6604	-2.8875	-2.9542	-2.6688	-2.9938	-2.9562	-2.7042	-2.8812	-2.7229	-3.0354	-2.9854	-2.6458	-3.0208	-3.0812	274.392	259.337	139.942	408.449	242.723	325.252	378.662	391.079	362.552	150.530	105.512	84.952	86.422	367.915	418.096	135.939	0.0007073	0.00019043	0.00025055	342.7	5.7796e-06	1.5593e-06	509.24	152.83	5.1541e-06	6.2484e-06	268.02	131.79	76.734	38.858	8.7474e-06	67.522	0.0038071	0.0044548	0.001265	414.57	4.878e-05	4.7504e-05	578.33	174.23	4.7138e-05	4.8553e-05	305.54	145.13	87.468	43.264	4.8429e-05	74.735	147.382	209.053	158.572	89.219	211.722	133.391	89.145	93.858	157.968	223.885	92.707	95.751	97.076	101.200	259.433	99.489	-8191	255	
2353.711	1	1	0	0	0.085256	0.15084	0.17803	0.19985	0.13417	0.24402	0.21245	0.30375	0.076731	0.01586	0.13281	0.034053	0.31647	0.31497	0.16344	0.040689	-2.2146	-3.025	-2.6854	-2.8063	-3.0125	-2.7417	-3.0812	-2.9479	-2.775	-3.1583	-3.0292	-2.7812	-2.9729	-2.825	-2.7438	-2.9813	240.463	277.810	186.966	310.276	197.211	111.599	375.271	385.933	158.779	280.180	367.074	303.723	390.487	403.402	431.914	327.128	0.00072695	0.00077289	0.00019943	349.53	2.0993e-06	6.2865e-06	517.65	153.42	4.5146e-06	8.85e-06	269.75	131.47	77.316	38.934	6.2668e-07	67.946	0.0037374	0.0044704	0.0012667	419.28	4.8137e-05	4.7876e-05	583.67	175.06	4.591e-05	4.9015e-05	306.4	145.31	87.562	43.371	4.8279e-05	74.798	153.490	193.698	194.336	89.069	145.653	232.487	89.217	93.755	166.197	248.106	92.457	95.494	97.036	101.104	105.173	99.180	-8191	255	
2353.829	1	1	0	0	0.04417	0.27463	0.17273	0.32171	0.12302	0.095625	0.076243	0.14236	0.13016	0.067239	0.16418	0.28547	0.12819	0.04085	0.13877	0.20334	-2.1708	-3.0729	-2.85	-2.75	-3.15	-2.8604	-3.075	-3.0708	-2.8771	-3.0104	-2.7167	-2.6937	-3.0833	-2.9208	-2.8292	-3.0812	232.554	283.547	227.303	357.077	152.581	186.634	378.193	426.473	263.513	369.305	135.347	348.753	106.411	128.953	385.230	392.753	0.00067143	0.0006911	7.2913e-05	347.27	4.4855e-06	8.7521e-06	513.78	150.87	2.1901e-06	5.5522e-06	263.41	128.88	75.082	38.419	8.6731e-06	66.735	0.0036617	0.0044897	0.001289	417.11	4.7686e-05	4.8791e-05	580.96	172.15	4.6097e-05	4.9642e-05	300.99	142.09	85.582	42.843	4.8868e-05	73.675	150.240	249.058	411.183	89.768	243.728	196.133	88.732	93.920	388.099	174.797	92.549	95.764	96.898	101.070	232.645	99.415	-8191	255	
2353.926	1	1	0	0	0.069033	0.089782	0.13549	0.17312	0.11401	0.20005	0.11637	0.14361	0.26821	0.092812	0.23422	0.13838	0.19219	0.087597	0.25612	0.32525	-2.2375	-2.8458	-3.0833	-2.5521	-3.0187	-2.6937	-2.9417	-2.9458	-2.6958	-2.9979	-3.0229	-2.8354	-3.2	-2.7708	-2.8896	-3.2833	226.632	407.889	231.172	182.105	327.202	413.384	344.725	401.349	434.355	187.413	392.905	121.996	91.660	142.811	163.868	316.411	0.00077365	0.00029091	9.1361e-05	343.42	4.9988e-06	6.7718e-06	498.11	142.99	3.7795e-06	3.7478e-06	250.52	125.26	72.245	37.53	5.1488e-06	65.56	0.0036744	0.0045152	0.0012982	410.46	4.6793e-05	4.8431e-05	565.63	163.65	4.4735e-05	4.7551e-05	286.49	137.42	82.265	41.956	4.6141e-05	72.133	150.033	122.064	111.342	89.083	214.976	285.720	88.846	93.749	267.751	177.103	92.738	95.810	96.804	100.710	227.321	99.091	-8191	255	
2354.022	1	1	0	0	0.21268	0.23954	0.08784	0.057668	0.098094	0.14921	0.1741	0.018674	0.32313	0.12094	0.077534	0.20299	0.31186	0.20841	0.077519	0.063798	-2.1146	-2.8104	-2.8521	-2.7521	-2.9854	-2.8458	-2.8063	-3.1083	-2.6813	-2.8896	-2.9875	-2.6729	-2.8875	-2.8292	-2.7375	-3.1229	384.472	419.566	362.082	368.421	92.864	158.210	388.288	394.504	298.373	347.660	277.470	310.190	125.531	428.100	153.813	296.512	0.00070571	0.00022823	0.00016304	330.37	1.2081e-05	9.9456e-07	487.03	135.37	6.6306e-06	5.874e-06	236.59	120.57	69.707	37.226	4.2498e-06	65.292	0.0035026	0.0042499	0.0012314	395.06	4.4428e-05	4.6615e-05	549.81	154.76	4.3197e-05	4.5629e-05	273.66	132.52	78.993	41.427	4.4539e-05	71.568	148.292	167.993	371.666	89.106	235.216	275.456	88.822	93.904	219.891	242.226	93.009	95.582	96.734	100.561	260.804	98.895	-8191	255	
2354.118	1	1	0	0	0.29344	0.1069	0.26291	0.22376	0.089924	0.41713	0.23617	0.19929	0.28398	0.13598	0.25481	0.18678	0.27183	0.11343	0.029906	0.12485	-2.5083	-2.9521	-3.0021	-2.6021	-2.9604	-2.9	-2.7708	-3.0938	-2.7917	-2.9854	-2.9146	-2.7417	-3.0729	-2.9125	-2.7375	-3.0104	396.521	410.039	172.981	144.690	335.543	147.242	260.017	108.279	331.912	207.325	422.800	363.393	114.255	434.847	349.747	404.856	0.00081989	0.00016213	0.0001615	327.95	2.1184e-06	1.1255e-05	478.34	129.26	4.4378e-06	3.971e-06	228.88	116.69	66.779	37.029	6.4119e-06	65.159	0.0034355	0.004115	0.0011864	386.46	4.288e-05	4.5296e-05	539.09	147.6	4.2323e-05	4.4055e-05	262.65	127.96	76.1	41.223	4.1988e-05	71.286	151.092	145.928	174.887	89.149	246.361	260.906	88.594	93.894	161.066	255.895	92.808	95.535	96.920	100.372	152.456	98.808	-8191	255	
2354.214	1	1	0	0	0.0733	0.05053	0.094863	0.1457	0.2315	0.13465	0.12181	0.029371	0.23428	0.26286	0.055862	0.29507	0.15179	0.28655	0.12658	0.31732	-2.3167	-2.7792	-3.1979	-2.7062	-3.0542	-2.9354	-2.6312	-3.1083	-2.85	-2.7125	-2.9813	-2.9208	-3.0354	-2.9208	-2.8688	-3.1562	129.811	245.962	332.761	300.273	358.090	404.315	83.591	345.931	209.619	236.162	306.521	145.293	368.718	82.748	116.575	394.289	0.00071433	0.00074387	8.6527e-05	327.05	6.9699e-06	7.3517e-07	472.87	124.3	5.6745e-06	5.3154e-06	220.85	112.48	64.462	36.73	8.9562e-06	64.294	0.0033735	0.0040087	0.0011375	384.35	4.2138e-05	4.5114e-05	534.31	142.77	4.223e-05	4.3759e-05	253.74	124.03	73.638	40.822	4.0946e-05	70.228	146.956	160.397	163.059	89.159	209.477	323.545	88.744	94.234	182.814	127.299	92.549	95.588	96.829	99.987	268.404	98.403	-8191	255	
2354.310	1	1	0	0	0.15552	0.15771	0.18248	0.2392	0.31932	0.072232	0.046442	0.18592	0.2382	0.19149	0.26062	0.08857	0.25053	0.20515	0.12942	0.023111	-2.4938	-2.6417	-3.0438	-2.8917	-2.9271	-2.9292	-2.6875	-3.1437	-2.7646	-2.9229	-3.0729	-2.8854	-2.9417	-3.0646	-2.725	-3.0125	245.959	248.153	86.475	85.273	344.383	213.113	139.654	292.076	111.391	89.728	313.022	127.763	394.770	357.156	304.869	287.629	0.00070574	0.00012245	0.00024038	320.79	5.9492e-06	3.2321e-06	461.47	119.01	2.335e-06	6.8592e-07	210.08	107.19	61.272	35.926	4.6825e-06	62.847	0.0033531	0.0039031	0.0010947	378.54	4.1357e-05	4.3518e-05	520.55	136.75	4.0685e-05	4.107e-05	240.89	118.03	69.951	39.656	3.789e-05	68.742	146.276	231.344	222.497	88.689	187.182	242.816	88.507	94.232	159.005	377.904	92.722	95.936	97.145	100.173	230.668	98.745	-8191	255	
2354.431	1	1	0	0	0.24142	0.056447	0.21613	0.25685	0.21296	0.049935	0.20409	0.089821	0.26114	0.17884	0.099797	0.15486	0.23738	0.29434	0.11819	0.37233	-2.4375	-2.5167	-3.0375	-2.8771	-2.8771	-3.0646	-2.7188	-2.9083	-2.9625	-2.7604	-2.9417	-2.7646	-2.8104	-3.0917	-2.7875	-3.1917	190.719	92.087	346.728	116.643	175.847	356.464	341.078	417.314	173.728	156.988	430.450	129.270	400.004	421.819	259.077	406.436	0.00069663	0.00078224	0.0001647	317.59	1.6083e-06	3.3166e-06	456.5	114.96	3.3234e-06	3.0807e-06	202.4	102.67	58.415	35.056	9.1495e-06	61.836	0.0031623	0.0035931	0.0010091	371.04	3.8549e-05	4.0118e-05	509.65	131.36	3.8237e-05	3.7995e-05	231.5	112.9	66.601	38.609	3.5772e-05	67.26	151.583	208.135	260.019	88.742	397.860	118.558	88.734	94.192	241.453	183.704	93.212	95.683	97.251	100.118	251.446	98.516	-8191	255	
2354.527	1	1	0	0	0.095478	0.016089	0.11311	0.1096	0.28916	0.26075	0.17631	0.26325	0.1396	0.20025	0.11491	0.27387	0.016684	0.12506	0.018013	0.29432	-2.5062	-2.8021	-2.8604	-2.7375	-2.7687	-3.0646	-2.7521	-2.8833	-2.8583	-2.65	-3.0208	-2.8229	-2.7292	-3.2333	-2.6896	-3.0083	435.644	316.827	203.780	284.009	230.370	384.047	415.418	334.350	78.045	419.026	326.074	80.596	285.374	116.878	82.621	156.446	0.00072683	0.00072212	0.00016577	313.64	3.1901e-06	5.2352e-06	452.73	110.82	7.0078e-06	3.0808e-06	194.46	97.252	55.349	34.069	1.9819e-06	60.411	0.0029847	0.0033184	0.00093431	364.75	3.5354e-05	3.6332e-05	501.92	125.73	3.5611e-05	3.4662e-05	221.58	106.68	62.69	37.346	3.3657e-05	65.631	151.639	171.805	432.596	88.856	167.828	261.951	88.446	93.733	278.452	306.156	92.934	96.156	97.198	100.006	148.318	98.559	-8191	255	
2354.623	1	1	0	0	0.030039	0.12937	0.029061	0.25544	0.07303	0.17941	0.089249	0.19972	0.33975	0.010772	0.07636	0.14073	0.17563	0.11808	0.33296	0.20332	-2.4729	-2.8021	-3.0771	-2.7562	-2.9437	-3.1146	-2.7521	-2.875	-3.0125	-2.8563	-3.1479	-3.0563	-2.7521	-3.1396	-2.7438	-3.0354	379.656	76.252	264.690	370.764	299.286	231.410	349.961	315.160	306.873	188.727	278.921	405.681	139.586	106.335	343.517	398.882	0.0006516	0.00041533	0.0001074	321.81	4.7258e-06	9.7495e-06	458.98	109.68	3.06e-06	3.9768e-06	189.6	91.268	52.242	32.518	5.5594e-06	58.797	0.0027829	0.0030635	0.00087661	370.1	3.322e-05	3.3868e-05	507.71	124.08	3.3146e-05	3.2216e-05	215.09	100.28	58.904	35.656	3.1366e-05	63.542	154.902	217.202	187.371	88.713	232.683	189.960	88.184	93.276	229.804	211.071	92.596	96.088	97.092	100.478	228.694	98.518	-8191	255	
2354.719	1	1	0	0	0.24618	0.2653	0.27587	0.14677	0.29699	0.14543	0.028097	0.15969	0.30638	0.2553	0.19537	0.14096	0.13128	0.15261	0.090476	0.14643	-2.5187	-2.625	-3.0167	-2.8	-2.8187	-3.1104	-3.0062	-2.8229	-2.8688	-2.8563	-2.9375	-2.725	-2.5375	-3.2562	-2.7188	-2.9792	326.110	399.367	255.340	419.550	368.410	370.560	139.746	389.871	349.793	287.809	360.432	358.852	290.174	214.338	392.465	323.917	0.00049787	7.9871e-05	0.00019559	317.65	3.0797e-06	3.0635e-06	449.6	106.5	7.4633e-06	3.0757e-06	181.89	86.181	49.041	31.369	4.4964e-06	57.047	0.0025498	0.002797	0.00080362	363.85	2.9664e-05	3.0487e-05	495.12	119.61	2.9831e-05	2.9672e-05	205.98	94.771	55.621	34.397	2.9943e-05	61.594	153.014	431.344	88.604	88.408	243.963	200.441	87.932	93.691	181.507	381.378	92.453	95.877	97.150	100.519	195.024	98.378	-8191	255	
2354.814	1	1	0	0	0.17584	0.35777	0.19603	0.14061	0.09747	0.20269	0.20872	0.27754	0.074181	0.072672	0.18567	0.15088	0.17205	0.14786	0.050991	0.10552	-2.6188	-2.7229	-3.0208	-2.8146	-2.6688	-3.1	-2.8208	-2.7792	-3.1208	-2.7938	-2.9604	-3.0021	-2.9188	-2.9104	-2.8396	-2.8167	171.737	242.715	230.415	402.287	166.143	425.379	90.599	408.779	142.776	100.867	153.112	99.622	368.678	332.764	83.655	301.424	0.00059839	0.00035065	0.00012155	314.3	8.9602e-06	2.4194e-06	446.03	105.36	4.3958e-06	2.2631e-06	181.27	83.952	47.8	30.682	4.0767e-06	55.666	0.002372	0.0026923	0.0007744	359.44	2.8643e-05	2.9965e-05	490.25	118.61	2.9368e-05	2.9848e-05	203.89	92.243	54.305	33.602	3.0726e-05	60.157	146.518	192.885	188.873	88.270	195.299	276.172	88.200	93.463	219.870	194.371	92.813	95.737	97.095	100.215	230.702	98.670	-8191	255	
2354.910	1	1	0	0	0.18164	0.22735	0.22541	0.17204	0.11547	0.20411	0.14071	0.39196	0.10654	0.077451	0.18941	0.051892	0.29646	0.14482	0.085818	0.22602	-2.6542	-2.5854	-2.9062	-3.0187	-2.5646	-2.9042	-2.9333	-2.8646	-2.9542	-2.9021	-3	-3.0208	-2.5896	-3.1188	-2.8792	-2.6813	111.122	372.641	393.540	431.294	228.180	284.758	202.878	371.385	300.484	251.854	141.359	209.392	138.743	160.248	400.073	289.206	0.00055267	0.00059051	5.721e-05	320.88	5.3019e-06	2.9524e-07	451.69	105.19	5.343e-06	3.8045e-06	178.02	79.984	45.734	29.151	2.3345e-06	53.419	0.0023798	0.0027863	0.00078543	364.61	2.8611e-05	2.9884e-05	495.81	118.29	2.8708e-05	2.9631e-05	200.99	87.989	51.804	31.948	2.96e-05	57.729	146.109	230.427	107.939	88.585	234.737	377.575	88.277	93.214	202.397	249.580	92.489	96.158	96.754	100.110	153.287	98.529	-8191	255	
2355.006	1	1	0	0	0.22901	0.081607	0.055374	0.37151	0.080727	0.067135	0.16286	0.11646	0.26609	0.19566	0.17328	0.097963	0.30814	0.16009	0.15701	0.42981	-2.7458	-2.7917	-2.8438	-2.9625	-2.6354	-2.9542	-3.0396	-2.625	-2.9417	-2.7271	-2.8187	-3.0021	-2.6937	-2.9583	-2.8688	-2.6542	274.875	356.720	419.379	90.141	250.705	160.599	86.547	383.761	190.245	180.518	221.134	191.696	392.851	389.008	139.275	86.093	0.00057723	0.00039195	0.00019112	321.09	7.1749e-07	6.0398e-06	453.59	104.71	2.0735e-06	8.7592e-06	175.01	74.391	43.059	26.476	5.1903e-06	49.599	0.0022558	0.0026512	0.0007414	363.97	2.7184e-05	2.8583e-05	496.05	117.48	2.772e-05	2.9145e-05	197.88	82.02	49.171	29.267	3.0323e-05	54.009	150.944	157.681	140.657	88.252	276.858	249.940	87.752	92.898	164.912	237.168	91.877	95.498	95.967	100.900	198.513	98.852	-8191	255	
2355.127	1	1	0	0	0.033394	0.16203	0.20405	0.25094	0.095202	0.098386	0.26107	0.16763	0.32058	0.12324	0.22765	0.10605	0.14177	0.052765	0.17144	0.2129	-2.6333	-2.7792	-2.7938	-3.1792	-2.8	-2.8937	-2.95	-2.7604	-3.0292	-3.0208	-2.8979	-3.0542	-2.7958	-2.9042	-3.0542	-2.9271	197.840	291.259	122.505	220.446	348.631	77.031	104.558	140.686	380.200	295.904	291.883	332.571	252.935	114.358	354.724	127.351	0.00051832	0.00019246	0.00025091	336.26	3.1008e-06	2.6811e-06	471.03	111.93	5.0286e-06	5.6191e-06	181.42	75.719	45.97	24.591	1.0111e-05	46.189	0.0024043	0.0029294	0.00082914	384.1	3.22e-05	3.4006e-05	521.7	126.04	3.7181e-05	4.0802e-05	212	85.886	55.004	28.505	4.8933e-05	52.268	152.041	187.640	193.756	88.446	230.783	90.799	87.915	92.578	330.446	146.288	91.450	94.917	94.930	100.352	169.173	98.623	-8191	255	
2355.223	1	1	0	0	0.2245	0.31765	0.27225	0.20268	0.11784	0.071455	0.07368	0.28257	0.20017	0.10331	0.10508	0.083707	0.19129	0.27789	0.183	0.24259	-2.5938	-2.825	-2.7896	-2.9167	-2.6458	-2.8042	-3.0729	-2.7167	-2.9875	-3.0563	-2.7562	-3.0104	-2.7167	-2.9875	-2.9229	-2.7729	425.110	178.260	364.993	379.324	414.862	324.881	401.919	370.108	254.831	308.491	325.657	309.282	206.520	149.861	152.917	395.003	0.00055757	0.00025514	0.00013195	352.12	1.5858e-06	2.2701e-06	473.97	113.43	3.6525e-06	4.5859e-06	180.12	75.481	46.081	23.347	5.5708e-06	44.105	0.0039195	0.0048717	0.0013577	424.53	5.2122e-05	5.3932e-05	548.42	133.61	5.2302e-05	5.5739e-05	218.97	88.053	57.286	27.875	6.0237e-05	50.988	154.078	221.749	93.148	87.857	226.990	342.017	87.664	92.010	133.422	184.846	91.291	94.199	94.595	100.520	340.373	98.326	-8191	255	
2355.319	1	1	0	0	0.29416	0.15024	0.029867	0.15953	0.060272	0.092407	0.26874	0.18487	0.13457	0.24486	0.22448	0.15132	0.20115	0.15547	0.095913	0.10461	-2.5354	-3.0229	-2.6667	-3.1375	-2.8375	-3.0354	-3.15	-2.8104	-2.9729	-3.0646	-2.6625	-3.1729	-2.9625	-2.9458	-3.1729	-2.8208	165.959	353.112	194.189	213.035	310.114	428.104	363.943	101.658	389.975	258.278	345.779	181.328	394.865	209.694	98.650	340.963	0.00038654	0.00069703	8.9439e-05	368.02	2.2201e-06	4.235e-06	496.42	121.08	4.5788e-06	5.4454e-06	187.75	79.972	49.198	23.338	1.1515e-05	43.333	0.004944	0.0062506	0.0017315	460.58	6.9793e-05	7.3439e-05	590.59	148.22	7.3212e-05	7.8156e-05	238.84	96.374	63.624	28.977	7.4587e-05	51.746	148.705	295.961	299.107	88.040	251.896	301.489	87.977	91.884	194.828	224.778	90.973	93.617	93.941	100.089	159.190	98.544	-8191	255	
2355.391	1	1	0	0	0.056535	0.094325	0.20848	0.061849	0.21652	0.16669	0.13761	0.17366	0.28031	0.11187	0.24211	0.16844	0.10724	0.083908	0.17214	0.20309	-2.5229	-3.0646	-2.7021	-2.9354	-2.9354	-2.7167	-3.0958	-2.8354	-2.9	-2.8646	-2.7625	-3.1958	-2.8667	-2.725	-3.0542	-2.9479	154.354	168.997	147.682	130.423	423.156	430.209	400.716	99.559	393.933	401.426	366.333	410.348	266.406	367.982	221.599	134.413	0.00039349	0.00038665	0.00016914	377.14	1.075e-05	7.5077e-06	511.23	126.86	3.6745e-06	2.4048e-06	196.43	83.36	51.318	22.827	4.0433e-06	41.818	0.0059184	0.0073496	0.0019428	481.86	7.8535e-05	8.0169e-05	612.15	157.12	7.8475e-05	8.271e-05	249.87	101	66.699	28.678	7.7509e-05	50.442	165.017	201.881	286.569	88.343	153.289	175.205	87.944	91.420	127.726	155.563	90.405	93.314	93.658	99.328	395.768	98.166	-8191	255	
2355.511	1	1	0	0	0.083956	0.092754	0.20428	0.13471	0.12157	0.16337	0.1993	0.12364	0.27886	0.0611	0.30577	0.30775	0.098286	0.12959	0.36291	0.050666	-2.5812	-3.1542	-2.5792	-2.8708	-2.8708	-2.6792	-3.1792	-2.7687	-2.7833	-3.025	-2.9792	-3.0812	-3.0187	-2.7375	-3.0271	-2.9729	402.190	196.560	189.758	410.574	424.906	265.846	431.962	419.464	280.560	369.537	426.082	105.288	339.864	268.516	350.551	352.178	0.00050929	0.00013999	0.00018499	399.58	4.0042e-06	4.1755e-06	531.46	134.13	6.9401e-06	6.8089e-06	204.15	85.462	52.502	22.575	6.2568e-06	40.74	0.0061886	0.0075371	0.0020092	506.96	8.0414e-05	7.9462e-05	633.87	164.49	7.7341e-05	7.9704e-05	256.77	102.31	67.673	28.259	7.5403e-05	49.18	139.283	179.337	201.698	88.284	229.665	86.661	88.032	91.870	272.960	317.908	90.400	93.299	94.129	99.201	306.782	98.406	-8191	255	
2355.607	1	1	0	0	0.14535	0.20849	0.24226	0.17428	0.094506	0.090679	0.27958	0.15296	0.16894	0.16668	0.031931	0.080147	0.059573	0.024862	0.025432	0.12476	-2.4292	-3	-2.6958	-2.9104	-3.0438	-2.7333	-3.1813	-2.9	-2.8417	-3.15	-2.8833	-2.9146	-2.9104	-2.625	-3.0333	-3.0292	413.220	391.974	216.410	335.063	347.901	207.237	415.229	96.288	360.731	422.497	138.719	329.395	218.502	402.537	173.011	400.018	0.00033062	0.0004305	0.00026549	426.73	1.0469e-05	5.3356e-06	573.65	144.82	3.0681e-06	1.5106e-06	216.63	87.984	54.506	22.796	1.2674e-05	40.111	0.0060343	0.0072237	0.0019713	531.43	7.9836e-05	7.6953e-05	672.2	175.77	7.618e-05	7.6837e-05	268.5	104.94	69.496	28.285	7.364e-05	48.405	172.186	223.264	176.826	88.635	262.845	143.413	88.249	91.398	134.906	208.751	90.665	93.270	93.892	98.832	217.769	97.666	-8191	255	
2355.703	1	1	0	0	0.044648	0.12639	0.22704	0.17303	0.15085	0.055445	0.30762	0.21436	0.081426	0.13572	0.15603	0.18483	0.20635	0.21361	0.031204	0.10897	-2.3146	-3.025	-2.6542	-2.9667	-3.0604	-2.875	-2.9208	-2.9813	-2.6958	-3.0854	-2.7458	-2.8958	-2.8375	-2.8917	-2.8896	-2.9771	341.368	221.759	231.003	211.097	239.056	311.029	87.185	190.536	205.641	201.884	430.257	114.677	229.780	89.934	425.410	133.570	0.00034934	0.00027142	0.00013392	452.47	3.1418e-06	8.4823e-06	603.15	151.03	7.5377e-06	8.7094e-06	224.34	87.887	55.474	23.19	1.4838e-05	40.227	0.0057865	0.0067652	0.001909	552.34	7.4632e-05	7.1123e-05	695.8	180.24	7.063e-05	7.0765e-05	274.35	104.28	69.465	28.37	6.8353e-05	48.167	147.364	205.502	88.566	88.754	324.595	213.674	87.801	92.081	197.615	323.618	90.945	93.610	94.317	98.128	253.125	97.777	-8191	255	
2355.800	1	1	0	0	0.16953	0.15834	0.092974	0.21982	0.14341	0.15554	0.083959	0.27714	0.058076	0.2057	0.18709	0.17624	0.30655	0.1434	0.13534	0.043481	-2.25	-2.9958	-2.7521	-2.7562	-2.8875	-2.7417	-3.0104	-2.8812	-2.6771	-3.0521	-2.7979	-2.8312	-3.1729	-2.9417	-2.6937	-2.8104	179.159	146.672	77.968	88.391	249.864	98.577	258.174	427.139	259.894	319.151	302.329	127.691	269.442	186.622	167.285	284.368	0.00038581	0.00032904	0.00036658	487.86	2.634e-06	9.6979e-06	638.18	158.78	3.7994e-06	7.79e-06	230.84	89.908	58.406	23.817	5.4633e-06	40.831	0.0052315	0.0061601	0.0017901	581.7	6.731e-05	6.6061e-05	727.16	186.33	6.3757e-05	6.4761e-05	280	105.15	71.062	28.693	6.318e-05	48.306	151.249	117.791	150.407	88.749	127.610	217.013	88.196	91.866	359.863	264.456	90.660	93.351	94.207	97.885	219.681	97.613	-8191	255	
2355.919	1	1	0	0	0.12331	0.056129	0.16278	0.079146	0.17895	0.14816	0.35083	0.17837	0.2148	0.15335	0.15144	0.0766	0.19744	0.10522	0.17217	0.25915	-2.2042	-2.7896	-2.625	-2.7292	-3.0854	-2.7042	-2.7729	-3.0563	-2.8104	-3.05	-2.8	-2.7917	-2.9604	-2.95	-2.8146	-3.0938	115.040	166.889	129.203	128.725	162.477	106.545	364.555	323.980	234.227	397.192	130.109	309.067	286.293	140.231	186.833	112.331	0.00040916	0.000194	0.00026631	517.59	4.8005e-06	8.2863e-06	673.59	166.55	7.8312e-06	7.9248e-06	243.27	95.325	62.469	24.697	7.3703e-06	40.952	0.0047662	0.0057191	0.0016756	610.54	6.0618e-05	6.2047e-05	757.63	192.54	5.7737e-05	5.9931e-05	287.15	109.23	74.197	29.4	5.9179e-05	48.15	138.469	80.239	169.237	88.656	212.099	264.283	88.086	91.869	198.054	204.973	90.916	93.059	93.669	96.855	227.879	97.228	-8191	255	
2355.992	1	1	0	0	0.3401	0.13273	0.15756	0.10426	0.13903	0.16593	0.13929	0.069629	0.25911	0.13874	0.18517	0.13241	0.11626	0.12844	0.15434	0.051105	-2.4021	-3.0229	-2.9375	-2.8083	-3.0333	-2.7542	-3.0646	-2.9938	-2.6688	-2.9167	-3.0854	-2.8854	-3.1958	-2.7333	-2.8458	-3.1896	165.218	172.882	233.201	212.932	117.350	139.920	202.204	83.292	422.209	209.468	346.126	293.273	202.475	178.365	181.714	330.679	0.00044881	5.663e-05	0.00015013	541.11	1.1572e-05	1.7772e-06	680.66	168.63	4.6468e-06	6.3691e-06	239.16	95.318	62.065	24.126	4.3839e-06	39.303	0.004464	0.0054582	0.0016148	625.46	5.7262e-05	6.0838e-05	762.12	193.28	5.7108e-05	5.9477e-05	284.16	109.08	73.716	28.841	5.9521e-05	46.255	147.713	405.278	327.864	88.764	192.484	420.999	88.328	91.977	276.440	204.082	91.167	93.102	93.801	96.947	225.404	96.874	-8191	255	
2356.111	1	1	0	0	0.28584	0.23083	0.073169	0.3278	0.21282	0.074826	0.10895	0.23124	0.059994	0.079128	0.15677	0.13449	0.10287	0.1333	0.039664	0.1071	-2.2708	-2.8042	-2.85	-2.6854	-2.9562	-2.7583	-2.8354	-2.9875	-2.6625	-2.8396	-2.9542	-2.7208	-2.975	-2.8563	-2.7583	-2.9021	333.534	291.327	247.421	335.768	201.397	265.471	300.421	88.166	125.193	166.019	275.364	365.395	395.516	129.061	409.484	189.275	0.00042485	0.00099475	0.00016846	532.58	7.0831e-06	6.3766e-06	665.04	163.46	6.6219e-06	9.0506e-07	233.96	91.743	59.216	22.918	2.513e-06	38.463	0.0045556	0.0055086	0.0016513	618.11	5.8232e-05	6.3623e-05	751.64	188.99	6.0104e-05	6.1774e-05	280.42	105.71	71.164	27.834	6.2715e-05	45.304	148.026	149.554	136.788	88.782	296.219	111.549	88.320	91.871	220.538	403.092	91.251	93.242	94.227	96.959	345.634	97.108	-8191	255	
2356.207	1	1	0	0	0.17549	0.19717	0.072734	0.34105	0.049083	0.27465	0.073448	0.23525	0.26692	0.41682	0.14846	0.28443	0.57216	0.30798	0.060575	0.31617	-2.3771	-2.7979	-3.0563	-2.7208	-3.0375	-2.95	-2.8604	-3.075	-2.8083	-2.8875	-2.9583	-2.7625	-2.8771	-2.8083	-2.7229	-3.0771	333.590	371.034	350.656	416.194	162.149	122.276	404.815	86.322	421.273	406.580	220.432	122.850	390.803	387.946	360.181	381.595	0.00047522	0.00057876	6.4313e-05	518.2	5.2946e-06	7.4706e-06	649.25	158.8	6.1706e-06	1.3717e-07	227.32	88.974	57.122	22.181	5.966e-06	37.807	0.0048403	0.0057351	0.0017143	606.91	6.0429e-05	6.6645e-05	736.45	183.84	6.2828e-05	6.3619e-05	274.42	102.86	68.973	27.212	6.3159e-05	44.769	132.847	175.400	231.329	88.558	162.311	215.494	88.066	92.134	409.396	406.461	90.960	93.393	94.533	97.312	229.900	97.705	-8191	255	
2356.303	1	1	0	0	0.024185	0.034803	0.33407	0.11114	0.25188	0.1054	0.16179	0.14533	0.15387	0.087354	0.24974	0.098599	0.10165	0.15348	0.080839	0.12846	-2.3688	-2.8792	-2.9062	-2.7792	-2.8625	-2.8812	-2.85	-3.0271	-2.7458	-2.6729	-3.0938	-2.8646	-3.1042	-2.9313	-2.6771	-3.1813	189.527	117.916	174.129	358.971	377.124	369.638	322.756	371.119	399.502	338.602	75.032	194.892	357.296	146.005	157.214	111.139	0.00050988	0.00078395	0.00012023	509.22	1.205e-05	9.1563e-06	635.8	154.66	9.2029e-06	7.9239e-06	223.23	86.411	54.962	21.661	4.3771e-06	37.363	0.0049777	0.00584	0.0016933	595.74	6.0915e-05	6.6908e-05	723.07	179.52	6.3282e-05	6.3619e-05	269.58	100.46	66.944	26.524	6.1231e-05	44.069	148.204	360.776	341.775	88.446	247.322	267.668	87.987	92.163	212.895	185.461	91.417	93.475	94.595	97.323	225.901	98.081	-8191	255	
2356.399	1	1	0	0	0.10949	0.086884	0.17828	0.20226	0.21938	0.12529	0.27618	0.21664	0.20157	0.050648	0.1773	0.30131	0.22248	0.17768	0.070102	0.18313	-2.3812	-2.9771	-3.0792	-2.8583	-2.8875	-2.9042	-2.8375	-3.0563	-2.8312	-3.0167	-3.2042	-2.8125	-2.9979	-2.8688	-2.6583	-3.0167	95.829	297.764	427.549	242.990	104.463	277.795	319.616	397.044	96.272	258.176	362.854	427.894	355.225	368.149	425.595	166.313	0.00038267	0.00063602	0.00011069	498.84	2.4976e-06	3.9456e-06	620.81	150.92	4.6935e-06	8.1245e-06	217.11	83.37	52.571	20.91	8.4756e-06	36.561	0.0048961	0.0057954	0.0016143	586.15	5.9723e-05	6.552e-05	704.31	175.14	6.205e-05	6.2132e-05	260.45	96.975	64.367	25.571	5.8618e-05	42.938	154.926	236.051	166.490	88.693	210.643	390.102	87.803	92.177	197.339	328.734	91.132	93.646	94.543	98.043	295.103	98.105	-8191	255	
2356.520	1	1	0	0	0.20685	0.3421	0.099317	0.10113	0.18259	0.17207	0.096653	0.25547	0.072153	0.24383	0.10839	0.10699	0.20578	0.24125	0.27165	0.23599	-2.5187	-2.7521	-2.9625	-2.5292	-2.7542	-2.9417	-2.6688	-3.0417	-2.9146	-2.6583	-3.0896	-2.8625	-3.1042	-3.0687	-2.7354	-3.1125	369.983	361.104	231.652	206.982	384.008	190.109	166.227	79.031	189.553	237.614	124.319	316.262	399.031	308.155	228.631	181.496	0.00035453	0.00056977	7.6992e-05	491.77	3.8447e-06	7.1395e-06	608.34	146.81	3.4135e-06	2.2291e-06	213.15	78.844	49.55	19.785	7.2061e-06	35.676	0.0047826	0.0056048	0.0015153	573.72	5.8006e-05	6.2124e-05	686.95	169.63	5.9672e-05	5.9337e-05	253.23	92.28	60.772	24.186	5.5662e-05	41.925	151.514	283.106	404.098	88.034	234.112	312.490	87.808	92.207	99.861	137.789	91.213	93.957	94.880	98.820	227.102	98.337	-8191	255	
2356.614	1	1	0	0	0.13319	0.11554	0.19304	0.18652	0.28936	0.20386	0.2115	0.12868	0.11787	0.22218	0.084344	0.10483	0.0083495	0.2792	0.2668	0.047181	-2.5167	-2.6813	-3.1021	-2.9896	-2.9854	-3.1042	-2.8708	-2.9396	-3.0771	-2.8	-3.2354	-2.7875	-2.8438	-3.2188	-2.8479	-2.9833	403.245	217.843	330.576	201.052	115.516	350.585	77.889	402.177	290.204	260.507	341.999	297.718	153.937	390.467	374.715	371.233	0.00043489	0.00036477	0.00021863	476.83	6.3146e-06	5.4966e-06	596.89	142.31	2.7835e-06	1.7312e-06	208.46	75.596	46.62	19.059	4.7392e-06	35.676	0.00456	0.0052381	0.0014198	558.2	5.5411e-05	5.7301e-05	671.66	164.29	5.666e-05	5.5116e-05	246.34	88.229	57.313	23.244	5.3051e-05	41.596	151.359	192.441	137.538	88.683	232.426	115.864	87.972	92.349	361.134	155.589	91.114	94.532	95.273	99.079	140.748	98.672	-8191	255	
2356.688	1	1	0	0	0.10996	0.062253	0.17573	0.13888	0.20465	0.29755	0.31021	0.21761	0.18335	0.10696	0.22192	0.23066	0.13822	0.17351	0.19168	0.056615	-2.5833	-2.7583	-2.9333	-2.7333	-2.9375	-3.1958	-2.7979	-3.0208	-2.9625	-2.7938	-3.2375	-3.0042	-2.9083	-3.0333	-2.875	-2.9646	152.670	102.703	380.481	400.833	79.929	146.647	418.692	378.675	221.786	233.876	101.552	323.003	151.632	388.818	292.440	309.289	0.00043956	0.00029951	0.00014365	461.77	2.1278e-06	4.826e-06	584.71	138.84	6.2084e-06	9.0753e-06	205.38	73.603	44.832	18.798	1.0322e-05	35.951	0.0043394	0.0048774	0.0013524	541.56	5.2993e-05	5.2713e-05	654.64	159.76	5.3146e-05	5.1605e-05	241.85	85.766	55.021	22.754	5.1624e-05	41.928	144.366	248.267	415.625	88.486	356.266	397.022	87.868	92.335	251.108	209.181	91.537	94.669	95.260	99.603	243.314	99.192	-8191	255	
2356.807	1	1	0	0	0.121	0.13347	0.28237	0.051492	0.11775	0.050099	0.094984	0.061395	0.30433	0.1419	0.13516	0.19109	0.33635	0.21182	0.17663	0.099829	-2.6229	-2.7042	-3.0875	-3.1208	-2.7188	-3.0396	-2.9083	-3.0958	-3.2938	-2.7354	-3.0479	-2.9917	-2.7812	-3.0083	-2.8771	-2.8292	318.483	417.592	81.153	336.018	272.237	119.389	260.783	176.736	238.216	324.668	108.699	195.452	404.384	92.926	389.666	338.507	0.00021268	0.00059652	0.00010596	452.72	2.9872e-06	5.3185e-06	567	134.8	3.6975e-06	4.8453e-06	200.22	72.29	43.746	18.906	6.3372e-06	35.985	0.0040711	0.0046266	0.0013008	526.43	5.0383e-05	4.9784e-05	637.78	155.81	5.0466e-05	4.9838e-05	235.94	84.162	53.63	22.608	5.0745e-05	41.866	155.377	216.442	315.205	88.309	166.062	146.887	87.829	92.296	431.309	251.563	91.472	94.772	95.160	100.080	185.800	99.405	-8191	255	
2356.903	1	1	0	0	0.012839	0.058931	0.056887	0.11429	0.096297	0.21844	0.088239	0.05812	0.20511	0.17952	0.057907	0.20934	0.18155	0.12919	0.24059	0.17719	-2.5875	-2.8333	-2.9875	-2.9333	-2.8375	-3.0229	-2.9646	-2.9	-3.0604	-2.7708	-3.0208	-3.1125	-2.6146	-3.0458	-2.8354	-2.8292	152.168	266.436	427.339	128.946	411.150	293.053	390.335	130.462	90.465	305.683	96.313	341.256	352.688	408.765	123.458	234.003	0.00030707	0.001127	0.0001469	428.49	1.6319e-06	2.3927e-06	538.8	129.32	1.2153e-06	5.5749e-06	192.62	70.27	41.741	18.827	9.6288e-06	37.301	0.003854	0.0045082	0.0012735	502.65	4.8199e-05	4.8033e-05	608.26	149.11	4.6773e-05	4.8351e-05	226.58	81.832	51.088	22.404	4.8104e-05	42.899	156.057	146.980	107.823	88.259	82.579	252.583	87.842	92.020	309.931	226.355	91.600	94.706	95.312	100.510	323.553	99.419	-8191	255	
2356.999	1	1	0	0	0.026201	0.2072	0.38561	0.14707	0.055029	0.16804	0.18648	0.25209	0.198	0.17144	0.081757	0.11409	0.06009	0.23121	0.19062	0.21133	-2.6854	-2.775	-2.7833	-3.0146	-2.6604	-3.0979	-2.825	-2.9875	-3.1292	-2.9479	-3.1042	-3.0438	-2.8167	-3.2104	-2.9938	-2.8646	190.705	239.270	261.038	103.690	292.372	94.408	386.413	375.403	420.871	410.910	331.770	164.253	391.985	410.178	223.769	123.370	0.00035912	0.0004516	0.00022995	407.3	3.0842e-06	2.0263e-06	516.11	123.53	4.4382e-06	4.9801e-06	186.7	69.767	41.196	19.355	7.2341e-06	39.102	0.0035425	0.0043184	0.0012086	475.63	4.499e-05	4.5713e-05	580.71	142.05	4.3301e-05	4.5852e-05	219.04	80.643	49.681	22.734	4.5089e-05	44.397	159.406	227.634	152.048	88.648	278.641	230.780	87.730	92.433	129.240	246.981	91.732	94.976	95.956	101.227	209.773	99.602	-8191	255	
2357.095	1	1	0	0	0.18263	0.28382	0.23033	0.11761	0.10383	0.3646	0.11203	0.15334	0.23774	0.12145	0.21102	0.32637	0.26227	0.127	0.21006	0.19485	-2.9271	-2.8	-2.9437	-2.9896	-2.8083	-3.0729	-2.9625	-2.6375	-3.0958	-2.7188	-2.7833	-3.0375	-2.75	-2.9729	-2.9646	-2.8438	372.232	94.823	422.392	113.497	117.474	348.509	168.105	386.820	92.338	159.752	207.616	334.771	360.316	408.072	101.608	173.496	0.00043074	0.00077186	0.00014636	389	2.0771e-06	4.4708e-07	493.69	118.1	3.0203e-06	5.2855e-06	181.9	69.92	40.717	20.042	2.4147e-06	40.919	0.0032292	0.004005	0.001129	450.97	4.1337e-05	4.2236e-05	556.8	135.16	4.0062e-05	4.3548e-05	213.2	79.894	49.104	23.447	4.3446e-05	46.182	153.393	131.977	175.891	88.392	282.802	121.579	87.575	92.209	427.194	78.050	91.302	94.901	95.778	101.399	206.360	99.489	-8191	255	
2357.191	1	1	0	0	0.13482	0.10125	0.10135	0.10786	0.36517	0.09729	0.35487	0.082522	0.21039	0.20762	0.13102	0.23485	0.19692	0.20299	0.050796	0.1585	-2.5	-2.8333	-2.7792	-2.8979	-2.725	-2.9271	-3.0875	-2.8438	-3	-3.0271	-2.75	-3.1208	-2.8792	-2.8354	-3.0833	-2.8854	114.806	331.069	320.273	311.397	260.462	107.433	392.929	367.328	103.309	431.562	391.457	391.372	404.548	270.319	419.895	413.975	0.000419	0.00032232	0.00017673	382.31	5.8546e-06	5.5345e-06	484.64	114.67	7.1264e-06	2.533e-06	177.88	70.343	40.875	20.801	1.3647e-06	42.159	0.0031773	0.0039876	0.0011254	440.27	4.1596e-05	4.2317e-05	546.14	132.1	3.9715e-05	4.3078e-05	209.52	80.123	49.252	24.168	4.1715e-05	47.298	138.427	215.609	195.205	88.116	234.162	223.654	87.473	92.176	202.908	277.072	91.336	94.661	95.542	101.293	278.382	99.410	-8191	255	
2357.287	1	1	0	0	0.11362	0.14899	0.30458	0.11288	0.020207	0.23239	0.088113	0.20982	0.10398	0.22036	0.15519	0.24596	0.12196	0.1145	0.18765	0.17218	-2.5187	-2.8937	-2.6354	-3.1646	-2.7438	-3.0083	-3.1771	-2.7458	-2.9083	-2.8167	-2.9229	-3.1229	-2.7333	-2.8792	-3.0771	-2.8021	428.766	409.307	128.634	305.323	226.281	215.085	300.728	120.003	140.820	423.653	361.438	312.281	346.673	372.121	294.165	427.743	0.00042268	0.00073127	0.00011355	370.37	2.4143e-06	2.8015e-06	473.29	112.28	7.2806e-06	1.145e-06	175.33	70.215	40.689	21.169	1.039e-05	43.185	0.0030715	0.0038761	0.0010716	426.64	3.9802e-05	4.0829e-05	531.6	128.55	3.8329e-05	4.1415e-05	205.84	79.628	48.679	24.462	3.9407e-05	47.933	154.530	413.792	292.156	88.016	238.829	211.052	87.546	92.437	222.006	302.072	91.223	95.014	95.933	101.483	222.400	99.419	-8191	255	
2357.383	1	1	0	0	0.12759	0.44514	0.20078	0.081081	0.2323	0.13554	0.15521	0.3188	0.19311	0.12885	0.22961	0.12177	0.18263	0.076463	0.077628	0.1903	-2.4667	-2.9625	-2.775	-3.0021	-2.7833	-2.7313	-3.1604	-2.6479	-2.9562	-2.8542	-2.8833	-3.0521	-2.6562	-2.8125	-3.0396	-2.6667	175.925	80.478	84.792	93.939	209.664	255.302	289.290	110.026	348.890	97.862	378.288	276.743	113.813	349.865	346.640	231.873	0.00050132	0.00018973	0.00010516	369.53	5.7744e-06	8.61e-06	472.99	111.5	6.4441e-06	5.8211e-06	176.29	70.326	40.489	21.334	3.0352e-06	43.583	0.0029996	0.0037278	0.0010226	421.79	3.9177e-05	3.9816e-05	527.13	127.19	3.7571e-05	4.0344e-05	204.83	79.504	48.625	24.733	3.8203e-05	48.629	151.706	198.339	116.273	88.085	288.809	267.105	87.879	92.284	187.493	229.300	91.389	94.868	95.825	101.212	130.259	99.247	-8191	255	
2357.480	1	1	0	0	0.08193	0.20987	0.34645	0.33089	0.062034	0.15172	0.13732	0.12116	0.18431	0.11554	0.093439	0.10809	0.12835	0.12483	0.030597	0.16356	-2.4333	-2.8125	-2.4771	-3.0792	-2.85	-2.9313	-3.2083	-2.6375	-2.8083	-2.9542	-2.6833	-3.1188	-2.8521	-2.7979	-3.0896	-2.8146	216.236	385.620	103.966	354.193	308.268	108.216	92.160	353.986	384.535	161.969	301.112	87.040	426.037	316.189	77.672	365.618	0.00041684	8.3511e-05	9.9292e-05	366.36	5.311e-06	4.7013e-06	475.66	111.65	7.0366e-06	5.7013e-06	177.58	70.258	40.7	21.53	2.6614e-06	43.957	0.0030229	0.0037131	0.0010069	421.53	3.9439e-05	4.053e-05	528.61	127.68	3.8449e-05	4.0794e-05	205.82	79.897	48.888	24.865	3.7586e-05	48.928	149.383	180.237	216.412	87.975	174.573	284.666	88.090	92.222	306.140	311.962	91.640	94.900	95.712	100.932	288.312	99.131	-8191	255	
2357.600	1	1	0	0	0.23137	0.022419	0.17885	0.27239	0.19171	0.13865	0.14446	0.32954	0.098246	0.061497	0.096483	0.25046	0.19181	0.14042	0.15916	0.085613	-2.6042	-2.9958	-2.7708	-2.9104	-2.775	-2.8563	-3.0604	-2.8833	-2.9125	-3.0875	-2.7125	-2.8208	-2.8604	-2.8792	-2.975	-2.7146	192.060	263.406	170.191	135.535	211.331	425.150	174.902	387.568	246.626	331.830	337.219	371.488	411.478	355.078	192.735	320.112	0.00058833	0.00079263	0.0002689	369.27	3.184e-06	5.7704e-06	475.34	112.04	3.5407e-06	3.4822e-06	177.87	70.563	41.413	21.517	2.0463e-06	43.483	0.003085	0.0037018	0.0010102	424.76	3.9997e-05	4.0575e-05	531.12	128.85	3.9418e-05	4.0591e-05	207.49	80.338	49.575	24.881	3.9017e-05	48.673	157.581	188.919	135.867	88.356	393.135	300.842	87.588	92.479	232.806	397.347	90.915	94.544	95.566	100.981	138.342	99.376	-8191	255	
2357.695	1	1	0	0	0.13157	0.13979	0.33791	0.26102	0.088551	0.023485	0.070858	0.32295	0.13918	0.19768	0.053332	0.22931	0.20447	0.16984	0.34578	0.16072	-2.2521	-2.9604	-2.6875	-2.8458	-2.8917	-2.8792	-3.0729	-2.9083	-2.9833	-3.0833	-2.7875	-3.0646	-2.8208	-2.4979	-3.0125	-3.0458	309.402	171.669	235.187	235.460	350.609	351.883	422.026	81.071	398.191	391.778	116.208	403.300	80.907	207.677	336.911	339.818	0.00051145	0.00072547	0.0002411	370.52	4.2568e-06	8.2101e-06	479.47	112.9	5.0192e-06	3.4856e-06	178.59	70.499	41.297	21.54	6.145e-06	43.241	0.003242	0.0037865	0.0010533	428.47	4.1946e-05	4.1913e-05	532.92	129.93	4.1598e-05	4.1261e-05	208.59	80.849	49.922	24.912	4.0483e-05	48.774	150.809	237.376	228.384	87.992	207.047	320.633	87.400	92.472	232.221	404.085	91.874	94.670	95.295	100.736	306.998	99.328	-8191	255	
2357.793	1	1	0	0	0.096809	0.1053	0.13167	0.16488	0.17401	0.0038852	0.24423	0.19783	0.15043	0.065223	0.13126	0.1427	0.12303	0.27235	0.32134	0.10285	-2.2812	-3.0604	-2.6292	-2.8854	-2.85	-2.6188	-2.8542	-2.95	-2.6979	-3.1854	-2.8896	-3.1542	-3.0667	-2.8438	-2.9437	-2.8646	340.517	281.054	298.668	256.566	299.160	183.719	380.186	432.407	222.017	290.077	427.059	142.673	372.173	185.060	280.204	285.290	0.0004077	0.00021709	0.00010069	371.48	5.7258e-06	5.0587e-06	479.8	113.54	2.2903e-06	4.1241e-06	179.4	71.185	41.639	21.593	8.2791e-06	43.564	0.0033368	0.0038418	0.0011094	432.19	4.3123e-05	4.2782e-05	537.17	131.45	4.2916e-05	4.2217e-05	211.26	81.685	50.418	25.085	4.2451e-05	48.976	137.957	339.016	167.785	88.191	253.815	336.006	87.831	92.243	263.217	164.585	91.187	94.553	95.535	100.987	307.628	99.412	-8191	255	
2357.911	1	1	0	0	0.019269	0.069023	0.25864	0.20135	0.16726	0.11738	0.12319	0.20757	0.075804	0.10373	0.17426	0.12775	0.18522	0.10576	0.11583	0.01259	-2.4375	-2.9167	-2.6896	-2.8917	-2.9833	-2.7833	-2.8583	-2.8208	-2.6875	-3.2604	-2.9396	-2.9729	-2.9896	-2.8396	-3.0708	-3.0312	405.989	426.820	324.524	323.755	392.071	277.217	109.088	421.910	306.922	380.311	127.727	330.178	75.682	323.333	341.603	412.258	0.00049625	0.00074787	0.00016543	372.31	5.8616e-06	3.8224e-06	481.02	114.62	9.5175e-06	4.8003e-06	180.52	71.798	41.881	21.702	1.0475e-05	43.513	0.0034445	0.003887	0.0011414	434.42	4.3307e-05	4.3607e-05	540.64	132.49	4.3383e-05	4.2826e-05	212.96	82.482	50.685	25.244	4.3435e-05	49.335	148.733	143.099	217.642	88.235	152.933	340.572	87.590	92.332	209.371	208.335	91.343	94.972	95.859	101.281	238.594	99.318	-8191	255	
2357.983	1	1	0	0	0.11567	0.14162	0.31631	0.2122	0.13492	0.17716	0.063314	0.23984	0.25618	0.095653	0.090846	0.37071	0.1277	0.12665	0.04497	0.13912	-2.4479	-3.1271	-2.8312	-2.9083	-3.1229	-2.5875	-3.1458	-3.0167	-2.5812	-3.0667	-2.8042	-2.7417	-3.1208	-2.7167	-2.8479	-3.1458	361.904	406.045	274.503	352.568	228.231	85.384	429.631	411.175	419.727	252.031	353.517	243.266	270.594	143.616	370.298	88.111	0.00053058	0.00057772	0.00013986	374.47	3.2077e-06	2.9449e-06	482.66	115.07	4.277e-06	2.5082e-06	181.88	72.109	42.153	21.785	6.3495e-06	43.567	0.0034395	0.0039604	0.0011758	437.33	4.3131e-05	4.4692e-05	543.65	133.29	4.343e-05	4.3782e-05	214.81	83.139	50.99	25.402	4.4911e-05	49.337	142.809	428.266	135.306	88.201	311.900	432.328	87.733	92.208	142.911	81.504	91.660	94.647	95.303	101.252	227.726	99.209	-8191	255	
2358.079	1	1	0	0	0.30426	0.2482	0.078892	0.14345	0.22234	0.11734	0.059435	0.39558	0.25769	0.17821	0.20978	0.11638	0.30406	0.46847	0.14154	0.38025	-2.3937	-2.8375	-2.8229	-2.8042	-3.0979	-2.8708	-3.0187	-2.9375	-2.7271	-3.0979	-3.0396	-2.8187	-3.1083	-2.8708	-2.7167	-3.1875	409.413	344.082	275.573	230.833	378.294	105.586	218.105	376.438	256.837	332.747	124.148	234.176	129.546	78.003	151.228	393.560	0.00050656	0.00085007	0.00019022	373.72	2.7657e-06	6.7852e-06	479.25	114.39	4.5974e-06	8.2625e-06	181.49	72.214	42.485	21.736	2.1833e-06	43.406	0.0034622	0.004096	0.0012101	438.43	4.3576e-05	4.6441e-05	544.39	133.64	4.4258e-05	4.5824e-05	214.99	83.368	51.248	25.483	4.6547e-05	49.218	148.522	100.182	417.414	87.915	95.726	278.119	87.806	92.162	232.705	205.680	91.294	94.646	95.414	100.777	364.147	99.340	-8191	255	
2358.200	1	1	0	0	0.24908	0.073446	0.11925	0.12003	0.19062	0.48429	0.26147	0.17614	0.081736	0.0054612	0.075568	0.1191	0.25658	0.063219	0.11556	0.1434	-2.3271	-2.9958	-2.7458	-2.7438	-3.1437	-2.6583	-2.8458	-3.0646	-2.7062	-3.1708	-2.8458	-2.6417	-3.0979	-2.6625	-2.8146	-3.05	268.986	277.971	123.399	314.189	148.063	249.817	343.769	335.483	278.941	160.749	423.066	102.448	278.428	340.313	339.107	409.639	0.00047502	0.00033465	0.00025556	373.04	5.9959e-06	2.451e-06	483.05	115.33	4.1969e-06	3.2483e-06	183.06	72.805	42.986	21.85	1.2515e-06	43.936	0.0035586	0.0042379	0.0012391	440.2	4.4406e-05	4.8015e-05	548.92	134.53	4.5407e-05	4.7186e-05	216.85	84.093	51.896	25.713	4.8039e-05	49.59	156.269	398.247	172.699	87.808	254.089	196.098	87.444	91.982	233.792	215.848	91.651	94.733	95.095	100.889	190.719	99.082	-8191	255	
2358.296	1	1	0	0	0.13799	0.1671	0.25666	0.17573	0.17301	0.10914	0.10583	0.10941	0.054758	0.188	0.33145	0.2139	0.15051	0.16912	0.18149	0.023801	-2.3917	-2.7625	-2.925	-2.7396	-2.9896	-2.8021	-2.8396	-3.0479	-2.6771	-2.8396	-2.8708	-2.7229	-3.0292	-2.8229	-2.7208	-3.2021	373.833	241.942	193.066	335.239	406.587	418.434	290.485	92.132	357.514	374.540	424.249	103.570	388.107	96.114	279.296	378.449	0.00046604	0.00074282	7.9444e-05	375.91	3.9198e-06	5.145e-06	484.21	115.59	8.4865e-07	8.5381e-06	183.91	73.463	43.033	22.022	7.0068e-06	44.043	0.0036322	0.0044469	0.0012799	442.31	4.5854e-05	4.9645e-05	550.99	134.71	4.6767e-05	4.8901e-05	218.24	84.537	52.223	25.913	4.8727e-05	49.849	145.208	94.507	220.947	88.028	242.127	242.367	87.709	92.137	277.033	191.006	91.659	94.751	95.318	100.943	262.582	99.385	-8191	255	
2358.392	1	1	0	0	0.23399	0.26503	0.11595	0.28086	0.17936	0.057785	0.28271	0.26179	0.13481	0.10605	0.1658	0.065625	0.14989	0.1387	0.095155	0.070363	-2.4313	-2.7708	-3.0604	-3.0146	-2.7208	-2.7354	-2.7292	-2.9479	-2.6271	-2.8563	-3.0625	-2.6167	-2.8604	-2.9917	-2.7167	-2.9771	187.858	327.959	407.741	425.500	298.298	166.070	384.905	233.455	356.509	246.276	277.628	147.730	130.979	120.659	255.450	217.305	0.00049	0.00059311	0.00013633	375.44	3.155e-06	5.4806e-06	484.2	115.2	5.7603e-06	3.5235e-06	182.37	72.619	42.802	22.132	8.6029e-06	44.346	0.003711	0.0045159	0.0012691	441.06	4.6799e-05	5.0095e-05	551.85	134.46	4.7067e-05	4.9655e-05	217.67	84.23	51.97	25.986	4.7816e-05	49.94	151.463	246.912	169.884	88.132	239.567	245.389	87.846	92.415	165.049	130.360	91.309	94.431	95.565	101.346	249.632	99.321	-8191	255	
2358.488	1	1	0	0	0.18343	0.53893	0.24432	0.095186	0.027185	0.10981	0.031319	0.18241	0.099058	0.10688	0.17139	0.0060178	0.030858	0.17433	0.2574	0.036968	-2.4437	-2.7958	-3.1417	-2.8312	-3.0604	-3.0604	-2.6958	-3.2708	-2.7354	-2.8854	-3.0417	-2.8625	-2.8875	-2.9875	-2.8438	-3.1667	428.155	298.015	402.241	373.485	190.254	326.974	416.090	130.055	105.510	349.381	405.767	82.660	84.604	119.137	414.749	431.749	0.00046796	0.00027764	0.00016374	372.84	4.7936e-06	4.1115e-07	479.62	114.3	2.9488e-06	6.74e-06	180.78	72.019	41.926	22.204	6.4299e-06	44.313	0.0036803	0.0044558	0.0012052	436.73	4.5571e-05	4.8031e-05	542.41	132.28	4.5189e-05	4.7242e-05	212.77	82.764	51.097	25.818	4.4379e-05	49.823	148.597	129.599	159.587	88.139	211.733	191.409	87.284	92.196	154.806	235.901	91.928	94.806	95.697	100.944	297.846	99.542	-8191	255	
2358.584	1	1	0	0	0.049102	0.095072	0.25501	0.2018	0.15274	0.19953	0.11231	0.15594	0.096653	0.11489	0.067256	0.051074	0.07401	0.128	0.16111	0.26869	-2.425	-2.6729	-2.85	-2.6271	-2.7396	-3.0292	-2.7604	-2.8083	-2.9083	-2.8979	-3.0938	-2.825	-2.9354	-2.9708	-2.7396	-3.0563	228.155	179.848	338.123	90.101	236.911	211.702	92.624	405.348	315.838	281.678	335.885	417.147	373.172	424.741	274.575	359.756	0.00046521	0.00031528	0.00016636	369.61	4.861e-06	7.2849e-06	477.71	113.84	6.3791e-06	4.7551e-06	179.24	71.528	41.733	22.085	9.7062e-06	44.687	0.003556	0.004251	0.0011477	432.75	4.455e-05	4.6442e-05	538.05	131.81	4.4298e-05	4.5944e-05	211.36	82.339	50.735	25.756	4.2961e-05	50.071	145.056	141.175	316.131	88.498	350.531	253.125	88.015	92.340	164.935	293.398	91.505	94.768	95.594	101.084	197.061	99.520	-8191	255	
2358.681	1	1	0	0	0.17359	0.15027	0.2383	0.044887	0.26432	0.0050427	0.14501	0.14728	0.064298	0.19865	0.21679	0.21237	0.18477	0.22637	0.059112	0.10469	-2.6625	-2.8208	-2.85	-2.75	-2.9062	-3.0333	-2.6708	-3.0729	-2.8083	-2.8542	-3.0062	-2.9604	-2.9667	-2.9625	-2.7354	-3.1792	386.339	344.324	81.425	117.615	299.934	249.526	383.424	107.550	329.686	305.048	130.851	125.223	113.235	258.460	74.860	215.570	0.00042363	0.00055624	0.00011066	370.56	7.0744e-06	8.6378e-07	479.52	113.66	3.0357e-06	1.2052e-05	180.72	71.866	41.966	22.33	2.0898e-06	45.078	0.0034829	0.0041475	0.0011041	431.97	4.4128e-05	4.4566e-05	538.63	131.87	4.3623e-05	4.4339e-05	211.59	82.548	50.779	25.793	4.2335e-05	50.584	152.970	83.391	312.117	88.138	246.452	130.883	88.004	92.593	211.336	266.555	91.522	95.254	95.840	101.433	319.068	99.528	-8191	255	
2358.777	1	1	0	0	0.17284	0.37575	0.24048	0.18715	0.063184	0.13689	0.19211	0.1097	0.13429	0.24667	0.040894	0.035354	0.13737	0.12647	0.17943	0.19159	-2.5062	-2.8271	-3.0979	-2.9521	-2.9917	-3.0458	-2.7521	-2.8521	-3.0687	-2.8375	-3.1604	-2.9208	-2.7	-3.1604	-2.775	-3.2625	427.044	271.923	337.552	409.456	225.854	356.325	319.060	106.632	263.300	298.316	251.689	381.927	346.197	78.334	272.703	103.111	0.00050858	0.00034344	0.00019029	369.95	9.3261e-06	3.6689e-06	483.64	114.3	3.1696e-06	7.9263e-06	181.71	72.531	42.069	22.378	6.0826e-06	45.084	0.0034633	0.0040319	0.0011	433.11	4.4027e-05	4.338e-05	542.02	132.2	4.3486e-05	4.3672e-05	213.26	83.116	50.921	25.9	4.2794e-05	50.711	156.890	209.355	407.152	87.748	202.806	178.633	87.366	92.529	260.588	269.553	91.834	94.622	95.601	100.995	211.705	99.466	-8191	255	
2358.873	1	1	0	0	0.1357	0.39454	0.16829	0.2919	0.24402	0.1739	0.03943	0.27861	0.021286	0.16073	0.037659	0.40972	0.22828	0.17424	0.11049	0.27089	-2.4229	-2.6792	-3.0312	-2.75	-2.6354	-3.0917	-2.7229	-2.7938	-3.1937	-2.7938	-3.175	-2.9646	-2.6729	-3.15	-2.7479	-2.8417	309.828	262.808	305.212	401.022	272.371	107.461	421.658	365.755	377.252	390.640	275.806	376.905	271.244	417.589	188.498	311.052	0.00039535	0.00037331	9.4394e-05	373.66	3.4722e-06	6.3748e-06	480.74	113.68	5.4079e-06	3.6363e-06	181.5	72.312	42.085	22.373	8.475e-06	44.918	0.003463	0.0039539	0.0011183	434.75	4.425e-05	4.2928e-05	540.37	132.58	4.3426e-05	4.327e-05	212.92	82.831	50.894	25.819	4.3513e-05	50.566	147.445	215.722	111.504	87.750	378.043	177.635	88.104	92.476	151.521	305.992	91.374	95.359	95.740	101.034	204.240	99.207	-8191	255	
2358.992	1	1	0	0	0.26678	0.21291	0.098137	0.1272	0.10908	0.099363	0.093974	0.1017	0.17223	0.21267	0.14027	0.17877	0.15438	0.4427	0.1115	0.18237	-2.5563	-2.7562	-3.0646	-2.9208	-2.6542	-2.9208	-2.6979	-2.725	-3.1063	-2.7542	-2.8896	-2.6771	-2.9646	-3.0625	-2.8625	-3.1604	336.063	358.068	312.830	90.221	183.254	179.366	419.117	338.045	236.450	296.277	256.074	424.173	322.739	91.426	233.083	302.951	0.00046912	0.00020767	0.00015732	371.22	4.4687e-06	4.4103e-06	478	114.46	4.8479e-06	2.8234e-06	181.15	72.362	41.882	22.457	4.5191e-06	45.261	0.0034223	0.003969	0.0011469	434.55	4.3469e-05	4.3006e-05	539.83	132.27	4.2755e-05	4.3221e-05	213.51	83.023	50.799	25.956	4.3677e-05	50.894	150.992	320.872	187.763	87.972	201.963	202.174	87.604	92.635	298.899	166.641	91.722	94.961	95.648	101.214	424.990	99.452	-8191	255	
2359.088	1	1	0	0	0.23508	0.36154	0.14409	0.16467	0.096215	0.086748	0.14265	0.1074	0.17524	0.080142	0.17256	0.064333	0.084954	0.030843	0.072952	0.13894	-2.7292	-2.5333	-2.8063	-2.9042	-2.6542	-3.0833	-2.9333	-2.8896	-3.0646	-2.8583	-2.9167	-2.9417	-2.6437	-3.1042	-2.8583	-2.9875	94.655	404.291	365.826	322.536	231.355	115.774	351.237	218.122	391.449	431.634	183.508	82.275	372.359	417.561	159.866	407.958	0.00050786	0.00035639	0.0002011	373.65	1.7145e-06	5.8455e-06	478.77	113.92	1.2288e-06	4.8367e-06	181.82	72.349	41.996	22.426	5.1504e-06	45.665	0.0033729	0.0039638	0.0011488	434.76	4.2663e-05	4.3258e-05	540.44	132.2	4.0961e-05	4.2856e-05	213.38	82.771	50.283	25.953	4.3031e-05	51.155	153.543	126.755	210.560	88.013	143.871	104.806	87.789	91.978	245.466	192.181	91.721	95.174	96.003	101.458	223.218	99.387	-8191	255	
2359.160	1	1	0	0	0.10234	0.12529	0.096359	0.21528	0.079613	0.29904	0.033527	0.16128	0.094152	0.11072	0.045671	0.068558	0.075772	0.063408	0.21779	0.35066	-2.5646	-2.7417	-2.8812	-3.1562	-2.8333	-2.9625	-2.8812	-2.6396	-3.1417	-2.7604	-2.8708	-2.9875	-2.8125	-3.0771	-2.8396	-2.6083	126.804	363.256	427.949	259.352	82.634	184.424	177.437	136.172	371.778	292.230	374.396	243.127	257.945	370.984	214.809	416.867	0.0005115	0.00031608	9.1481e-05	374.07	1.6104e-06	5.3472e-06	480.58	114.82	4.6131e-06	9.2388e-06	182.31	72.631	42.041	22.666	6.4272e-06	45.692	0.0032509	0.0039519	0.0011466	435.16	4.1454e-05	4.3323e-05	543.25	132.38	4.0818e-05	4.3434e-05	215.11	83.145	50.479	26.16	4.3706e-05	51.337	154.396	81.749	171.252	88.328	303.378	212.980	87.880	92.362	404.196	213.979	91.448	95.171	95.824	101.357	193.730	99.552	-8191	255	
2359.280	1	1	0	0	0.20956	0.027437	0.24857	0.064891	0.09996	0.080379	0.14838	0.19506	0.1256	0.14035	0.068227	0.30211	0.13585	0.14702	0.035078	0.10669	-2.7771	-2.7417	-2.8542	-2.9292	-2.6542	-3.1063	-2.9542	-2.7667	-3.0354	-2.8979	-2.7896	-3.125	-2.8854	-3.0354	-2.8583	-2.7104	117.594	380.679	382.944	355.243	417.397	418.899	281.930	358.527	105.730	101.817	224.845	412.511	102.397	422.834	178.997	92.540	0.00046586	0.00035516	0.00013631	372.96	9.1181e-06	5.2696e-06	480.93	114.19	4.4217e-06	1.6193e-06	181.28	72.675	42.418	22.553	1.8981e-06	45.44	0.0032722	0.0040056	0.0011625	433.37	4.1989e-05	4.446e-05	542.98	132.33	4.1425e-05	4.4224e-05	214.76	82.842	50.767	26.161	4.4026e-05	51.084	149.457	125.604	76.641	87.899	270.975	223.453	87.607	92.660	142.444	302.473	91.405	94.786	95.427	101.189	77.541	99.462	-8191	255	
2359.376	1	1	0	0	0.22509	0.13949	0.0028454	0.12851	0.2862	0.19213	0.28982	0.20855	0.088253	0.17645	0.16237	0.1953	0.1639	0.17007	0.011053	0.11845	-2.4396	-2.8958	-2.7229	-3.1312	-2.6125	-2.8563	-3.0875	-2.9375	-2.9354	-2.8854	-2.6688	-3.0854	-2.7958	-2.9479	-3.1042	-2.9437	87.577	210.737	230.954	235.656	176.609	131.310	429.528	104.808	383.930	340.303	175.198	418.622	383.600	418.214	152.884	296.755	0.0005443	3.1542e-05	7.345e-05	372.92	6.1622e-06	5.6446e-06	480.43	114.65	5.8423e-06	3.6675e-06	182.52	72.591	42.176	22.531	1.1789e-06	45.637	0.0033488	0.0040686	0.0011696	433.02	4.2463e-05	4.4943e-05	542.7	132.36	4.2338e-05	4.4792e-05	215.2	82.94	50.786	26.263	4.4101e-05	51.199	154.522	92.118	103.126	88.156	258.222	248.492	87.983	92.640	206.157	223.845	91.510	94.745	96.071	101.164	285.899	99.428	-8191	255	
2359.473	1	1	0	0	0.18889	0.25262	0.27258	0.21796	0.086487	0.15799	0.11824	0.26957	0.28354	0.10097	0.17981	0.19162	0.31717	0.36002	0.26338	0.12302	-2.6167	-2.8063	-2.7479	-3.1417	-2.7792	-2.9521	-3.1542	-2.7667	-2.9562	-2.8104	-2.5771	-3.0729	-3.0104	-2.8187	-3.0062	-2.8604	85.937	190.638	254.855	353.960	107.323	404.579	371.577	374.034	404.759	196.647	332.416	151.146	389.818	110.379	110.948	358.877	0.00052345	0.00046088	0.00011471	372.7	5.732e-06	9.4314e-06	482.97	114.64	2.0878e-06	2.6667e-06	181.44	72.99	42.451	22.683	3.1576e-06	45.951	0.0033845	0.0041144	0.0011635	433.22	4.3307e-05	4.5706e-05	544.43	132.53	4.3477e-05	4.5452e-05	215.39	83.528	51.248	26.406	4.3611e-05	51.486	134.973	134.750	418.408	88.281	249.984	142.774	87.933	92.333	185.523	100.358	91.336	95.109	95.838	101.086	110.778	99.323	-8191	255	
2359.593	1	1	0	0	0.21081	0.078329	0.043291	0.18016	0.024843	0.1228	0.079668	0.12607	0.13915	0.20588	0.11212	0.10858	0.18384	0.17002	0.030223	0.1947	-2.5479	-2.8146	-2.7	-2.9021	-2.9813	-2.9729	-3.0417	-2.7167	-2.8958	-3.1063	-2.7438	-3.1688	-2.7729	-2.65	-2.975	-2.7938	212.933	427.278	322.944	182.776	258.946	164.883	389.410	358.768	192.394	179.464	336.199	418.727	432.486	194.180	158.841	344.439	0.0004706	0.00020062	0.00017836	375.04	1.5323e-06	4.6784e-06	484.21	114.82	1.7863e-06	5.4438e-06	183.15	73.358	42.542	22.808	6.4635e-06	46.351	0.003478	0.0041703	0.0011548	435.5	4.4104e-05	4.6793e-05	546.09	132.83	4.4493e-05	4.5903e-05	216.14	83.787	51.34	26.535	4.3112e-05	51.869	152.702	126.459	296.885	88.416	125.270	162.144	87.946	92.283	110.180	279.463	91.537	95.038	95.854	101.190	271.190	99.447	-8191	255	
2359.688	1	1	0	0	0.14273	0.26339	0.088237	0.051655	0.14733	0.15124	0.13208	0.080525	0.062945	0.066245	0.090329	0.32021	0.10034	0.05906	0.094241	0.26066	-2.4479	-2.8333	-2.6729	-2.9813	-2.8104	-2.9479	-2.9562	-2.7375	-3.0625	-2.9188	-2.8229	-3.0563	-2.9104	-2.7917	-3.0208	-2.8833	320.289	123.085	218.173	356.626	247.462	284.882	159.248	408.081	88.818	149.798	376.052	129.576	166.906	257.092	212.712	366.195	0.00047713	0.00041954	5.9348e-05	374.51	4.9209e-06	5.9566e-06	484.39	115.19	2.4419e-06	2.4526e-06	183.38	73.49	42.621	22.783	8.6863e-06	46.114	0.0035544	0.0042274	0.0011557	437.11	4.5146e-05	4.709e-05	546.23	133.56	4.5533e-05	4.635e-05	215.61	84.118	51.653	26.583	4.4028e-05	51.789	153.533	399.511	178.762	88.025	229.664	227.097	87.618	92.406	97.570	240.345	91.465	95.019	96.047	101.134	266.314	99.425	-8191	255	
#DATA ENDS
