BOXY.EXE: ISS Imagent and Oximeter Data Acquisition Program Version 0.80
Ascii Record File

#ACQ INFORMATION
2  Detector Channels 
16  External MUX Channels 
1  Auxiliary Channels 
5000  Waveform (CCF) Frequency (Hz)
1  Waveforms Skipped 
30  Waveforms Averaged 
1  Cycles Averaged 
16  Acquisitions per Waveform 
10.0806  Updata Rate (Hz) 

#FILE INFORMATION
TRUE -- External MUX Channel results are PARSED.
FALSE -- AC DC and Phase are NOT grouped.
TRUE -- Companion Program Settings File CREATED.
FALSE -- AC data not excluded
FALSE -- DC data not excluded
FALSE -- Phase data not excluded
FALSE -- Auxillary Chn. data not excluded
Tab delimiters

#CALIBRATION STATE
TRUE -- Waveform Calibration Values APPLIED.


#AUX CALIBRATION VALUES
Val Type	aux-1	

Term	1.0000e+00	
Factor	0.0000e+00	


#WF CALIBRATION VALUES
A = Detector Channel
Val Type	A-AC1	A-AC2	A-AC3	A-AC4	A-AC5	A-AC6	A-AC7	A-AC8	A-AC9	A-AC10	A-AC11	A-AC12	A-AC13	A-AC14	A-AC15	A-AC16	A-DC1	A-DC2	A-DC3	A-DC4	A-DC5	A-DC6	A-DC7	A-DC8	A-DC9	A-DC10	A-DC11	A-DC12	A-DC13	A-DC14	A-DC15	A-DC16	A-Ph1	A-Ph2	A-Ph3	A-Ph4	A-Ph5	A-Ph6	A-Ph7	A-Ph8	A-Ph9	A-Ph10	A-Ph11	A-Ph12	A-Ph13	A-Ph14	A-Ph15	A-Ph16	

Term	0.00000e+00	0.00000e+00	0.00000e+00	0.00000e+00	0.00000e+00	0.00000e+00	0.00000e+00	0.00000e+00	0.00000e+00	0.00000e+00	0.00000e+00	0.00000e+00	0.00000e+00	0.00000e+00	0.00000e+00	0.00000e+00	0.00000e+00	0.00000e+00	0.00000e+00	0.00000e+00	0.00000e+00	0.00000e+00	0.00000e+00	0.00000e+00	0.00000e+00	0.00000e+00	0.00000e+00	0.00000e+00	0.00000e+00	0.00000e+00	0.00000e+00	0.00000e+00	0.00000e+00	0.00000e+00	0.00000e+00	0.00000e+00	0.00000e+00	0.00000e+00	0.00000e+00	0.00000e+00	0.00000e+00	0.00000e+00	0.00000e+00	0.00000e+00	0.00000e+00	0.00000e+00	0.00000e+00	0.00000e+00	
Factor	1.00000e+00	1.00000e+00	1.00000e+00	1.00000e+00	1.00000e+00	1.00000e+00	1.00000e+00	1.00000e+00	1.00000e+00	1.00000e+00	1.00000e+00	1.00000e+00	1.00000e+00	1.00000e+00	1.00000e+00	1.00000e+00	1.00000e+00	1.00000e+00	1.00000e+00	1.00000e+00	1.00000e+00	1.00000e+00	1.00000e+00	1.00000e+00	1.00000e+00	1.00000e+00	1.00000e+00	1.00000e+00	1.00000e+00	1.00000e+00	1.00000e+00	1.00000e+00	X	X	X	X	X	X	X	X	X	X	X	X	X	X	X	X	

B = Detector Channel
Val Type	B-AC1	B-AC2	B-AC3	B-AC4	B-AC5	B-AC6	B-AC7	B-AC8	B-AC9	B-AC10	B-AC11	B-AC12	B-AC13	B-AC14	B-AC15	B-AC16	B-DC1	B-DC2	B-DC3	B-DC4	B-DC5	B-DC6	B-DC7	B-DC8	B-DC9	B-DC10	B-DC11	B-DC12	B-DC13	B-DC14	B-DC15	B-DC16	B-Ph1	B-Ph2	B-Ph3	B-Ph4	B-Ph5	B-Ph6	B-Ph7	B-Ph8	B-Ph9	B-Ph10	B-Ph11	B-Ph12	B-Ph13	B-Ph14	B-Ph15	B-Ph16	

Term	0.00000e+00	0.00000e+00	0.00000e+00	0.00000e+00	0.00000e+00	0.00000e+00	0.00000e+00	0.00000e+00	0.00000e+00	0.00000e+00	0.00000e+00	0.00000e+00	0.00000e+00	0.00000e+00	0.00000e+00	0.00000e+00	0.00000e+00	0.00000e+00	0.00000e+00	0.00000e+00	0.00000e+00	0.00000e+00	0.00000e+00	0.00000e+00	0.00000e+00	0.00000e+00	0.00000e+00	0.00000e+00	0.00000e+00	0.00000e+00	0.00000e+00	0.00000e+00	-1.46573e+02	-1.30403e+02	-1.37663e+02	-1.82827e+02	-7.22735e+01	-6.30001e+01	-1.58910e+02	-1.62015e+02	-7.72400e+01	-6.72005e+01	-1.71070e+02	-1.70740e+02	-1.82889e+02	-1.76704e+02	-6.79015e+01	-1.49758e+02	
Factor	2.11726e-05	1.42107e-04	4.06141e-05	1.78644e-01	1.31213e-06	1.57184e-06	1.76680e-01	4.86151e-02	1.17736e-06	1.44838e-06	9.37926e-02	2.76980e-02	2.41818e-02	8.94260e-03	1.48299e-06	1.30437e-02	5.47952e-06	6.70541e-06	1.89136e-06	9.01438e-02	7.13655e-08	7.35607e-08	8.41523e-02	2.47218e-02	7.09250e-08	7.32396e-08	4.60402e-02	1.36710e-02	1.23919e-02	4.56909e-03	7.18436e-08	6.45217e-03	X	X	X	X	X	X	X	X	X	X	X	X	X	X	X	X	



#DISTANCE SETTINGS
A = Detector Channel
A-1	A-2	A-3	A-4	A-5	A-6	A-7	A-8	A-9	A-10	A-11	A-12	A-13	A-14	A-15	A-16	

2.5000e+00	3.0000e+00	2.5000e+00	3.0000e+00	2.0000e+00	3.0000e+00	1.5000e+00	3.0000e+00	3.0000e+00	3.0000e+00	3.0000e+00	3.0000e+00	3.0000e+00	3.0000e+00	1.5000e+00	3.0000e+00	

B = Detector Channel
B-1	B-2	B-3	B-4	B-5	B-6	B-7	B-8	B-9	B-10	B-11	B-12	B-13	B-14	B-15	B-16	

1.0000e+01	1.0000e+01	1.0000e+01	1.4400e+00	1.0000e+01	1.0000e+01	1.5100e+00	1.9400e+00	1.0000e+01	1.0000e+01	1.9900e+00	2.4900e+00	2.4100e+00	2.9000e+00	1.0000e+01	2.9800e+00	




#DATA BEGINS
time	group	step	mark	flag	A-AC1	A-AC2	A-AC3	A-AC4	A-AC5	A-AC6	A-AC7	A-AC8	A-AC9	A-AC10	A-AC11	A-AC12	A-AC13	A-AC14	A-AC15	A-AC16	A-DC1	A-DC2	A-DC3	A-DC4	A-DC5	A-DC6	A-DC7	A-DC8	A-DC9	A-DC10	A-DC11	A-DC12	A-DC13	A-DC14	A-DC15	A-DC16	A-Ph1	A-Ph2	A-Ph3	A-Ph4	A-Ph5	A-Ph6	A-Ph7	A-Ph8	A-Ph9	A-Ph10	A-Ph11	A-Ph12	A-Ph13	A-Ph14	A-Ph15	A-Ph16	B-AC1	B-AC2	B-AC3	B-AC4	B-AC5	B-AC6	B-AC7	B-AC8	B-AC9	B-AC10	B-AC11	B-AC12	B-AC13	B-AC14	B-AC15	B-AC16	B-DC1	B-DC2	B-DC3	B-DC4	B-DC5	B-DC6	B-DC7	B-DC8	B-DC9	B-DC10	B-DC11	B-DC12	B-DC13	B-DC14	B-DC15	B-DC16	B-Ph1	B-Ph2	B-Ph3	B-Ph4	B-Ph5	B-Ph6	B-Ph7	B-Ph8	B-Ph9	B-Ph10	B-Ph11	B-Ph12	B-Ph13	B-Ph14	B-Ph15	B-Ph16	aux-1	digaux	

1938.943	1	1	0	768	0.20067	0.1156	0.18969	0.13564	0.20689	0.15184	0.12714	0.26798	0.074519	0.2351	0.15662	0.2166	0.26667	0.12685	0.11879	0.13514	-3.0771	-3.2417	-3.3021	-3.5229	-3.0417	-3.3333	-3.3667	-3.3021	-3.4562	-3.3042	-3.4458	-3.5396	-3.1813	-3.4938	-3.2792	-3.2479	143.816	83.937	354.220	92.446	214.092	151.394	340.051	385.491	282.410	93.972	290.588	344.811	386.800	328.927	160.462	393.077	0.0010336	0.00074198	0.00022828	690.23	5.8369e-06	6.4146e-06	1008.4	297.65	5.3626e-06	5.9274e-06	459.13	220.4	132.64	63.18	5.7838e-06	117.16	0.00035054	0.00016628	4.5712e-05	670.93	1.7978e-06	1.7511e-06	983.09	292.21	1.936e-06	1.7355e-06	448.84	216.81	130.64	62.553	1.9248e-06	115.66	141.902	150.579	138.286	69.675	211.060	225.449	68.991	73.299	185.400	209.764	72.356	76.003	77.498	82.472	223.527	80.464	-8191	255	
1939.039	1	1	0	0	0.1865	0.032007	0.12817	0.13176	0.063978	0.1466	0.17724	0.17945	0.086676	0.037667	0.40385	0.11309	0.20816	0.24965	0.088483	0.12152	-3.0938	-3.1667	-3.1188	-3.3979	-3.0563	-3.3438	-3.3146	-3.1146	-3.5458	-3.2854	-3.1729	-3.5375	-3.2646	-3.5938	-3.3563	-3.4646	413.221	388.785	147.997	241.326	82.530	71.896	377.750	404.604	307.575	161.021	341.658	143.340	390.093	398.658	392.483	227.247	0.0010803	0.00066447	0.00019786	687.62	6.2688e-06	6.1028e-06	1006.4	298.24	6.3236e-06	6.2193e-06	456.95	218.57	132.11	62.925	8.9921e-06	116.31	0.0003522	0.00016937	4.808e-05	670.17	1.8982e-06	1.8523e-06	984.31	292.52	1.8896e-06	1.7887e-06	447.16	215.68	130.28	62.516	1.9193e-06	114.86	142.231	136.832	130.864	69.726	208.206	211.564	68.898	72.932	189.584	203.938	72.353	76.252	77.484	82.384	205.847	80.339	-8191	255	
1939.137	1	1	0	0	0.045866	0.30713	0.19241	0.36474	0.13413	0.15457	0.16844	0.18124	0.26793	0.15683	0.38797	0.49623	0.034962	0.098944	0.12179	0.23303	-2.9396	-3.2708	-3.2125	-3.35	-3.3167	-3.3208	-3.5312	-3.275	-3.3708	-3.3542	-3.225	-3.5646	-3.2167	-3.3979	-3.4833	-3.2562	302.605	412.209	227.063	349.946	255.580	84.496	326.379	269.768	149.900	201.551	404.621	372.178	101.387	145.975	401.126	343.223	0.0010756	0.00074086	0.00019176	686.7	4.7031e-06	4.6181e-06	1001.3	295.43	5.8978e-06	6.6839e-06	456.28	217.73	132.27	62.927	6.4084e-06	116.03	0.00035476	0.00016337	4.7745e-05	669.37	1.8157e-06	1.727e-06	978.49	291.28	1.912e-06	1.7135e-06	446.23	214.88	130.06	62.391	1.9045e-06	114.65	143.444	150.135	127.575	69.804	194.875	220.022	68.873	73.234	205.008	209.781	72.397	76.095	77.442	82.299	214.927	80.445	-8191	255	
1939.231	1	1	0	0	0.15725	0.14885	0.1127	0.28986	0.28799	0.19117	0.19843	0.14962	0.24588	0.32948	0.035266	0.2928	0.20156	0.27493	0.10435	0.21641	-3.2229	-3.1396	-3.1292	-3.6854	-3.0521	-3.2875	-3.5187	-3.2021	-3.2646	-3.2833	-3.075	-3.5208	-3.3375	-3.3396	-3.4188	-3.3833	56.909	204.427	196.587	398.508	92.947	328.186	346.220	300.933	174.714	228.673	325.267	359.732	403.978	377.454	258.189	346.275	0.0010567	0.00077996	0.00017534	686.35	6.0052e-06	6.0127e-06	1007.1	298.08	5.9698e-06	5.9872e-06	455.27	218.54	132.62	62.821	8.9162e-06	115.99	0.00034972	0.00016509	4.6957e-05	669.89	1.7789e-06	1.8165e-06	980.04	291.93	1.8894e-06	1.7986e-06	446.02	215.56	130.19	62.279	1.9003e-06	114.95	142.558	150.760	145.932	69.602	210.683	215.197	69.109	73.247	197.595	199.474	72.489	76.102	77.593	82.418	216.914	80.336	-8191	255	
1939.328	1	1	0	0	0.15925	0.12583	0.090671	0.12761	0.025031	0.079653	0.038232	0.24167	0.16277	0.26941	0.027382	0.31122	0.20744	0.21156	0.15159	0.18166	-2.8396	-3.3625	-3.1188	-3.3792	-3.1625	-3.175	-3.4875	-3.2812	-3.4271	-3.3354	-3.2854	-3.6042	-3.3458	-3.2708	-3.2417	-3.4875	124.955	58.252	355.663	88.524	84.676	286.149	382.974	342.652	57.634	201.014	287.717	408.609	391.999	374.933	310.001	356.757	0.0010611	0.00061572	0.00016494	686.18	5.9911e-06	5.5456e-06	1008.5	298.37	5.1686e-06	5.6862e-06	457.29	219.68	132.88	63.275	7.5828e-06	116.89	0.00035035	0.00016438	4.5988e-05	669.22	1.8124e-06	1.765e-06	983.01	291.83	1.8717e-06	1.7852e-06	447.91	216.54	130.59	62.653	1.8913e-06	115.59	143.491	155.924	138.981	69.449	207.440	221.771	69.217	73.354	198.343	218.973	72.435	76.155	77.525	82.338	207.814	80.423	-8191	255	
1939.424	1	1	0	0	0.16816	0.10576	0.16723	0.16896	0.21858	0.034694	0.28805	0.0096892	0.06707	0.23475	0.13169	0.3767	0.22412	0.38225	0.11597	0.38531	-2.9938	-3.5021	-3.0875	-3.5417	-3.1646	-3.2313	-3.4875	-3.3854	-3.2625	-3.4896	-3.1667	-3.4729	-3.4375	-3.2854	-3.4729	-3.3354	216.293	120.868	347.750	383.686	220.310	214.251	329.266	209.854	103.362	411.555	380.649	397.922	346.905	390.467	193.108	59.859	0.0010626	0.00053492	0.0002095	688.02	6.7532e-06	5.8228e-06	1003.1	297.84	6.0709e-06	6.6376e-06	459.77	221.39	133.69	63.426	7.9067e-06	117.73	0.00035765	0.00016601	4.7036e-05	671.89	1.8655e-06	1.8566e-06	984.07	292.65	1.894e-06	1.8603e-06	451.14	218.04	131.65	62.906	1.8787e-06	116.21	143.427	128.371	131.145	69.487	190.455	200.876	68.917	73.291	199.266	194.107	72.519	76.165	77.465	82.268	215.169	80.330	-8191	255	
1939.544	1	1	0	0	0.14813	0.2117	0.035785	0.31758	0.20898	0.12394	0.37991	0.087297	0.10921	0.13575	0.22447	0.2824	0.014666	0.21746	0.063316	0.15939	-2.8125	-3.3521	-3.0771	-3.5229	-3.3563	-3.1667	-3.5021	-3.3167	-3.2125	-3.4646	-3.1375	-3.4146	-3.4646	-3.3	-3.3083	-3.4417	318.417	238.475	353.028	412.803	305.501	281.023	405.339	369.334	102.434	131.270	325.464	408.034	87.741	65.818	188.016	401.806	0.0011146	0.00059589	0.00020377	685.22	6.7153e-06	6.6207e-06	1009	301.24	6.3317e-06	6.0311e-06	461.09	220.52	133.32	63.39	7.6983e-06	117.07	0.00036398	0.00015963	4.7465e-05	672.19	1.7861e-06	1.8038e-06	984.76	294.74	1.8714e-06	1.6845e-06	451.71	217.08	131.23	62.795	1.9178e-06	115.85	140.942	143.310	143.021	69.740	205.943	190.123	68.828	73.271	184.676	207.714	72.157	76.176	77.545	82.236	217.114	80.275	-8191	255	
1939.640	1	1	0	0	0.23338	0.16272	0.20386	0.082396	0.16468	0.083534	0.23306	0.41396	0.09082	0.29124	0.23604	0.31143	0.20648	0.18789	0.1059	0.07726	-2.5938	-3.4562	-2.9354	-3.4271	-3.4188	-3.1542	-3.6417	-3.3417	-3.1417	-3.4125	-3.2458	-3.475	-3.4833	-3.1646	-3.2125	-3.6167	326.199	198.014	166.810	190.498	386.955	307.285	358.913	393.570	351.842	367.603	302.631	383.569	316.266	402.374	302.275	393.062	0.0010575	0.00076946	0.0001807	698.73	6.9826e-06	6.9171e-06	1015.2	302.25	5.3424e-06	5.2905e-06	462.62	221.43	134.66	63.615	7.8864e-06	117.82	0.00035488	0.00016713	4.687e-05	676.64	1.7264e-06	1.7492e-06	990.17	296.51	1.9221e-06	1.7161e-06	453.7	218.15	132.22	63.077	1.8792e-06	116.48	142.654	151.081	141.018	69.720	199.140	211.873	68.982	73.242	199.296	200.890	72.639	76.056	77.465	82.485	220.528	80.212	-8191	255	
1939.737	1	1	0	0	0.13227	0.14611	0.083248	0.30016	0.17349	0.11314	0.28752	0.21973	0.11128	0.2092	0.29661	0.43713	0.10285	0.22197	0.15313	0.16276	-2.6583	-3.4354	-3.0125	-3.4833	-3.4625	-3.0125	-3.5042	-3.3958	-2.9958	-3.575	-3.5125	-3.4917	-3.5812	-3.3125	-3.3917	-3.6729	325.779	64.541	116.649	405.026	207.596	225.830	393.500	90.546	390.441	347.355	375.407	399.230	371.001	397.418	321.497	400.296	0.0010338	0.00054557	0.00019801	696.38	6.3491e-06	8.0267e-06	1019.4	303.44	5.5233e-06	7.2374e-06	467.46	222.7	134.78	63.619	7.6386e-06	118.69	0.00034832	0.00016086	4.8013e-05	678.37	1.7398e-06	1.7768e-06	995.12	297.67	1.9063e-06	1.7559e-06	456.79	219.47	132.9	63.151	1.8768e-06	117.17	141.813	132.631	128.180	69.596	202.049	205.401	68.838	73.436	207.742	191.594	72.498	76.007	77.263	82.530	216.592	80.129	-8191	255	
1939.833	1	1	0	0	0.19935	0.072502	0.051338	0.22285	0.079586	0.14021	0.115	0.15727	0.20673	0.087628	0.10383	0.30042	0.051079	0.34903	0.17227	0.11695	-2.6604	-3.3063	-3.1542	-3.2083	-3.5	-3.1229	-3.3208	-3.3604	-3.0521	-3.2896	-3.2104	-3.2438	-3.5021	-3.225	-3.1417	-3.4479	321.951	64.087	381.864	368.332	319.062	174.132	307.129	330.153	328.727	362.615	326.980	402.280	396.320	65.425	154.352	59.545	0.0011362	0.00066687	0.0001696	695.72	5.5941e-06	6.1659e-06	1023.9	304.74	6.7254e-06	5.801e-06	469.48	223.13	135.37	64.052	7.261e-06	118.63	0.00037147	0.00015844	4.5921e-05	680.14	1.8516e-06	1.7829e-06	998.17	298.46	1.9216e-06	1.8115e-06	458.89	220.07	133.37	63.543	1.8914e-06	117.54	141.502	141.551	125.819	69.572	213.367	213.568	69.038	73.207	203.772	199.917	72.231	75.982	77.344	82.204	205.945	80.428	-8191	255	
1939.929	1	1	0	0	0.17424	0.18636	0.25837	0.10949	0.25114	0.11746	0.10115	0.21058	0.29599	0.041967	0.15633	0.11668	0.1419	0.20052	0.14276	0.31263	-2.5062	-3.3083	-3.1417	-3.225	-3.3771	-3.1396	-3.2021	-3.4667	-3.1521	-3.4146	-3.2313	-3.3875	-3.3958	-3.3396	-3.1875	-3.6417	219.676	249.333	260.278	387.540	170.966	77.831	70.733	408.521	172.664	356.160	317.897	80.663	328.552	369.517	265.929	376.416	0.0011033	0.00069414	0.0001731	698.91	5.6398e-06	8.0597e-06	1023.7	305.82	6.3332e-06	6.9628e-06	470.94	223.17	135.03	64.148	6.081e-06	118.91	0.00036636	0.0001609	4.6086e-05	682.03	1.7592e-06	1.8012e-06	1000.6	299.77	1.9296e-06	1.7231e-06	460.88	219.98	132.91	63.68	1.904e-06	117.81	143.201	130.123	127.812	69.750	199.093	214.338	68.943	73.392	213.127	216.330	72.298	76.002	77.491	82.446	209.397	80.311	-8191	255	
1940.023	1	1	0	0	0.3048	0.14345	0.063199	0.26903	0.18089	0.19425	0.18879	0.33106	0.25224	0.24749	0.20667	0.058973	0.34448	0.30277	0.099755	0.19967	-2.7375	-3.1292	-3.3438	-3.1542	-3.2104	-3.3375	-3.3042	-3.5604	-2.9729	-3.3063	-3.4542	-3.15	-3.4688	-3.35	-3.2833	-3.6562	308.713	244.600	115.219	406.476	210.881	102.112	372.946	303.869	194.827	149.128	163.594	296.952	409.544	371.796	286.140	370.597	0.0011055	0.00060299	0.00017807	703.44	6.5212e-06	7.9582e-06	1032.2	306.88	6.1655e-06	5.6721e-06	469.34	222.96	135.64	64.35	5.7027e-06	119.33	0.00035873	0.00016118	4.4486e-05	684.07	1.8142e-06	1.7086e-06	1003.9	300.73	1.8857e-06	1.7397e-06	460.28	219.51	133.16	63.753	1.9172e-06	118.01	142.028	129.498	152.189	70.011	197.328	216.768	68.918	73.266	198.957	197.733	72.105	75.892	77.357	82.100	224.674	80.293	-8191	255	
1940.144	1	1	0	0	0.24245	0.088584	0.17591	0.27061	0.12381	0.41226	0.30355	0.26418	0.21497	0.2434	0.30161	0.19182	0.39537	0.056422	0.13348	0.3659	-2.5604	-3.2021	-3.2042	-3.2292	-3.3354	-3.2708	-3.2354	-3.55	-3.1083	-3.3187	-3.4208	-3.2438	-3.425	-3.3292	-3.1854	-3.7229	239.827	142.297	363.898	354.745	397.058	225.458	350.329	393.528	334.908	406.319	372.283	81.949	382.771	201.617	336.653	354.143	0.0010831	0.00079086	0.00019088	705.82	6.3277e-06	7.2449e-06	1027.7	306.7	5.5541e-06	4.8897e-06	472.41	223.74	135.77	64.603	8.5092e-06	120.45	0.00035824	0.00016463	4.598e-05	686.21	1.7832e-06	1.7354e-06	1005.8	301.54	1.9058e-06	1.6931e-06	461.77	220.07	133.6	64.167	1.9583e-06	118.69	141.711	135.299	133.954	69.979	214.831	204.644	69.095	73.148	193.526	204.657	72.414	76.211	77.371	82.222	211.148	80.328	-8191	255	
1940.240	1	1	0	0	0.17028	0.16906	0.19678	0.24715	0.17655	0.15584	0.29154	0.12397	0.23185	0.057913	0.44638	0.38568	0.15296	0.24909	0.099038	0.44358	-2.6271	-3.0563	-3.3937	-3.0646	-3.2396	-3.1625	-3.3312	-3.3667	-3.3208	-3.2438	-3.5667	-3.2125	-3.5333	-3.4146	-3.1458	-3.5521	218.520	281.755	66.860	86.782	350.536	120.879	287.957	395.038	395.260	369.772	393.519	408.530	399.462	108.340	277.597	350.835	0.0010627	0.00058749	0.00019373	706.65	7.4154e-06	6.8424e-06	1040	309.48	5.4193e-06	5.2361e-06	476.77	224.74	136.64	64.975	6.4803e-06	120.63	0.00035593	0.00016758	4.518e-05	690.12	1.7737e-06	1.6875e-06	1012.6	303.96	1.8506e-06	1.7426e-06	467.07	221.89	134.37	64.358	1.9413e-06	119.36	143.585	136.751	131.887	69.645	199.863	189.462	68.951	73.265	199.250	198.776	72.321	75.797	77.375	82.140	214.897	80.322	-8191	255	
1940.336	1	1	0	0	0.13902	0.27858	0.21804	0.30789	0.26673	0.060444	0.21097	0.21935	0.099163	0.23254	0.077897	0.17794	0.31305	0.070105	0.14084	0.18351	-2.6479	-3.1583	-3.3625	-3.275	-3.2708	-3.3375	-3.1917	-3.475	-3.2271	-3.1688	-3.4333	-3.4625	-3.3125	-3.3854	-3.125	-3.4604	189.359	315.658	290.548	378.178	132.533	357.732	409.642	203.202	141.724	179.716	381.859	379.065	370.560	335.985	119.324	360.057	0.0011234	0.00059479	0.00022304	711.31	5.6697e-06	6.0031e-06	1047.5	310.92	6.5081e-06	6.1697e-06	477.88	226.18	137.07	65.061	7.1046e-06	120.89	0.00036408	0.0001627	4.6429e-05	692.64	1.7832e-06	1.7343e-06	1019.5	305.53	1.8961e-06	1.7318e-06	469.41	222.86	134.75	64.502	1.9205e-06	119.65	145.065	154.646	142.964	69.896	197.710	207.443	68.766	73.140	199.671	194.150	72.468	76.237	77.288	82.261	201.417	80.150	-8191	255	
1940.432	1	1	0	0	0.20891	0.1177	0.041246	0.18849	0.16976	0.28315	0.33052	0.10462	0.18029	0.071303	0.32175	0.28502	0.12429	0.07493	0.26151	0.15551	-2.7104	-2.9875	-3.4542	-3.3729	-3.2729	-3.2271	-3.2396	-3.4458	-3.225	-3.1396	-3.4604	-3.4188	-3.475	-3.5021	-3.1854	-3.5604	152.507	152.372	98.808	378.975	284.601	117.826	370.618	154.044	244.964	162.566	411.157	367.992	365.969	358.868	336.843	379.550	0.001087	0.00077126	0.00020264	711.3	6.9473e-06	8.1496e-06	1042.2	309.95	6.4989e-06	5.7325e-06	475.06	223.82	135.28	64.776	7.5851e-06	120.36	0.00036087	0.00017046	4.4226e-05	692.3	1.827e-06	1.7134e-06	1014.8	304.19	1.8272e-06	1.7256e-06	465.03	220.48	133.35	64.169	1.8751e-06	118.79	142.269	140.593	128.434	69.744	205.410	211.266	69.084	73.223	198.025	210.453	72.474	76.170	77.436	82.360	220.132	80.456	-8191	255	
1940.504	1	1	0	0	0.22702	0.39185	0.057005	0.28538	0.11244	0.083413	0.12204	0.19049	0.043704	0.29613	0.20792	0.084149	0.066931	0.075128	0.19699	0.18768	-2.9521	-3.1896	-3.4042	-3.3771	-3.3417	-3.4646	-3.4625	-3.4917	-3.3479	-3.2604	-3.3896	-3.4604	-3.4729	-3.4646	-3.1708	-3.5896	265.915	162.742	375.363	351.879	368.678	223.044	57.288	354.262	399.508	215.220	346.738	357.051	117.381	317.464	127.433	320.887	0.0011618	0.00062564	0.00016945	710.12	5.5865e-06	6.2287e-06	1037.6	308.54	5.6007e-06	6.1294e-06	476.14	223.68	135.72	64.717	8.2608e-06	119.8	0.00036651	0.00016498	4.3801e-05	689.87	1.7138e-06	1.6574e-06	1011.4	303.6	1.8548e-06	1.7101e-06	466.29	220.41	133.58	64.084	1.8989e-06	118.53	141.008	144.329	128.795	69.691	215.262	214.002	68.660	73.098	205.150	194.465	72.198	76.032	77.362	82.363	220.540	80.268	-8191	255	
1940.625	1	1	0	0	0.17558	0.13319	0.099003	0.16903	0.080109	0.13003	0.12678	0.2202	0.074254	0.17623	0.22932	0.25147	0.10865	0.26699	0.11294	0.26297	-2.8083	-3.0729	-3.2542	-3.2125	-3.1125	-3.5667	-3.3625	-3.4375	-3.3208	-2.9979	-3.5208	-3.4813	-3.3792	-3.4458	-3.1354	-3.5958	121.413	310.613	252.709	386.520	354.031	176.071	393.620	304.540	235.312	227.203	373.296	68.617	349.558	55.686	101.724	300.430	0.0011086	0.00063217	0.00022532	709.26	5.3568e-06	6.1807e-06	1044.3	311.57	5.3087e-06	5.5766e-06	479.8	224.85	136.51	64.914	6.892e-06	120.56	0.00035962	0.00016864	4.3643e-05	691.38	1.7305e-06	1.7029e-06	1017.2	305.21	1.9191e-06	1.7759e-06	468.51	221.53	134.11	64.274	1.872e-06	119.29	142.552	133.951	139.840	69.699	207.927	214.520	68.910	72.934	196.517	204.582	72.212	75.949	77.366	82.310	204.264	80.217	-8191	255	
1940.721	1	1	0	0	0.15405	0.24416	0.12321	0.0377	0.11548	0.031309	0.25557	0.14815	0.27066	0.19122	0.096646	0.25813	0.26076	0.24104	0.35812	0.11194	-2.8229	-2.9667	-3.3292	-3.3208	-3.1792	-3.3729	-3.5021	-3.3479	-3.4104	-3.2229	-3.4375	-3.3979	-3.2313	-3.4167	-3.0354	-3.4833	289.745	263.327	73.115	375.312	262.164	81.800	347.971	59.851	213.073	158.207	366.701	355.667	405.227	370.814	266.995	74.535	0.0011018	0.00063343	0.00017623	708.08	6.1586e-06	5.845e-06	1044	311.66	6.7031e-06	6.3723e-06	479.68	225.82	137.13	65.026	8.6717e-06	121.36	0.00035972	0.00016347	4.596e-05	692.08	1.7847e-06	1.7153e-06	1017.6	305.77	1.8321e-06	1.7153e-06	470.22	222.45	134.51	64.481	1.9112e-06	119.83	142.199	142.831	130.285	69.790	203.959	196.547	68.895	73.161	196.069	199.994	72.212	76.093	77.399	82.379	201.787	80.191	-8191	255	
1940.817	1	1	0	0	0.12447	0.09133	0.10801	0.22409	0.21084	0.25242	0.088942	0.048341	0.062199	0.07662	0.24961	0.25968	0.19284	0.17042	0.21617	0.12698	-2.9396	-2.8937	-3.1854	-3.3458	-2.8958	-3.4604	-3.375	-3.425	-3.4021	-3.15	-3.4625	-3.4646	-3.0771	-3.3937	-3.15	-3.2625	411.391	259.648	226.513	150.270	99.290	326.277	283.954	147.937	243.864	297.194	68.576	71.902	108.923	279.230	205.409	296.985	0.0011064	0.00068041	0.00016127	706.03	6.0314e-06	6.3212e-06	1036.6	309.3	5.5649e-06	5.6982e-06	475.05	223.33	135.56	64.412	7.7633e-06	119.43	0.00035734	0.00016106	4.5901e-05	690.49	1.7895e-06	1.6539e-06	1013	303.1	1.7736e-06	1.7083e-06	463.4	220.46	133	63.951	1.8413e-06	118.24	141.921	134.669	145.060	69.992	220.430	212.836	69.079	73.581	206.714	223.659	72.475	76.139	77.203	82.256	211.461	80.434	-8191	255	
1940.938	1	1	0	0	0.060721	0.16444	0.17146	0.2208	0.17449	0.1429	0.021139	0.054858	0.21322	0.21683	0.22109	0.074008	0.19378	0.44626	0.19423	0.27691	-2.9958	-2.9833	-3.2687	-3.475	-3.1188	-3.4146	-3.2646	-3.0229	-3.3646	-3.1042	-3.3146	-3.5208	-3.15	-3.4396	-3.2	-3.1208	365.265	140.208	406.280	81.304	55.917	198.152	257.152	275.513	332.224	243.525	411.662	410.852	133.583	383.847	344.977	411.662	0.0011304	0.00072405	0.00021575	704.75	7.4239e-06	7.0456e-06	1029	305.5	6.0696e-06	5.5884e-06	470.34	223.28	135.06	64.424	8.1013e-06	119.47	0.00035886	0.00016529	4.5467e-05	685.55	1.7862e-06	1.6793e-06	1005	299.99	1.7966e-06	1.7091e-06	460.82	219.27	132.71	63.823	1.926e-06	118.22	141.811	145.967	136.922	69.637	207.460	206.026	68.872	73.219	202.942	183.016	72.395	76.138	77.537	82.125	220.536	80.395	-8191	255	
1941.032	1	1	0	0	0.10333	0.14838	0.03176	0.16473	0.10231	0.11385	0.1178	0.23401	0.15186	0.24292	0.089596	0.14746	0.16757	0.19924	0.26595	0.19991	-2.8208	-3.1521	-3.0687	-3.5292	-3.125	-3.3771	-3.4854	-3.275	-3.4104	-3.3229	-3.1604	-3.5708	-3.2833	-3.4479	-3.3042	-3.2375	379.703	250.712	196.959	402.965	59.913	298.983	391.745	77.029	246.939	272.791	114.427	289.916	287.052	331.650	177.227	413.287	0.0011044	0.00066686	0.0001775	707.55	5.6586e-06	6.2171e-06	1043.9	309.73	5.1347e-06	6.7956e-06	480.83	224.1	136	64.891	7.9296e-06	120.28	0.00035591	0.00015864	4.3434e-05	690.99	1.7455e-06	1.7094e-06	1017.3	304.88	1.7687e-06	1.6937e-06	469.03	220.9	133.84	64.157	1.8217e-06	118.84	141.689	146.840	138.350	69.370	197.376	218.013	68.844	73.094	217.117	212.751	72.355	76.033	77.091	82.421	206.601	80.412	-8191	255	
1941.105	1	1	0	0	0.12581	0.21815	0.11693	0.15285	0.10738	0.047154	0.12374	0.19399	0.21249	0.15428	0.14025	0.36873	0.27364	0.20337	0.14221	0.29608	-2.9125	-3.1188	-3.2042	-3.3688	-3.175	-3.2417	-3.5312	-3.2604	-3.2583	-3.2458	-3.0833	-3.7417	-3.2875	-3.3771	-3.3063	-3.1792	278.888	78.687	363.725	395.842	159.325	58.227	384.483	366.183	226.846	124.415	367.367	360.882	375.752	398.595	261.862	321.337	0.0011303	0.00065825	0.00021642	711.87	5.0541e-06	6.6209e-06	1043.3	311.36	5.3719e-06	5.9532e-06	477.6	224.64	136.01	64.742	7.6448e-06	120.56	0.00035971	0.00015487	4.4865e-05	692.81	1.7544e-06	1.6611e-06	1016.7	305.47	1.8316e-06	1.7202e-06	469.09	221.33	134.1	64.121	1.8229e-06	119.08	142.877	145.001	130.866	69.630	197.784	201.487	68.859	73.202	208.809	195.507	72.487	76.013	77.326	82.257	209.964	80.421	-8191	255	
1941.224	1	1	0	0	0.25929	0.18411	0.25272	0.12076	0.17466	0.050596	0.23689	0.21194	0.1007	0.15235	0.10747	0.2051	0.26786	0.18559	0.24536	0.11579	-3.0771	-3.2	-3.0062	-3.4292	-3.1083	-3.2	-3.6583	-3.25	-3.3917	-3.4729	-3.1396	-3.4042	-3.4333	-3.2604	-3.3688	-3.2979	127.034	230.526	154.057	305.420	390.423	251.877	304.439	368.707	351.735	130.608	411.282	282.894	408.194	340.678	393.161	60.748	0.0011393	0.00073435	0.00019852	701.87	5.6286e-06	8.3314e-06	1042.5	308.63	6.6371e-06	6.6552e-06	477.75	225.05	135.95	64.614	7.9303e-06	120.92	0.00035769	0.00015924	4.4719e-05	688.16	1.7519e-06	1.6611e-06	1014.8	302.97	1.7288e-06	1.6621e-06	465.96	221.69	133.47	64.136	1.8045e-06	119.43	143.268	142.810	132.508	69.544	200.203	204.683	68.811	73.316	195.043	203.720	72.592	76.124	77.213	82.407	211.758	80.291	-8191	255	
1941.320	1	1	0	0	0.11926	0.21501	0.1593	0.20979	0.21175	0.32938	0.12889	0.089012	0.30428	0.11832	0.2903	0.30922	0.06935	0.17929	0.17348	0.37075	-2.6708	-3.3708	-2.9813	-3.3063	-3.1188	-3.1479	-3.6437	-3.2875	-3.2562	-3.2708	-3.0667	-3.5187	-3.3375	-3.2542	-3.4688	-3.3875	374.918	384.159	340.735	70.247	117.121	231.938	324.509	346.542	110.045	340.015	409.245	56.701	411.531	354.458	394.422	365.730	0.0010976	0.00088703	0.00018548	706.6	7.1136e-06	7.8984e-06	1040.2	309.19	6.0865e-06	5.4466e-06	475.19	222.96	135.04	64.365	6.8154e-06	119.78	0.00035165	0.000157	4.4711e-05	689.07	1.6708e-06	1.7212e-06	1012	302.93	1.7263e-06	1.6053e-06	463.59	219.98	133.27	63.938	1.7404e-06	118.48	142.668	140.582	143.563	69.521	199.294	212.553	69.023	73.411	211.775	211.419	72.422	76.016	77.398	82.268	212.556	80.265	-8191	255	
1941.417	1	1	0	0	0.25362	0.16838	0.062968	0.13097	0.042992	0.068748	0.27471	0.25408	0.13263	0.22218	0.3211	0.19334	0.21016	0.052876	0.20827	0.2098	-2.9958	-3.3667	-2.9688	-3.4854	-3.0729	-3.1125	-3.4646	-3.2521	-3.1521	-3.3042	-3.1625	-3.4688	-3.4104	-3.3896	-3.2604	-3.2687	210.171	167.489	215.011	373.983	108.226	217.369	386.050	347.538	287.148	319.567	337.320	234.692	366.064	355.620	185.052	383.126	0.0011193	0.00058644	0.0001964	705.85	5.883e-06	5.2105e-06	1037.8	309.08	6.802e-06	7.1804e-06	476.9	223.48	135.62	64.942	8.5753e-06	120.06	0.00035898	0.00015559	4.308e-05	688.12	1.7027e-06	1.6217e-06	1011.7	302.95	1.7993e-06	1.5844e-06	466	220.04	133.54	64.249	1.86e-06	118.99	142.815	135.702	120.948	69.426	210.617	211.598	68.946	73.188	205.287	214.838	72.264	76.029	77.273	82.336	198.147	80.207	-8191	255	
1941.537	1	1	0	0	0.038533	0.12343	0.15249	0.23644	0.067493	0.091767	0.15411	0.32187	0.098699	0.24116	0.24116	0.09488	0.17051	0.064054	0.14789	0.25412	-2.6542	-3.4458	-3.0271	-3.2875	-3.3979	-3.1646	-3.4583	-3.3458	-3.1396	-3.3625	-3.2083	-3.525	-3.5062	-3.1646	-3.3604	-3.2708	106.672	265.950	222.186	342.779	68.624	213.932	322.407	216.486	146.987	311.996	338.296	403.611	72.447	68.947	229.637	359.022	0.0011333	0.00053997	0.00018576	709.94	6.776e-06	6.4268e-06	1047.5	310	6.6422e-06	7.6875e-06	480.79	224.27	136.03	64.958	7.5407e-06	120.97	0.00036224	0.00015424	4.4112e-05	693.58	1.7465e-06	1.6741e-06	1018.2	304.85	1.8547e-06	1.668e-06	469.02	220.99	133.84	64.352	1.7938e-06	119.57	142.732	148.341	136.005	69.653	199.000	210.832	68.696	73.032	213.046	203.688	72.439	76.232	77.252	82.352	216.557	80.268	-8191	255	
1941.633	1	1	0	0	0.11261	0.12248	0.31035	0.11733	0.054095	0.13475	0.08175	0.24677	0.076454	0.050435	0.10029	0.15073	0.13225	0.14287	0.19303	0.22864	-2.7542	-3.2479	-3.1354	-3.3104	-3.3021	-3.1271	-3.3958	-3.2208	-3.1729	-3.4854	-3.2	-3.3896	-3.4083	-3.0687	-3.3729	-3.3917	407.430	251.397	297.571	387.780	59.522	138.507	236.881	272.340	247.620	253.656	308.484	350.508	410.168	249.772	184.251	392.250	0.0011513	0.00067109	0.00024838	704.49	5.5865e-06	6.2068e-06	1034.5	306.56	5.5528e-06	5.683e-06	469.51	223.46	134.79	64.492	5.9385e-06	119.59	0.00036758	0.00015357	4.5739e-05	687.2	1.7178e-06	1.7038e-06	1010.1	300.33	1.872e-06	1.6146e-06	459.3	220.22	132.36	63.695	1.8546e-06	118.29	141.620	152.864	132.893	69.860	199.982	223.413	69.091	73.332	196.826	206.075	72.377	76.064	77.549	82.276	196.649	80.296	-8191	255	
1941.730	1	1	0	0	0.12779	0.16421	0.13673	0.040146	0.10843	0.070649	0.15865	0.27966	0.080376	0.27824	0.093001	0.043156	0.011804	0.20677	0.20781	0.27808	-2.7625	-3.4938	-3.0375	-3.3208	-3.35	-2.9042	-3.3333	-3.5604	-3.0542	-3.3604	-3.4104	-3.45	-3.55	-3.3875	-3.3354	-3.5396	203.986	197.867	151.337	397.432	302.544	144.171	266.166	386.927	325.122	232.191	390.282	274.472	363.016	84.612	72.675	308.710	0.0011122	0.00073009	0.00020306	697.35	7.4583e-06	7.1117e-06	1026.7	303.71	6.6372e-06	6.3074e-06	468.54	223.25	134.08	64.169	7.9164e-06	119.15	0.0003578	0.00015976	4.6689e-05	682.48	1.789e-06	1.6855e-06	1005.8	297.91	1.8819e-06	1.6877e-06	457.17	219.91	131.87	63.487	1.9088e-06	117.85	144.083	137.713	136.124	69.601	198.085	212.695	68.962	73.417	195.504	202.128	72.419	76.082	77.557	82.265	204.074	80.173	-8191	255	
1941.801	1	1	0	0	0.088718	0.016434	0.042342	0.27361	0.093491	0.19372	0.13282	0.24389	0.10941	0.25039	0.10646	0.071348	0.067692	0.28267	0.1278	0.31821	-2.6271	-3.4042	-2.9479	-3.2208	-3.3458	-3.1688	-3.1354	-3.55	-3.0167	-3.5604	-3.3208	-3.3417	-3.3542	-3.2833	-3.3042	-3.5333	254.421	170.880	411.473	374.813	163.367	325.230	97.029	415.080	378.487	401.352	321.773	65.320	349.269	320.603	273.286	327.774	0.0010886	0.00067143	0.00020422	702.25	6.2878e-06	7.4835e-06	1029.6	306.27	6.1504e-06	5.3351e-06	471.22	222.39	134.57	64.577	8.0143e-06	120.17	0.00035792	0.00015807	4.4762e-05	683.35	1.7377e-06	1.7261e-06	1005.7	300.25	1.8219e-06	1.647e-06	460.95	219.02	132.66	63.868	1.8573e-06	118.67	141.775	149.065	131.608	69.925	214.165	196.404	69.234	73.177	208.224	210.087	72.548	75.969	77.262	82.418	214.335	80.453	-8191	255	
1941.920	1	1	0	0	0.11297	0.15291	0.072255	0.070846	0.36517	0.10509	0.12807	0.30739	0.18075	0.28061	0.18804	0.093665	0.15359	0.11301	0.27036	0.39903	-2.5729	-3.3396	-3.1354	-3.0021	-3.3458	-3.1146	-3.2979	-3.4396	-3.1375	-3.5	-3.2208	-3.1063	-3.6437	-3.3333	-3.2833	-3.6646	312.299	291.209	255.532	150.390	251.253	70.529	116.143	331.264	86.025	81.897	357.226	347.649	174.738	380.262	172.220	374.320	0.001096	0.00056676	0.00016128	707.25	4.9101e-06	8.266e-06	1044.9	310.13	6.0518e-06	6.1834e-06	477.2	224.07	135.16	64.946	7.821e-06	120.99	0.00035867	0.00015721	4.4652e-05	691.31	1.7076e-06	1.7287e-06	1019.5	304.34	1.9153e-06	1.7057e-06	467.64	220.27	133.23	64.261	1.8985e-06	119.61	141.757	145.149	133.733	69.437	201.426	208.234	68.692	73.169	207.690	209.527	72.063	76.006	77.433	82.047	217.595	80.201	-8191	255	
1942.016	1	1	0	0	0.22629	0.074928	0.12424	0.25718	0.055777	0.13171	0.30286	0.11797	0.077907	0.094035	0.13666	0.24465	0.067267	0.22314	0.09138	0.23902	-2.525	-3.2021	-3.2938	-3.2313	-3.2771	-3.2438	-3.3563	-3.4333	-3.3396	-3.4021	-3.4208	-3.1771	-3.6042	-3.3521	-3.1021	-3.6479	335.417	271.094	262.071	359.774	409.987	361.585	322.116	315.260	87.844	315.206	85.621	361.570	191.587	384.496	60.055	360.012	0.0010964	0.0007935	0.00017288	710.46	6.2784e-06	5.6287e-06	1048.3	308.91	6.8536e-06	5.9658e-06	478.56	224.02	135.17	65.135	7.2722e-06	121.22	0.00035869	0.00016751	4.4447e-05	694	1.7543e-06	1.6953e-06	1021.3	303.06	1.8138e-06	1.7387e-06	466.7	220.49	133.23	64.465	1.9802e-06	120.04	142.205	132.491	135.276	69.704	173.284	208.138	68.906	73.215	199.236	198.674	72.478	76.132	77.383	82.496	225.706	80.284	-8191	255	
1942.112	1	1	0	0	0.18808	0.035527	0.067926	0.26633	0.26883	0.042859	0.099103	0.21445	0.15985	0.14979	0.30437	0.27287	0.21418	0.08147	0.22961	0.054811	-2.6708	-3.4604	-3.4083	-3.2062	-3.3312	-3.1792	-3.4688	-3.4354	-3.225	-3.4021	-3.6562	-3.2667	-3.3	-3.3438	-2.9938	-3.6771	78.616	74.311	196.100	359.883	363.902	130.838	179.138	315.610	350.546	409.974	395.068	362.160	393.383	326.177	321.203	312.452	0.0011018	0.00057648	0.00022665	713.86	7.0555e-06	7.5519e-06	1046.2	308.92	5.7554e-06	5.8123e-06	476.83	225.63	135.89	65.217	7.7924e-06	121.93	0.0003595	0.00015892	4.3805e-05	694.61	1.7288e-06	1.7156e-06	1022.8	302.68	1.8222e-06	1.7095e-06	465.84	221.88	133.46	64.69	1.9233e-06	120.72	141.181	157.773	118.958	69.600	203.396	213.727	69.100	73.308	197.221	219.050	72.111	76.189	77.357	82.303	213.246	80.342	-8191	255	
1942.209	1	1	0	0	0.15403	0.016839	0.095652	0.097611	0.30352	0.25491	0.069955	0.19976	0.18158	0.18369	0.078948	0.17475	0.2511	0.1865	0.022989	0.10698	-2.8312	-3.2646	-3.2938	-3.0333	-3.3917	-3.1708	-3.3688	-3.6604	-3.2313	-3.3792	-3.5896	-3.3542	-3.6063	-3.5875	-3.2042	-3.7271	399.159	408.718	235.147	271.653	371.037	265.773	326.954	261.134	186.078	302.794	346.321	307.934	384.693	365.793	204.634	65.299	0.0011415	0.00068544	0.00024416	714.1	6.6242e-06	5.6727e-06	1048.8	309.4	5.2495e-06	5.4536e-06	477.5	225.01	136.69	65.432	7.839e-06	122.01	0.00037029	0.00016886	4.7449e-05	694.33	1.7587e-06	1.6758e-06	1024.6	303.24	1.8141e-06	1.6862e-06	467.07	221.57	133.78	64.761	1.857e-06	120.55	140.348	148.489	138.281	69.580	189.648	203.247	68.993	73.196	204.829	204.703	72.428	76.228	77.477	82.262	222.200	80.313	-8191	255	
1942.329	1	1	0	0	0.24844	0.22942	0.22517	0.35929	0.13613	0.1453	0.079803	0.068893	0.21677	0.1131	0.19218	0.24739	0.17121	0.25573	0.050685	0.20011	-2.7771	-3.2167	-3.3333	-3.3271	-3.2208	-3.3542	-3.2625	-3.4208	-3.125	-3.2646	-3.5729	-3.3396	-3.3563	-3.4833	-3.025	-3.5312	394.390	406.242	225.849	350.195	154.775	146.879	382.237	344.403	89.953	332.023	386.329	338.676	127.259	343.080	260.207	327.821	0.0011199	0.00069002	0.00022488	714.65	7.7166e-06	6.6799e-06	1057.1	311.06	7.6964e-06	7.1789e-06	483.14	225.47	135.95	66.334	8.9782e-06	124.2	0.00036465	0.00016786	4.4344e-05	697.12	1.7221e-06	1.7146e-06	1031	305.39	1.9142e-06	1.6699e-06	472.71	221.64	133.71	65.667	1.961e-06	122.75	140.432	151.725	142.815	69.817	200.958	201.455	68.657	73.469	194.953	206.922	72.072	76.089	77.606	82.492	207.695	80.266	-8191	255	
1942.401	1	1	0	0	0.13592	0.093421	0.1264	0.28058	0.09885	0.031944	0.17821	0.20298	0.28078	0.13764	0.0093596	0.23591	0.44125	0.20001	0.098883	0.19659	-2.7062	-3.3833	-3.3667	-3.0687	-3.1937	-3.4729	-3.1813	-3.6458	-3.3542	-3.0542	-3.5333	-3.3083	-3.3833	-3.4667	-3.1479	-3.5458	393.368	365.626	340.780	381.786	293.065	190.967	103.291	359.841	282.365	408.619	132.171	380.000	372.430	403.060	320.622	343.858	0.0011364	0.00077046	0.00017386	723.53	5.1017e-06	7.794e-06	1079.7	317.96	6.073e-06	7.517e-06	496.44	227.88	137.6	67.664	8.5682e-06	126.46	0.00036774	0.00017039	4.4644e-05	705.44	1.785e-06	1.7016e-06	1052.6	311.52	1.8681e-06	1.769e-06	486.03	224.32	135.37	66.807	1.9515e-06	125.02	143.377	150.380	137.888	69.258	207.216	213.085	68.673	73.358	206.743	200.376	72.102	75.928	77.437	82.300	206.889	80.172	-8191	255	
1942.497	1	1	0	0	0.11801	0.16213	0.10816	0.1105	0.18806	0.14481	0.20276	0.29662	0.062447	0.12654	0.30326	0.14036	0.10785	0.11389	0.19681	0.31668	-2.8958	-3.1646	-3.45	-3.2396	-3.1562	-3.325	-3.3812	-3.4562	-3.2687	-3.1396	-3.4646	-3.4104	-3.2062	-3.4104	-3.0833	-3.6937	72.633	161.246	191.561	71.581	233.116	233.039	118.827	402.958	254.456	374.543	361.020	55.351	361.959	412.231	243.696	351.023	0.0011922	0.00086539	0.00019882	727.35	5.8532e-06	5.5248e-06	1096	320.76	6.4016e-06	7.612e-06	507.09	229.32	138.48	68.368	7.7509e-06	129.07	0.00037822	0.00017311	4.6043e-05	709.98	1.8815e-06	1.6966e-06	1065.5	315.21	1.938e-06	1.8498e-06	496.35	225.91	136.26	67.657	1.9925e-06	127.68	142.658	136.508	139.970	69.366	208.584	201.146	68.782	73.272	185.248	202.434	72.084	75.981	77.537	82.464	210.310	80.380	-8191	255	
1942.618	1	1	0	0	0.35261	0.062719	0.061913	0.24139	0.088868	0.097377	0.16954	0.34445	0.13629	0.16412	0.030209	0.26517	0.13445	0.17359	0.085728	0.11584	-2.8438	-3.1813	-3.1979	-3.3	-2.9917	-3.3604	-3.3438	-3.4562	-3.3104	-3.1292	-3.6167	-3.5271	-3.1729	-3.6958	-3.1833	-3.3812	351.015	402.669	244.695	405.019	379.836	91.472	323.767	329.374	225.676	157.401	129.899	356.973	410.685	376.880	200.295	326.266	0.0011996	0.00072629	0.00017319	727.15	7.3859e-06	6.6478e-06	1103.8	322.74	7.1484e-06	8.6899e-06	510.14	230.42	138.54	68.865	7.5157e-06	129.76	0.00039104	0.00016822	4.8431e-05	712.45	1.9072e-06	1.7639e-06	1077.1	316.51	1.9388e-06	1.8696e-06	500.13	226.43	136.25	68.064	2.0251e-06	128.08	143.081	141.878	143.776	69.792	203.318	206.877	68.655	73.169	202.071	197.532	72.056	76.092	77.366	82.342	201.714	80.169	-8191	255	
1942.714	1	1	0	0	0.099271	0.24016	0.20817	0.15115	0.17437	0.29469	0.11284	0.19825	0.14303	0.08406	0.22081	0.19731	0.12585	0.13375	0.17359	0.14933	-2.9562	-3.1271	-3.45	-3.3208	-3.1021	-3.4729	-3.3438	-3.5521	-3.4125	-3.1562	-3.5229	-3.3729	-3.2687	-3.7958	-3.2958	-3.5771	71.630	321.436	93.771	359.096	305.950	247.020	304.401	394.973	140.214	122.562	335.525	69.110	147.685	305.540	208.776	401.955	0.0011798	0.00077429	0.00020701	729.78	5.8159e-06	7.6567e-06	1100.1	321.18	5.5314e-06	6.19e-06	508.18	227.93	138.09	68.611	8.3932e-06	129.13	0.0003836	0.0001776	4.8249e-05	712.57	1.8986e-06	1.7978e-06	1075	314.99	1.9473e-06	1.8076e-06	497.44	224.45	135.66	67.968	2.0167e-06	127.74	140.758	137.203	138.776	69.501	205.024	207.201	68.719	73.370	202.893	220.842	72.050	75.991	77.601	82.345	202.307	80.204	-8191	255	
1942.810	1	1	0	0	0.33815	0.16279	0.12462	0.09935	0.2157	0.067824	0.083905	0.12163	0.3346	0.10699	0.11427	0.13524	0.18114	0.20084	0.44904	0.25073	-3.1042	-3	-3.2125	-3.4708	-3.2083	-3.2938	-3.2458	-3.2208	-3.4271	-3.1708	-3.5604	-3.6063	-3.1354	-3.6104	-3.3125	-3.2354	58.073	371.303	214.207	400.628	251.337	148.924	157.034	414.776	91.911	337.452	314.131	365.836	344.262	285.857	201.342	364.570	0.0012027	0.0005954	0.00024194	732.69	5.6083e-06	7.8833e-06	1099.8	320.55	6.0815e-06	6.2118e-06	512.66	228.92	138.7	68.557	8.7626e-06	129.12	0.000388	0.00016702	4.8596e-05	711.48	1.9034e-06	1.8024e-06	1073.6	314.81	1.9939e-06	1.8536e-06	500.16	225.1	136.05	68.029	2.0037e-06	127.81	143.846	142.633	141.977	69.422	204.867	217.858	68.676	73.145	194.363	213.649	72.193	76.168	77.442	82.276	212.961	80.113	-8191	255	
1942.906	1	1	0	0	0.21577	0.1328	0.16689	0.18946	0.18074	0.072817	0.35317	0.27772	0.078338	0.018915	0.17716	0.11365	0.060776	0.31072	0.095962	0.40675	-3.2687	-3.1688	-3.2479	-3.3292	-3.2042	-3.3583	-3.45	-3.2979	-3.1875	-3.2396	-3.3438	-3.6021	-3.175	-3.4313	-3.275	-3.2146	170.046	301.160	133.949	338.553	154.171	358.143	390.704	342.144	336.190	245.208	119.690	357.087	316.718	360.932	69.400	376.681	0.0011974	0.00059793	0.0002129	728.87	6.6972e-06	5.8001e-06	1105.8	325.08	6.2818e-06	6.7366e-06	521.82	231.38	140.6	68.609	8.1725e-06	129.51	0.00039007	0.00017628	4.8344e-05	711.82	1.9457e-06	1.9129e-06	1079.9	318.84	2.0429e-06	1.872e-06	509.66	227.75	137.83	68.058	2.076e-06	128.08	141.505	138.902	116.369	69.663	211.901	209.203	68.698	73.322	198.121	201.863	72.196	75.933	77.183	82.314	216.119	80.123	-8191	255	
1943.000	1	1	0	0	0.14211	0.13291	0.18165	0.23201	0.1735	0.11712	0.10743	0.25065	0.14275	0.24577	0.071215	0.16126	0.12193	0.28495	0.15631	0.16248	-2.9583	-3.1937	-3.0146	-3.5396	-3.2979	-3.4708	-3.4167	-3.1875	-3.3375	-3.2917	-3.375	-3.6083	-3.2021	-3.3708	-3.4167	-3.2562	139.520	109.166	400.079	70.950	236.697	307.897	251.750	292.597	56.971	404.886	370.733	58.975	70.984	402.011	363.558	277.817	0.0011527	0.00070782	0.00025057	731.37	5.4223e-06	7.3485e-06	1115.3	329.44	6.0275e-06	7.166e-06	528	233.44	141.45	69.006	9.3431e-06	130.14	0.00037424	0.00017927	5.0704e-05	713.44	1.9713e-06	1.8611e-06	1085.7	323.07	2.0254e-06	1.8969e-06	515.49	229.82	139.21	68.378	2.0642e-06	128.62	142.302	141.182	125.868	69.596	199.120	206.188	68.624	73.185	207.179	211.593	71.930	75.922	77.270	82.442	219.630	80.103	-8191	255	
1943.097	1	1	0	0	0.10332	0.19526	0.047326	0.34619	0.15623	0.1634	0.27621	0.065346	0.083547	0.22716	0.14551	0.2358	0.18954	0.3442	0.25919	0.20274	-2.9021	-3.1708	-3.2604	-3.4708	-2.9583	-3.1208	-3.4792	-3.3708	-3.4062	-3.2313	-3.1271	-3.6667	-3.3854	-3.4104	-3.5042	-3.3458	68.879	166.675	360.793	350.992	344.129	399.519	296.768	357.802	333.692	137.786	345.089	390.531	325.697	368.605	88.946	349.580	0.00117	0.00065404	0.0001784	734.39	5.6715e-06	6.5457e-06	1109.8	328.75	7.3609e-06	6.673e-06	524.08	232.19	140.49	68.889	8.5489e-06	129.2	0.00038639	0.00017275	5.0503e-05	716.32	1.9432e-06	1.9032e-06	1084.6	322.85	1.9658e-06	1.8803e-06	512.3	227.99	138.44	68.22	2.0079e-06	127.59	143.050	140.958	145.933	69.536	211.472	215.172	68.937	73.174	199.963	206.325	71.804	75.987	77.556	82.364	212.410	80.255	-8191	255	
1943.217	1	1	0	0	0.081066	0.13896	0.16229	0.28525	0.10691	0.077432	0.31332	0.22293	0.14218	0.071873	0.078395	0.28247	0.2195	0.23811	0.13521	0.15226	-2.9938	-3.0542	-3.1333	-3.3583	-3.2167	-3.1771	-3.6458	-3.2604	-3.4729	-3.2208	-3.2292	-3.5771	-3.3333	-3.4396	-3.3875	-3.3	235.706	281.060	279.616	61.566	110.385	87.716	371.180	395.759	296.805	294.996	394.730	343.486	368.488	322.322	232.916	373.736	0.0012315	0.00079482	0.00023803	736.08	7.6139e-06	6.6714e-06	1110.7	328.43	6.6284e-06	8.711e-06	525.15	232.26	140.74	68.89	8.7233e-06	129.37	0.0003932	0.00017278	5.0018e-05	716.24	1.9184e-06	1.8513e-06	1083.3	322.81	2.0333e-06	1.8855e-06	511.7	228.28	138.48	68.144	1.9464e-06	127.63	142.301	142.886	131.139	69.679	195.078	214.172	68.690	73.342	198.554	208.823	72.192	76.051	77.317	82.157	210.185	80.230	-8191	255	
1943.313	1	1	0	0	0.1078	0.13743	0.09678	0.13923	0.16026	0.064221	0.24067	0.31613	0.040759	0.23105	0.10459	0.42864	0.1315	0.29199	0.15555	0.28096	-2.8333	-3.1208	-3.2562	-3.5896	-3.2104	-3.1271	-3.5583	-3.2021	-3.3167	-3.5062	-3.2479	-3.5646	-3.3229	-3.4042	-3.4083	-3.5083	63.836	321.059	395.084	309.309	89.969	233.027	412.502	398.534	286.881	407.825	327.408	378.277	399.866	102.322	268.542	378.604	0.0011867	0.00070329	0.00018363	733.85	6.0474e-06	7.6361e-06	1113.4	330.6	6.7304e-06	6.3739e-06	525.44	233.6	141.91	69.127	8.5846e-06	129.91	0.00038675	0.000173	4.8131e-05	718.13	1.9148e-06	1.7835e-06	1085	324.53	2.0026e-06	1.8316e-06	513.37	229.48	139.03	68.336	2.0378e-06	128.19	143.176	131.648	132.555	69.697	218.371	210.125	68.589	73.082	197.664	209.614	71.829	75.928	77.014	82.209	197.375	80.218	-8191	255	
1943.410	1	1	0	0	0.17459	0.11458	0.055272	0.088553	0.29541	0.12792	0.14006	0.24167	0.074552	0.18235	0.074471	0.40976	0.097624	0.19807	0.12211	0.17919	-2.9875	-3.3896	-2.9313	-3.6083	-3.2396	-3.0896	-3.4688	-3.2958	-3.2271	-3.2979	-3.0979	-3.5187	-3.4604	-3.3208	-3.2333	-3.35	108.739	387.236	378.493	252.129	87.602	167.167	351.788	327.080	100.254	227.437	242.641	373.743	135.872	210.658	228.834	407.993	0.0012045	0.00062007	0.00021121	740.26	7.3482e-06	8.5134e-06	1113.4	329.46	6.3136e-06	7.7895e-06	525.77	233.24	142.4	69.134	9.211e-06	129.67	0.00039019	0.00017511	4.7859e-05	720.54	1.988e-06	1.8588e-06	1088.2	324.14	1.9806e-06	1.7596e-06	515.67	230.31	139.76	68.541	2.0333e-06	128.57	142.172	143.092	130.305	69.475	205.893	202.557	68.393	73.268	208.962	201.484	71.942	75.917	77.397	82.251	218.404	80.202	-8191	255	
1943.506	1	1	0	0	0.17143	0.18086	0.038674	0.10132	0.16591	0.10686	0.051084	0.18136	0.15609	0.17079	0.18569	0.096872	0.25925	0.19215	0.064977	0.24049	-2.7479	-3.3312	-3.0292	-3.3	-3.2	-2.8729	-3.4354	-3.3771	-3.0187	-3.2583	-3.1021	-3.3417	-3.3667	-3.1792	-3.325	-3.3833	367.167	90.160	385.227	375.238	322.159	98.378	376.468	87.713	166.661	198.280	413.031	71.239	381.104	379.537	133.062	389.138	0.0011858	0.00076506	0.00024854	741.73	8.1892e-06	7.9057e-06	1119.5	331.68	6.35e-06	6.2604e-06	529.26	233.32	141.71	68.887	7.0662e-06	129.07	0.00039095	0.00016898	4.8505e-05	723.71	1.9203e-06	1.8534e-06	1092.7	325.53	2.0389e-06	1.8266e-06	517.31	229.69	139.58	68.34	1.9799e-06	127.75	142.361	146.172	141.094	69.155	193.078	216.737	68.433	73.044	216.570	219.699	72.061	75.996	77.195	82.331	206.881	80.033	-8191	255	
1943.626	1	1	0	0	0.10271	0.17312	0.2874	0.23429	0.065558	0.19616	0.27353	0.10752	0.25669	0.17243	0.053628	0.23161	0.13026	0.34686	0.17881	0.34984	-2.8896	-3.4854	-3.0708	-3.2208	-3.2313	-3.125	-3.5083	-3.4479	-3.1063	-3.5438	-3.1958	-3.4729	-3.525	-3.2271	-3.4958	-3.4646	272.536	350.598	281.358	370.398	295.948	273.688	92.391	340.118	204.013	210.535	326.229	392.520	405.288	68.685	72.550	384.672	0.0012057	0.00066933	0.00017922	738.57	5.5715e-06	7.9337e-06	1117.8	331.51	6.8643e-06	5.5926e-06	527.16	231.48	141.17	69.126	9.7558e-06	129.52	0.00039286	0.00017131	4.9029e-05	721.19	1.8131e-06	1.8197e-06	1088.1	325.28	2.0191e-06	1.7899e-06	514.46	227.65	138.84	68.407	2.0615e-06	127.99	142.011	141.234	130.527	69.435	212.428	212.865	68.491	73.203	193.501	203.553	72.002	75.731	77.247	82.120	206.059	80.208	-8191	255	
1943.698	1	1	0	0	0.25728	0.10902	0.24374	0.32287	0.095536	0.066745	0.20786	0.11168	0.21772	0.086279	0.27438	0.36088	0.20008	0.23326	0.083867	0.13375	-2.7292	-3.3854	-3.1021	-3.1292	-3.3479	-3.1125	-3.4146	-3.5771	-2.8937	-3.3417	-3.2833	-3.2896	-3.3187	-3.1354	-3.2146	-3.5146	292.353	198.020	220.199	372.053	147.314	139.570	384.725	355.964	188.770	350.059	396.224	370.909	110.733	73.642	295.478	379.576	0.001222	0.00074392	0.0002096	737.47	4.761e-06	6.9813e-06	1117.8	329.42	5.2221e-06	6.929e-06	522.69	232.16	141.47	69.226	7.0638e-06	130.44	0.00038842	0.00017442	4.9577e-05	719.25	1.8573e-06	1.8056e-06	1088.9	322.94	1.9751e-06	1.7327e-06	511.14	228.57	138.87	68.734	1.9827e-06	128.7	142.070	143.473	143.284	69.435	219.143	208.423	68.627	73.039	197.668	214.509	72.013	75.942	77.280	82.245	214.613	80.207	-8191	255	
1943.794	1	1	0	0	0.25567	0.21368	0.31154	0.19681	0.21467	0.099515	0.18297	0.3188	0.030914	0.16706	0.0669	0.20241	0.22568	0.2414	0.13658	0.25982	-2.6063	-3.3854	-3.1104	-3.2146	-3.4604	-3.1917	-3.425	-3.4938	-3.1854	-3.4688	-3.3917	-3.3875	-3.6208	-3.4688	-3.1604	-3.5833	369.941	398.754	219.254	387.853	334.401	130.574	361.101	395.387	289.937	336.964	391.346	324.915	376.759	413.636	83.787	330.301	0.0012337	0.0007084	0.0001678	743.55	6.8919e-06	7.2554e-06	1118.2	327.37	6.062e-06	6.7245e-06	521.76	232.1	141.07	69.333	7.9872e-06	130.67	0.00038778	0.00017076	4.7895e-05	724.89	1.8255e-06	1.8314e-06	1088.7	321.1	2.046e-06	1.8647e-06	509.67	228.83	138.73	68.83	1.9914e-06	128.93	143.597	131.598	142.951	69.413	195.922	203.498	68.711	73.037	191.349	216.422	72.034	76.029	77.232	82.158	205.585	80.108	-8191	255	
1943.890	1	1	0	0	0.095854	0.13232	0.11561	0.16411	0.21273	0.1042	0.24785	0.27447	0.19712	0.13514	0.24354	0.23939	0.1679	0.070942	0.11725	0.18253	-2.6583	-3.2542	-3.1042	-3.0083	-3.3937	-2.9625	-3.3771	-3.45	-3.1667	-3.3021	-3.1917	-3.3292	-3.2812	-3.325	-3.1333	-3.6479	291.009	326.805	185.664	290.747	97.121	78.223	67.413	372.160	176.177	386.187	59.904	393.472	324.954	386.883	369.380	316.904	0.0011617	0.00076521	0.00019351	744.41	7.2463e-06	7.6779e-06	1114.5	329.19	5.8547e-06	6.2744e-06	525.1	233.18	142.08	69.54	8.2772e-06	130.52	0.00038332	0.00017841	4.769e-05	724.18	1.8617e-06	1.8546e-06	1089.6	322.67	1.9566e-06	1.793e-06	513.12	229.68	139.38	69.048	2.024e-06	129	144.282	142.940	131.436	69.383	200.314	210.920	68.724	73.058	205.358	216.360	72.130	75.946	77.215	82.330	204.964	80.022	-8191	255	
1943.986	1	1	0	0	0.13006	0.085272	0.26233	0.31262	0.25837	0.055138	0.25029	0.14217	0.050656	0.15633	0.38445	0.19252	0.14832	0.075241	0.028698	0.1011	-2.5812	-3.2354	-3.0583	-3.0167	-3.2604	-3.3063	-3.2229	-3.4479	-2.9562	-3.1813	-3.1979	-3.2396	-3.5292	-3.1688	-3.3	-3.6604	368.240	174.308	74.885	400.161	286.065	411.131	349.068	285.461	118.323	171.607	331.185	351.381	393.974	73.076	171.220	275.924	0.001208	0.00081847	0.00021379	746.43	8.6393e-06	6.9604e-06	1110.8	329.3	7.9145e-06	6.8875e-06	520.87	230.84	141.12	69.328	7.8455e-06	129.64	0.00039408	0.0001747	4.9081e-05	726.13	1.8623e-06	1.8488e-06	1088.7	322.89	1.9073e-06	1.826e-06	510.48	227.33	138.83	68.795	1.9302e-06	128.19	142.519	146.454	133.143	69.271	209.766	215.483	68.860	73.242	205.892	193.412	71.836	75.964	77.323	82.180	208.262	80.140	-8191	255	
1944.105	1	1	0	0	0.29372	0.034153	0.23703	0.23792	0.14271	0.20206	0.22331	0.075686	0.1484	0.33011	0.20931	0.16494	0.37221	0.057833	0.11947	0.15561	-2.6333	-3.1604	-3.2979	-3.2375	-3.2562	-3.1896	-3.2458	-3.6958	-3.0542	-3.3542	-3.5479	-3.0792	-3.3063	-3.3333	-2.9854	-3.8396	290.697	355.382	260.579	350.874	303.750	76.133	386.291	381.685	274.882	380.220	394.109	396.801	361.524	321.434	103.072	352.179	0.0011342	0.00060449	0.00019363	744.24	7.2815e-06	7.9955e-06	1116	329.9	6.4217e-06	7.4549e-06	522.51	231.73	140.73	69.468	9.0755e-06	129.7	0.00037933	0.00016938	4.5255e-05	724.4	1.8597e-06	1.8291e-06	1087.1	323.05	1.9747e-06	1.7639e-06	510.56	227.94	138.85	68.734	2.0128e-06	128.21	140.759	152.311	130.670	69.305	202.219	208.402	68.778	72.823	204.220	193.571	71.932	75.902	77.281	82.171	217.706	80.054	-8191	255	
1944.201	1	1	0	0	0.20154	0.13333	0.075411	0.14599	0.014505	0.12687	0.22498	0.39997	0.21558	0.13814	0.35683	0.24273	0.22662	0.10326	0.010525	0.060531	-2.7375	-3.2646	-3.2562	-3.1979	-3.2354	-3.2667	-2.9813	-3.5833	-3.1479	-3.0417	-3.45	-3.0979	-3.3833	-3.4292	-2.9	-3.5375	383.104	371.929	169.749	88.908	405.897	57.333	302.834	359.441	320.697	166.962	262.283	301.356	295.873	381.487	348.847	344.649	0.001147	0.00066972	0.00020873	743.76	7.4364e-06	7.4408e-06	1112.4	329.53	5.4847e-06	6.0833e-06	522.41	233.21	141.67	69.85	9.5549e-06	130.32	0.00037929	0.00017931	4.6145e-05	726.53	1.8325e-06	1.7578e-06	1088.2	323.27	1.9436e-06	1.7996e-06	511.98	229.51	139.35	69.159	2.0284e-06	128.95	141.874	135.352	126.600	69.256	202.933	199.520	68.480	73.112	211.658	207.889	71.864	76.051	77.276	82.227	213.179	80.259	-8191	255	
1944.298	1	1	0	0	0.089539	0.10307	0.11737	0.13501	0.084157	0.26145	0.42146	0.18255	0.15898	0.1247	0.17631	0.2357	0.27368	0.051075	0.23546	0.030051	-2.6979	-3.0583	-3.4333	-3.1146	-3.1708	-3.0583	-3.0312	-3.3771	-3.2333	-3.1375	-3.4229	-3.2042	-3.3187	-3.3333	-2.9229	-3.4479	220.372	330.398	207.021	326.519	157.899	150.923	356.572	368.356	396.238	326.866	354.519	361.453	399.226	338.257	250.126	347.059	0.0011936	0.00093877	0.00019223	745.01	7.6514e-06	7.1609e-06	1119	331.22	6.7676e-06	7.6011e-06	526.48	233.46	142.88	69.937	8.2177e-06	131.28	0.00038642	0.00017117	4.4924e-05	726.05	1.8802e-06	1.7728e-06	1091.5	324.66	1.9222e-06	1.8318e-06	515.49	230.38	140.2	69.226	1.9468e-06	129.45	141.596	145.402	132.666	69.469	202.349	208.181	68.563	73.223	201.971	198.333	72.100	75.857	77.436	82.282	218.456	80.054	-8191	255	
1944.394	1	1	0	0	0.22139	0.10444	0.10674	0.14565	0.055805	0.21804	0.19572	0.2564	0.03883	0.20193	0.18902	0.087111	0.28043	0.17174	0.22252	0.26831	-2.9375	-2.8917	-3.3125	-3.2062	-3.2125	-3.4042	-3.2333	-3.3625	-3.1229	-3.0417	-3.4875	-3.225	-3.2917	-3.5187	-3.1354	-3.3083	210.559	343.592	213.584	269.784	232.105	73.712	319.661	359.858	388.961	77.814	165.042	398.995	328.649	77.887	189.783	337.907	0.0011969	0.00061674	0.00020698	741.22	6.279e-06	5.9732e-06	1119.3	332.19	6.1221e-06	7.3951e-06	525.89	232.77	142.64	69.364	8.3465e-06	129.54	0.00038169	0.0001751	4.7107e-05	726.84	1.8736e-06	1.733e-06	1092	325.72	1.9105e-06	1.7866e-06	515.31	229.17	139.77	68.833	1.9453e-06	128.18	141.830	152.501	130.000	69.374	198.158	212.755	68.446	73.119	212.125	202.913	71.872	75.894	77.298	82.105	199.503	80.136	-8191	255	
1944.490	1	1	0	0	0.11208	0.067877	0.12608	0.028153	0.28492	0.2143	0.2773	0.13622	0.20985	0.12432	0.010487	0.19448	0.26611	0.14311	0.16146	0.29759	-2.8479	-3.0458	-3.3854	-3.1917	-3.0062	-3.2917	-3.1604	-3.3875	-3.2438	-3.0438	-3.4417	-3.4271	-3.2083	-3.5312	-3.1375	-3.3458	358.247	225.152	63.148	329.530	243.168	348.750	362.585	374.309	355.475	205.575	288.450	323.979	402.115	315.646	138.815	344.649	0.0011704	0.00065943	0.00021124	744.19	6.8478e-06	7.7869e-06	1119.5	331.35	6.75e-06	6.4029e-06	524.75	232.07	141.32	69.469	8.4915e-06	129.57	0.00037953	0.00016614	4.6456e-05	727.18	1.822e-06	1.7472e-06	1088.9	324.36	1.8788e-06	1.7893e-06	512.23	228.81	139.38	68.856	2.0392e-06	128.17	140.887	136.807	130.192	69.286	192.938	213.492	68.454	73.275	208.699	204.571	72.003	76.020	77.359	82.281	196.612	80.226	-8191	255	
1944.586	1	1	0	0	0.1366	0.15835	0.14377	0.032315	0.12965	0.16996	0.12506	0.091519	0.083595	0.14012	0.12848	0.42153	0.26602	0.070578	0.073222	0.17221	-2.7708	-2.9458	-3.2104	-3.2917	-3.025	-3.3083	-3.1729	-3.4708	-3.4146	-2.9979	-3.525	-3.3792	-3.15	-3.55	-3.1583	-3.4396	119.541	338.870	387.690	404.354	297.948	224.673	67.514	150.424	389.704	238.641	149.326	351.549	406.457	70.277	239.602	56.644	0.00125	0.00068933	0.00023145	745.2	6.6635e-06	7.8392e-06	1119.5	332.46	7.2807e-06	5.8733e-06	528.8	233.8	142.28	69.512	8.103e-06	129.78	0.00038943	0.00016346	4.8214e-05	729.21	1.8328e-06	1.7163e-06	1088.9	325.63	1.8436e-06	1.6998e-06	515.64	230.2	140.05	68.855	1.9157e-06	128.24	142.540	142.201	144.525	69.356	204.419	197.597	68.704	73.168	185.480	219.816	71.963	76.037	77.300	82.196	211.137	80.082	-8191	255	
1944.707	1	1	0	0	0.11813	0.11089	0.20902	0.041888	0.19662	0.19353	0.11113	0.18184	0.12347	0.14506	0.056617	0.24715	0.23011	0.24496	0.22358	0.28665	-2.9083	-3.1042	-3.3937	-3.4021	-3.0292	-3.2958	-3.4313	-3.275	-3.1521	-3.0042	-3.4562	-3.5812	-3.1875	-3.4833	-3.1854	-3.3375	56.811	266.595	348.271	403.796	66.712	129.351	99.213	390.974	296.427	85.816	282.729	337.781	369.090	82.937	413.885	333.571	0.0012078	0.00075406	0.00018002	747.17	5.7173e-06	7.0588e-06	1118.1	333.91	6.7999e-06	7.8229e-06	531.24	235.3	142.89	69.304	6.5319e-06	130.07	0.00037907	0.00016222	4.5625e-05	728.6	1.7957e-06	1.733e-06	1092.7	326.65	1.8183e-06	1.731e-06	518.43	231.18	140.51	68.833	1.9112e-06	128.58	143.223	140.232	143.070	69.317	215.075	217.058	68.690	73.058	210.538	202.043	72.038	75.779	77.296	82.309	210.485	80.114	-8191	255	
1944.803	1	1	0	0	0.2743	0.092094	0.20514	0.27397	0.14556	0.18754	0.27409	0.29148	0.41167	0.17563	0.098293	0.115	0.31902	0.13954	0.13218	0.25136	-2.9104	-3.0833	-3.1688	-3.2604	-3.1125	-3.4625	-3.2604	-3.4271	-3.3688	-3.1333	-3.3292	-3.5917	-3.3583	-3.375	-3.2729	-3.575	310.452	168.306	390.837	350.468	212.671	106.275	378.002	331.965	334.070	165.142	66.113	387.903	405.851	407.395	108.521	367.987	0.0012122	0.00078385	0.00016596	747.27	7.1769e-06	7.1856e-06	1122.5	332.55	7.2942e-06	6.5992e-06	527.9	234.66	142.18	69.733	7.4028e-06	129.98	0.0003809	0.00016886	4.4266e-05	730.5	1.7727e-06	1.6879e-06	1094.2	326.11	1.8868e-06	1.7454e-06	516.43	230.45	139.96	68.972	1.8685e-06	128.29	142.928	140.875	129.957	69.508	199.951	217.774	68.625	73.146	191.511	204.390	71.814	75.883	77.288	82.190	203.452	80.102	-8191	255	
1944.899	1	1	0	0	0.21539	0.20892	0.16033	0.17543	0.19133	0.15118	0.30784	0.39434	0.10821	0.22642	0.24607	0.31055	0.18596	0.30503	0.16174	0.28321	-2.9854	-3.1646	-3.1146	-3.4688	-3.2417	-3.2375	-3.3521	-3.2167	-3.4917	-3.1521	-3.1813	-3.75	-3.2292	-3.4167	-3.3146	-3.3167	185.659	74.773	265.772	61.729	173.205	148.354	310.824	331.606	290.338	128.062	294.974	75.042	55.317	386.543	323.600	392.207	0.0012346	0.00076079	0.00025803	745.71	6.2386e-06	7.5307e-06	1116.3	329.29	5.745e-06	5.9741e-06	518.25	231.44	140.34	69.594	1.0096e-05	129.57	0.0003841	0.00015825	4.5062e-05	728.53	1.7627e-06	1.6632e-06	1088.1	323.23	1.8247e-06	1.6119e-06	508.71	227.99	138.24	68.855	1.8551e-06	128.1	142.598	154.714	133.672	69.205	206.535	221.734	68.638	72.985	198.095	202.945	71.913	75.924	77.419	82.180	204.523	79.908	-8191	255	
1944.995	1	1	0	0	0.12108	0.27374	0.11399	0.1589	0.26254	0.065474	0.05897	0.30516	0.17833	0.32224	0.23475	0.050603	0.23007	0.072702	0.29181	0.19633	-2.7875	-3.3	-3.0896	-3.4688	-3.125	-3.3042	-3.1833	-3.2167	-3.2562	-3.2292	-3.3083	-3.6688	-3.3	-3.5333	-3.2479	-3.3688	316.271	284.068	377.928	337.718	77.960	374.836	274.689	359.284	124.212	228.354	285.601	99.332	108.044	332.016	304.074	347.588	0.00118	0.00066299	0.00019109	745.71	6.5881e-06	8.5595e-06	1106.1	326.21	6.5299e-06	6.232e-06	513.86	230.23	139.81	69.999	8.7196e-06	130.92	0.000377	0.00016044	4.4809e-05	727.66	1.8647e-06	1.7066e-06	1083.4	319.39	1.813e-06	1.7239e-06	502.51	226.99	137.66	69.253	1.9275e-06	129.4	141.948	159.319	132.835	69.332	204.917	209.808	68.474	73.340	208.908	205.517	72.123	75.893	77.521	82.176	203.995	80.010	-8191	255	
1945.090	1	1	0	0	0.14371	0.18297	0.13709	0.31975	0.31183	0.14705	0.20588	0.24144	0.26781	0.10465	0.012914	0.26225	0.28818	0.35818	0.15692	0.33317	-3.0854	-3.1021	-2.9646	-3.3688	-2.9479	-3.1312	-3.3479	-3.1729	-3.4562	-3.225	-3.1292	-3.6312	-3.3167	-3.3021	-3.1833	-3.2396	334.491	219.867	352.231	355.380	311.734	122.250	415.100	358.901	389.158	121.812	312.685	406.795	352.116	60.022	89.896	391.867	0.0011997	0.00076072	0.0002016	745.4	7.6902e-06	6.6353e-06	1110.6	320.1	6.3449e-06	6.2359e-06	507.71	230.45	139.5	70.58	9.081e-06	131.93	0.00037959	0.00016435	4.65e-05	724.83	1.7702e-06	1.734e-06	1086.1	314.74	1.8779e-06	1.7207e-06	497.79	226.93	137.31	69.83	1.901e-06	130.48	141.840	136.670	128.528	69.326	201.787	190.214	68.550	73.204	195.886	208.565	71.980	76.088	77.333	82.350	207.908	80.186	-8191	255	
1945.186	1	1	0	0	0.05971	0.2197	0.098535	0.23891	0.19044	0.14122	0.066284	0.2061	0.33527	0.127	0.39409	0.33437	0.13616	0.17358	0.066696	0.084068	-2.9188	-3.1229	-3.1979	-3.4917	-3.1542	-3.0417	-3.5958	-3.2479	-3.1583	-3.3042	-3.1437	-3.5938	-3.2292	-3.225	-3.4813	-3.325	235.232	262.095	104.113	393.174	166.202	294.146	336.975	376.161	247.848	402.075	368.654	366.911	383.007	364.812	247.979	264.776	0.0012451	0.00068241	0.0002303	741.02	6.0497e-06	7.4285e-06	1112.7	320.07	6.8941e-06	7.5754e-06	509.38	230.45	139.46	70.735	8.0175e-06	132.25	0.0003878	0.00016122	4.4809e-05	722.26	1.7669e-06	1.8269e-06	1086.6	312.7	1.9602e-06	1.6758e-06	498.52	226.76	136.82	70.124	1.9232e-06	130.87	140.724	133.877	123.093	69.228	207.588	218.130	68.519	73.237	203.338	209.158	72.270	76.170	77.381	82.067	203.357	79.994	-8191	255	
1945.306	1	1	0	0	0.12415	0.14329	0.060375	0.22449	0.21835	0.2366	0.13973	0.31988	0.11031	0.10449	0.050471	0.26184	0.29157	0.1451	0.26046	0.14131	-2.8479	-3.1583	-2.95	-3.3563	-3.1729	-3.1771	-3.4917	-3.4083	-3.3125	-3.4667	-3.1437	-3.5583	-3.3375	-3.4792	-3.4479	-3.3063	270.270	275.937	316.389	341.234	182.913	239.685	371.796	395.304	275.503	88.155	244.687	409.086	402.265	342.299	413.589	76.123	0.0012345	0.00081677	0.00016634	743.56	6.8178e-06	7.7949e-06	1110.9	320.37	6.9905e-06	4.8012e-06	509.99	227.69	138.75	70.261	7.3783e-06	131.54	0.00038466	0.00016434	4.5952e-05	724.4	1.7884e-06	1.7842e-06	1086.1	314.14	1.8999e-06	1.6776e-06	498.59	224.49	136.15	69.726	1.8804e-06	130.03	141.444	143.612	137.406	69.362	188.587	196.869	68.593	73.281	195.739	194.164	72.167	75.946	77.351	82.175	210.037	79.962	-8191	255	
1945.402	1	1	0	0	0.25749	0.040703	0.047062	0.17755	0.11872	0.069124	0.18251	0.1749	0.14509	0.1468	0.18783	0.49271	0.30029	0.1698	0.10528	0.17489	-2.8708	-3.3271	-3.0146	-3.4729	-3.0708	-3.2188	-3.725	-3.1479	-3.1979	-3.4333	-3.3208	-3.5187	-3.4021	-3.3875	-3.3	-3.5563	171.952	122.574	72.788	61.179	237.563	204.967	56.449	69.857	117.546	55.585	337.619	381.254	351.496	98.762	373.302	358.050	0.0012202	0.0008784	0.00021572	740.55	6.6062e-06	6.5076e-06	1110.1	319.9	6.0123e-06	6.7074e-06	510.3	228.33	138.64	70.466	1.0006e-05	131.47	0.00038061	0.00016452	4.6366e-05	722.16	1.8271e-06	1.7138e-06	1084.2	313.44	1.9003e-06	1.7196e-06	499.44	224.55	136.2	69.942	1.9504e-06	129.87	141.981	151.469	142.843	69.413	207.665	205.660	68.734	73.212	206.568	206.408	72.247	75.891	77.438	82.356	216.376	80.086	-8191	255	
1945.499	1	1	0	0	0.24502	0.13362	0.14424	0.17776	0.072579	0.3753	0.25735	0.089058	0.13743	0.19537	0.13756	0.17108	0.29316	0.11848	0.1581	0.36117	-2.8479	-3.3104	-3.0438	-3.3729	-3.3812	-3.0187	-3.3583	-3.4583	-3.2146	-3.3667	-3.4208	-3.4792	-3.4042	-3.1771	-3.3438	-3.4813	124.421	61.600	307.033	363.981	95.902	117.343	359.156	85.712	329.838	70.167	379.464	360.945	376.316	340.279	184.596	342.996	0.0011945	0.0009021	0.00017477	744.51	6.0056e-06	8.1762e-06	1112	320.48	7.7153e-06	5.8837e-06	515.01	230.13	139.75	70.669	9.1438e-06	131.78	0.00038266	0.00016787	4.6066e-05	723.73	1.7658e-06	1.7769e-06	1085.9	314.73	1.8927e-06	1.6961e-06	502.91	226.06	137.25	69.955	1.9148e-06	130.36	142.329	143.051	133.650	69.515	189.304	207.049	68.738	73.247	194.813	215.653	72.286	75.967	77.453	82.306	206.348	80.097	-8191	255	
1945.570	1	1	0	0	0.1786	0.078265	0.20502	0.19557	0.066189	0.096526	0.22954	0.20746	0.17613	0.16975	0.34695	0.34409	0.090171	0.42635	0.24047	0.39405	-2.5875	-3.3771	-3.0938	-3.3833	-3.4375	-3.1188	-3.4854	-3.3812	-3.1396	-3.3896	-3.3229	-3.3542	-3.5375	-3.4125	-3.475	-3.5333	187.703	255.984	278.135	72.843	272.845	372.709	65.124	364.783	161.289	289.897	390.891	345.204	167.295	347.701	316.771	383.732	0.0011869	0.00080029	0.0001985	742.56	5.7118e-06	6.9508e-06	1119.2	323.5	5.9532e-06	6.4056e-06	518.53	230.58	139.72	70.778	8.2236e-06	132.32	0.00038044	0.0001635	4.661e-05	726	1.7639e-06	1.7714e-06	1092.6	317.08	1.8782e-06	1.6923e-06	507.47	227.08	137.68	70.199	1.9206e-06	131.08	142.719	147.678	125.224	69.519	203.758	203.302	68.694	73.246	198.967	195.597	72.154	75.834	77.417	82.093	219.938	80.002	-8191	255	
1945.691	1	1	0	0	0.18643	0.12884	0.25765	0.15818	0.20499	0.15851	0.26943	0.20584	0.26202	0.10935	0.2478	0.095843	0.27519	0.26064	0.052913	0.19935	-2.8063	-3.3563	-3.0417	-3.1771	-3.4542	-3.2062	-3.4604	-3.3646	-3.2188	-3.3083	-3.3271	-3.525	-3.6125	-3.1875	-3.4917	-3.4729	109.430	114.901	270.496	198.502	374.315	147.135	366.675	410.493	332.328	287.684	134.821	353.565	367.796	395.827	396.665	384.959	0.0012119	0.00067583	0.00023235	747.06	7.1233e-06	8.0314e-06	1122.3	325.35	6.5176e-06	7.889e-06	519.73	230.36	140.04	70.75	7.9273e-06	131.76	0.00038059	0.00015999	4.6346e-05	729.06	1.7428e-06	1.6757e-06	1093.5	318.95	1.8439e-06	1.6799e-06	507.97	226.82	137.73	70.028	1.8899e-06	130.09	143.519	158.448	130.977	69.338	202.496	204.899	68.642	73.449	196.103	194.920	72.054	75.934	77.455	82.206	207.848	79.701	-8191	255	
1945.787	1	1	0	0	0.10191	0.079756	0.19024	0.3441	0.15652	0.071192	0.11287	0.1193	0.086437	0.18314	0.27191	0.30083	0.23048	0.34024	0.26188	0.10485	-2.8333	-3.5167	-3.1833	-3.2062	-3.3125	-3.2896	-3.4583	-3.5104	-3.2438	-3.3208	-3.2625	-3.3438	-3.6104	-3.3417	-3.3063	-3.6063	319.848	163.842	348.299	115.685	356.977	87.335	74.440	363.445	82.509	374.091	332.416	354.893	395.240	64.529	364.247	354.072	0.001246	0.00060558	0.00017311	747.21	5.5637e-06	6.0649e-06	1117.5	326.74	6.3361e-06	5.8982e-06	514.17	230.34	140.08	70.263	7.3515e-06	130.95	0.00037826	0.00015691	4.4293e-05	727.76	1.6955e-06	1.6617e-06	1089.1	318.9	1.8003e-06	1.6264e-06	503.47	226.8	137.52	69.88	1.8419e-06	129.73	143.666	145.349	139.630	69.222	212.507	217.897	68.730	73.120	200.307	206.146	72.263	76.011	77.666	82.357	213.335	79.896	-8191	255	
1945.883	1	1	0	0	0.15541	0.078278	0.10435	0.15222	0.083479	0.03881	0.31146	0.02314	0.14266	0.13027	0.14548	0.26114	0.1124	0.24963	0.034114	0.36142	-2.7167	-3.4104	-3.1146	-3.0438	-3.3604	-3.3042	-3.2812	-3.6583	-3.2083	-3.35	-3.4583	-3.3854	-3.3625	-3.2167	-3.2375	-3.6813	359.292	254.364	372.916	344.651	197.641	108.295	324.805	405.338	150.652	122.241	383.288	345.288	268.312	405.619	254.761	391.058	0.0011964	0.00069836	0.00018866	746.89	6.0141e-06	6.1017e-06	1112.4	323.43	7.0546e-06	7.5863e-06	514.37	229.86	139.39	70.678	8.0652e-06	132.47	0.00037614	0.00015712	4.2225e-05	727.6	1.7412e-06	1.668e-06	1088.3	317.94	1.8278e-06	1.6618e-06	502.6	226.73	137.45	70.091	1.8742e-06	130.64	142.790	134.037	122.469	69.472	204.627	201.212	68.534	73.325	193.040	196.552	72.090	76.074	77.257	82.242	210.724	80.000	-8191	255	
1945.979	1	1	0	0	0.071669	0.14581	0.30749	0.1229	0.25961	0.12392	0.14925	0.37249	0.21938	0.32607	0.30399	0.052428	0.26131	0.13584	0.31995	0.12219	-2.7229	-3.4125	-3.1917	-3.2562	-3.3292	-3.2646	-3.2292	-3.5896	-3.2396	-3.5604	-3.5958	-3.2208	-3.5458	-3.2667	-3.1104	-3.625	97.542	342.868	248.591	348.057	295.964	281.315	389.552	380.534	258.248	329.156	397.777	189.937	348.373	112.755	161.083	74.260	0.0011811	0.00063945	0.00022998	748.4	6.2882e-06	8.0568e-06	1113.5	322.51	7.3439e-06	6.919e-06	512.83	231.19	140.12	71.155	8.6793e-06	132.6	0.00037527	0.00015583	4.4924e-05	728.62	1.7128e-06	1.7201e-06	1090.1	316.68	1.8724e-06	1.7301e-06	501.85	227.34	137.65	70.454	1.8926e-06	131.12	142.287	142.062	138.177	69.515	203.549	216.551	68.458	73.327	210.253	212.912	72.031	76.268	77.371	82.115	204.877	80.057	-8191	255	
1946.098	1	1	0	0	0.047931	0.16696	0.18851	0.13255	0.24349	0.16864	0.3401	0.22384	0.11007	0.20275	0.26858	0.18078	0.23844	0.31155	0.11585	0.30801	-2.7521	-3.0958	-3.2333	-3.1875	-3.2333	-3.2687	-3.2479	-3.5021	-3.2417	-3.4667	-3.5667	-3.1292	-3.4417	-3.4479	-3.1854	-3.6583	215.794	145.977	149.917	302.643	352.112	189.034	70.015	407.645	217.694	270.580	372.454	379.286	346.581	410.335	260.348	321.521	0.0012207	0.00062296	0.00018366	745.03	7.6522e-06	7.9012e-06	1119.8	321.03	6.016e-06	7.438e-06	510.02	230.19	139.11	71.04	8.4434e-06	132.71	0.00038014	0.00016052	4.5428e-05	728.14	1.8054e-06	1.7049e-06	1093.2	314.91	1.8467e-06	1.7381e-06	500.23	226.48	137.16	70.39	1.9338e-06	130.94	143.068	137.756	140.672	69.326	200.655	190.120	68.900	73.305	199.145	202.627	72.218	76.052	77.502	82.255	208.720	80.065	-8191	255	
1946.170	1	1	0	0	0.093674	0.08349	0.20029	0.16628	0.19097	0.15016	0.17869	0.20395	0.13914	0.069398	0.39357	0.14637	0.16141	0.15608	0.26129	0.30762	-2.6667	-3.2583	-3.35	-3.1354	-3.3875	-3.2938	-3.1312	-3.3458	-3.175	-3.2458	-3.5938	-3.2729	-3.3792	-3.4479	-3.0083	-3.7104	163.544	173.761	157.302	387.771	93.254	344.233	372.628	412.330	215.158	241.542	56.709	389.071	66.489	390.667	135.282	371.387	0.0012107	0.00075864	0.00022893	741.92	6.1949e-06	8.6145e-06	1108.8	319.6	6.1731e-06	6.9401e-06	506.85	228.37	138.45	71.092	8.2955e-06	131.54	0.00038208	0.00015853	4.4683e-05	724.89	1.7117e-06	1.6804e-06	1084.4	313.87	1.8263e-06	1.7175e-06	495.91	224.84	136.49	70.218	1.9119e-06	130.1	143.173	131.351	135.518	69.563	201.105	213.944	68.799	73.346	195.186	217.943	72.027	76.087	77.584	82.104	207.926	80.082	-8191	255	
1946.268	1	1	0	0	0.10745	0.085519	0.10855	0.30278	0.27178	0.0788	0.062475	0.057406	0.12328	0.10585	0.25668	0.33669	0.10795	0.2558	0.049045	0.3898	-2.7271	-3.2146	-3.2667	-3.0542	-3.2771	-3.3604	-3.1729	-3.6771	-3.2896	-2.9917	-3.475	-3.1917	-3.3354	-3.35	-3.0438	-3.5604	227.002	349.446	404.060	65.025	355.532	171.538	395.512	267.631	386.617	239.519	407.810	350.098	249.074	352.201	125.322	363.613	0.0012084	0.00061483	0.00019031	741.94	3.8482e-06	6.8438e-06	1113.4	319.53	7.173e-06	6.4261e-06	507.09	227.9	138.25	70.948	7.856e-06	132.03	0.0003764	0.00016159	4.4289e-05	724.85	1.7824e-06	1.7291e-06	1085.4	312.89	1.859e-06	1.7227e-06	495.85	224.58	136.21	70.346	1.9109e-06	130.58	144.573	138.331	141.411	69.253	197.314	215.436	68.816	73.396	200.885	200.782	72.167	76.124	77.573	82.225	211.070	79.983	-8191	255	
1946.387	1	1	0	0	0.36134	0.18362	0.27186	0.10108	0.10779	0.043231	0.099875	0.064538	0.29108	0.26742	0.14265	0.073213	0.16817	0.20863	0.32404	0.1975	-2.8187	-3.1396	-3.3333	-3.2188	-3.1979	-3.4062	-3.2188	-3.4562	-3.1708	-3.0979	-3.4375	-3.4396	-3.35	-3.5083	-3.0312	-3.5958	314.080	383.875	365.818	345.056	343.676	66.495	325.511	164.199	321.563	149.285	394.464	334.895	363.553	377.436	348.639	57.134	0.0012435	0.00074968	0.00019178	746.14	6.2383e-06	8.7122e-06	1108.8	316.22	7.988e-06	7.714e-06	503.66	230.34	138.94	71.259	9.6707e-06	132.62	0.00038358	0.00016064	4.3548e-05	726.28	1.7757e-06	1.7461e-06	1084.3	311.03	1.8337e-06	1.7446e-06	493.27	225.73	136.52	70.639	1.9051e-06	130.94	142.176	128.674	143.856	69.423	207.618	211.517	68.513	73.198	199.126	213.061	72.158	76.177	77.563	82.268	213.065	79.969	-8191	255	
1946.483	1	1	0	0	0.039332	0.070414	0.30262	0.030956	0.18064	0.21638	0.10774	0.094025	0.30532	0.17919	0.1211	0.30948	0.40111	0.07873	0.09851	0.1483	-2.875	-3.0917	-3.2854	-3.2438	-3.2167	-3.3479	-3.2646	-3.4	-3.3312	-3.1521	-3.2854	-3.4188	-3.2917	-3.6688	-3.2229	-3.5667	228.047	384.099	299.759	73.230	166.369	188.713	385.272	240.649	113.232	401.655	105.310	361.835	404.113	103.928	244.276	353.388	0.0011848	0.00069006	0.00018412	746.93	6.9241e-06	7.3186e-06	1115.3	316.39	7.3847e-06	7.7425e-06	502.96	229.24	138.84	71.391	7.1626e-06	132.7	0.00037381	0.00016118	4.4924e-05	725.39	1.8207e-06	1.6475e-06	1085	310.32	1.855e-06	1.7689e-06	491.15	226.17	136.45	70.794	1.8892e-06	130.85	141.875	132.621	132.558	69.380	214.759	218.087	68.601	73.341	209.042	206.136	72.225	76.019	77.661	82.469	212.608	79.958	-8191	255	
1946.579	1	1	0	0	0.22314	0.077166	0.16972	0.12334	0.16136	0.06909	0.22884	0.13863	0.17065	0.26025	0.17684	0.02576	0.19339	0.27744	0.18217	0.44456	-2.9062	-3.1375	-3.3937	-3.2812	-3.2667	-3.3979	-3.3187	-3.4313	-3.2146	-3.1667	-3.4396	-3.6354	-3.2146	-3.5354	-3.1271	-3.4333	286.062	214.553	337.445	398.524	67.786	358.868	335.249	329.816	75.633	386.095	117.288	332.983	267.306	405.676	57.040	355.006	0.0012384	0.00066967	0.00018716	744.71	7.3556e-06	7.6477e-06	1110.6	316.92	8.0842e-06	6.6538e-06	501.79	228.11	137.64	70.982	7.0528e-06	131.35	0.00039166	0.00015786	4.5491e-05	726.82	1.8183e-06	1.5996e-06	1083.4	311.15	1.8399e-06	1.6807e-06	490.72	224.61	135.85	70.319	1.8369e-06	129.71	143.100	145.150	131.095	69.463	205.985	207.267	68.476	73.209	198.519	201.528	72.195	76.078	77.576	82.232	215.078	80.030	-8191	255	
1946.700	1	1	0	0	0.15881	0.069418	0.041488	0.19109	0.263	0.27417	0.33427	0.37708	0.20589	0.11978	0.26274	0.28501	0.17825	0.19807	0.17178	0.22951	-2.9792	-3.0583	-3.3	-3.325	-3.1458	-3.3458	-3.2667	-3.2396	-3.5375	-3.0292	-3.3646	-3.5792	-3.1292	-3.5312	-3.2042	-3.3229	64.863	319.115	352.155	376.070	158.184	100.018	327.415	380.411	167.854	166.977	126.481	338.854	402.460	406.531	387.310	346.353	0.0012131	0.0007513	0.00021171	748.38	6.3014e-06	7.6297e-06	1109.6	317.75	7.0173e-06	6.8577e-06	501.48	228.37	138.42	71.088	8.9361e-06	131.43	0.00037483	0.00016205	4.3584e-05	726.23	1.8148e-06	1.7005e-06	1081.3	310.72	1.8209e-06	1.7619e-06	488.74	224.5	135.89	70.458	1.8584e-06	130.07	141.924	153.270	133.040	69.145	202.860	222.510	68.522	73.430	208.471	191.329	72.115	76.215	77.741	82.122	210.006	80.125	-8191	255	
1946.796	1	1	0	0	0.19323	0.11944	0.037737	0.12105	0.23333	0.16931	0.21891	0.31085	0.2225	0.20903	0.18371	0.13578	0.23776	0.10772	0.37707	0.33047	-2.8583	-3.0396	-3.1333	-3.3896	-3.0292	-3.3917	-3.3167	-3.2938	-3.45	-3.1688	-3.5021	-3.4562	-3.2354	-3.5938	-3.15	-3.3833	185.829	141.707	61.801	371.683	301.787	375.339	351.208	396.660	241.322	296.609	95.967	340.054	400.757	351.187	397.790	375.792	0.0011982	0.000672	0.00019144	743.81	6.5761e-06	6.8342e-06	1112.6	315.71	6.5488e-06	7.0653e-06	501.7	227.61	138.31	70.816	8.1569e-06	131.93	0.00037518	0.00016135	4.6188e-05	725.03	1.7679e-06	1.7031e-06	1080.8	310.81	1.8077e-06	1.6743e-06	490.1	225.06	136.26	70.371	1.8308e-06	130.15	142.422	155.420	143.935	69.616	200.858	214.891	68.498	72.957	195.296	208.920	72.191	76.090	77.519	82.408	196.649	79.975	-8191	255	
1946.867	1	1	0	0	0.1047	0.36489	0.18354	0.13125	0.084271	0.29187	0.10634	0.093921	0.14787	0.11802	0.15326	0.40518	0.41908	0.3355	0.25751	0.24501	-3.1271	-2.9938	-3.0979	-3.6146	-3.2625	-3.3958	-3.5375	-3.4	-3.3292	-3.2729	-3.4958	-3.5375	-3.3229	-3.5354	-3.3833	-3.3333	357.284	81.953	298.498	307.324	381.046	86.702	116.018	76.964	151.876	335.215	134.169	317.052	364.260	391.265	402.813	366.042	0.0011778	0.00066979	0.00018447	747.25	7.3634e-06	8.3058e-06	1114.2	317.64	7.223e-06	5.514e-06	503.45	228.84	139	71.282	9.2883e-06	132.71	0.00037955	0.00016488	4.5617e-05	728.64	1.8212e-06	1.6927e-06	1088.3	312.16	1.8856e-06	1.6995e-06	493.35	225.74	136.99	70.675	1.8965e-06	130.78	141.917	153.893	126.103	69.233	205.866	209.295	68.848	73.408	204.903	195.201	72.110	76.154	77.585	82.200	212.651	79.989	-8191	255	
1946.988	1	1	0	0	0.20629	0.14811	0.085032	0.10634	0.073841	0.22188	0.13649	0.17884	0.22625	0.058604	0.14924	0.23903	0.13607	0.22169	0.088948	0.13082	-3.175	-3.2292	-3.1437	-3.6417	-3.0896	-3.3688	-3.3396	-3.425	-3.2521	-3.3292	-3.3375	-3.6417	-3.3667	-3.4292	-3.4854	-3.2292	98.754	355.692	219.137	156.366	290.435	387.775	279.235	371.873	132.040	287.201	305.332	324.586	141.331	106.114	179.530	387.852	0.001186	0.000614	0.00022339	747.09	5.6286e-06	7.7277e-06	1114.5	320.16	7.2058e-06	5.4736e-06	511.18	228.12	138.88	71.23	8.9756e-06	131.66	0.00038527	0.00015681	4.4904e-05	728.86	1.7438e-06	1.6868e-06	1085.4	314.05	1.8758e-06	1.7222e-06	496.79	224.89	136.6	70.489	1.8729e-06	129.99	143.060	137.308	144.999	69.366	203.577	220.966	68.764	73.168	198.917	208.751	72.016	76.197	77.695	82.496	206.481	79.952	-8191	255	
1947.082	1	1	0	0	0.22577	0.10234	0.16688	0.3003	0.15745	0.16905	0.24565	0.068472	0.11244	0.34288	0.1229	0.054165	0.28797	0.037073	0.1064	0.21477	-3.1708	-3.0833	-3.0583	-3.3937	-3.0333	-3.1521	-3.5708	-3.1979	-3.3792	-3.3042	-3.3937	-3.5563	-3.3563	-3.4792	-3.3542	-3.2687	386.980	307.769	299.676	299.657	327.175	77.300	380.425	259.560	70.165	112.884	347.430	144.309	401.482	93.429	402.279	353.527	0.0011737	0.00074645	0.00019338	747.51	6.6378e-06	6.6874e-06	1110.1	320.38	6.4807e-06	6.1433e-06	506.64	227.61	139.03	71.212	6.7688e-06	130.96	0.00037314	0.00015695	4.6449e-05	728.44	1.7537e-06	1.6473e-06	1082.9	314.29	1.8436e-06	1.7101e-06	496.04	224.09	136.63	70.338	1.8754e-06	129.48	141.258	129.776	132.275	69.299	208.500	217.019	68.697	73.307	211.208	207.241	72.127	76.010	77.512	82.194	221.033	80.096	-8191	255	
1947.179	1	1	0	0	0.089002	0.10427	0.17813	0.1812	0.025647	0.045747	0.16049	0.046485	0.043583	0.14089	0.24058	0.27229	0.092277	0.2562	0.18992	0.3026	-3.0438	-3.1604	-2.8521	-3.3979	-3.0896	-3.0125	-3.4375	-3.2521	-3.2354	-3.1333	-3.2229	-3.4625	-3.4042	-3.4521	-3.5438	-3.5396	146.691	353.413	154.100	397.138	362.188	315.766	87.942	384.409	202.897	318.771	367.482	381.455	320.617	405.042	332.792	404.554	0.0011808	0.00079948	0.00022554	746.64	6.6393e-06	9.0645e-06	1115.9	319.69	6.4686e-06	7.0453e-06	510.03	228.29	139.78	71.042	7.3361e-06	131.58	0.000379	0.00015832	4.5113e-05	729.4	1.7419e-06	1.7711e-06	1086.7	314.46	1.8944e-06	1.6682e-06	498.15	224.8	137.55	70.547	1.8221e-06	130.16	141.894	142.871	146.758	69.433	195.415	217.435	68.781	73.260	201.520	214.553	72.395	75.966	77.530	82.475	210.166	80.007	-8191	255	
1947.275	1	1	0	0	0.26435	0.15708	0.16144	0.13198	0.14272	0.1471	0.13367	0.19896	0.086349	0.13462	0.17159	0.2547	0.055552	0.14067	0.12647	0.13862	-2.7375	-3.3354	-3.0333	-3.3896	-3.1354	-3.025	-3.5375	-2.9625	-3.2146	-3.4333	-3.025	-3.325	-3.2583	-3.275	-3.2583	-3.4271	142.598	411.703	334.988	414.622	402.168	329.738	367.515	394.251	129.626	372.625	76.824	390.181	358.174	256.844	298.765	359.038	0.0011903	0.00072477	0.00023745	750.12	8.153e-06	5.7981e-06	1113	322.8	6.7597e-06	5.4616e-06	511.66	231.23	140.82	71.281	9.2721e-06	132.25	0.00038594	0.00015441	4.6933e-05	730.73	1.796e-06	1.6758e-06	1086.4	316.27	1.8952e-06	1.6618e-06	501.8	226.84	138.54	70.678	1.9317e-06	130.68	142.146	141.540	134.280	69.555	204.792	221.623	68.634	73.173	194.314	205.942	72.252	75.850	77.613	82.172	207.489	80.045	-8191	255	
1947.395	1	1	0	0	0.1484	0.19963	0.20552	0.1181	0.091098	0.15449	0.11139	0.038506	0.10979	0.29258	0.1716	0.25094	0.20876	0.20361	0.14824	0.33793	-2.7646	-3.3708	-2.775	-3.3187	-3.0458	-3.0042	-3.5917	-3.3688	-3.2104	-3.4729	-3.075	-3.4104	-3.2771	-3.1646	-3.2938	-3.5187	317.635	65.985	92.641	289.037	318.345	220.412	390.335	345.499	408.857	62.453	333.177	369.304	150.142	349.667	222.712	401.788	0.0012068	0.00075937	0.00013427	749.97	7.2912e-06	7.933e-06	1118	324.78	5.9604e-06	6.5655e-06	517	230.46	140.44	71.187	7.7426e-06	131.88	0.00038183	0.00015904	4.4266e-05	732.41	1.8063e-06	1.7221e-06	1090.1	318.66	1.9151e-06	1.6694e-06	505.45	227	138.57	70.547	1.9268e-06	130.09	142.038	137.951	140.217	69.286	206.698	209.914	68.565	73.144	207.465	196.533	72.125	76.081	77.475	82.098	213.722	80.080	-8191	255	
1947.467	1	1	0	0	0.078478	0.0604	0.21233	0.39518	0.086801	0.045603	0.28464	0.26314	0.059468	0.088256	0.30972	0.35912	0.4348	0.24996	0.045612	0.10672	-2.6875	-3.4021	-3.025	-3.1521	-3.2562	-3.1375	-3.4271	-3.225	-3.1417	-3.4875	-3.2313	-3.3896	-3.5042	-3.2625	-3.225	-3.3875	411.647	381.682	72.355	313.229	406.159	265.948	352.852	355.922	361.123	136.308	353.954	366.098	352.731	376.314	361.607	272.073	0.0011974	0.0007737	0.00019392	752.27	7.9386e-06	7.2716e-06	1111.5	326.85	6.8831e-06	7.6586e-06	516.44	229.19	140.67	71.317	6.6297e-06	130.31	0.00037611	0.0001586	4.4675e-05	732.75	1.7367e-06	1.7034e-06	1086.7	320.2	1.7721e-06	1.6278e-06	505.63	225.64	138.34	70.47	1.8194e-06	128.94	142.415	141.351	127.614	69.638	202.934	213.667	68.579	73.312	205.789	203.441	72.152	75.991	77.422	82.301	210.553	80.040	-8191	255	
1947.563	1	1	0	0	0.11673	0.31536	0.069948	0.26815	0.075431	0.15451	0.3024	0.11908	0.13291	0.12063	0.085883	0.22599	0.19049	0.3775	0.12421	0.29961	-2.6375	-3.4188	-3.0896	-3.2896	-3.2875	-3.0375	-3.4542	-3.3333	-3.1917	-3.3812	-3.2604	-3.4188	-3.4833	-3.2354	-3.3	-3.4979	88.429	274.923	308.531	395.512	279.337	236.742	346.901	305.028	163.105	131.925	78.564	409.085	366.768	74.501	93.300	296.858	0.0012064	0.0007476	0.00015337	755.56	7.9276e-06	6.456e-06	1118.3	327.2	6.5135e-06	8.4232e-06	519.02	231.28	141.23	71.247	9.9446e-06	130.67	0.00038055	0.00015812	4.2666e-05	735.06	1.682e-06	1.7342e-06	1089.7	321.73	1.8792e-06	1.6323e-06	507.89	226.85	139.04	70.469	1.8374e-06	129.33	143.750	139.600	122.031	69.277	198.589	212.928	68.622	73.197	203.268	196.861	71.983	76.084	77.192	82.353	206.589	79.862	-8191	255	
1947.659	1	1	0	0	0.26567	0.22875	0.10643	0.21595	0.099619	0.096762	0.24291	0.17262	0.35229	0.26103	0.12747	0.14601	0.41493	0.23321	0.051361	0.31158	-2.3708	-3.3479	-3.2083	-3.3583	-3.3771	-3.0667	-3.4875	-3.5396	-3.0854	-3.4792	-3.3312	-3.525	-3.6083	-3.1521	-3.3083	-3.4104	318.063	241.840	306.888	58.939	148.351	345.180	330.562	344.597	296.141	191.072	409.914	90.723	308.336	384.863	57.307	341.745	0.0011634	0.00050811	0.00021222	753.38	7.133e-06	5.9591e-06	1121.1	328.69	6.3022e-06	7.7648e-06	521.6	231.73	141.49	71.013	9.122e-06	131.31	0.00037056	0.00015305	4.3954e-05	735.22	1.7554e-06	1.6616e-06	1092.6	322.91	1.8975e-06	1.6223e-06	510.05	227.88	139.75	70.444	1.8895e-06	129.68	140.845	154.607	139.651	69.512	205.355	216.540	68.606	73.119	199.598	223.064	72.039	75.895	77.336	82.137	199.301	79.958	-8191	255	
1947.780	1	1	0	0	0.15695	0.013954	0.15271	0.33659	0.29173	0.20997	0.18054	0.27593	0.063998	0.23055	0.10901	0.1214	0.17717	0.13586	0.16242	0.1232	-2.8271	-3.2188	-3.1646	-2.9104	-3.2854	-3.0917	-3.3292	-3.3771	-3.1208	-3.3854	-3.3	-3.0833	-3.5646	-3.4125	-3.1271	-3.7438	404.059	387.334	206.888	366.499	149.427	205.570	345.379	301.083	257.696	132.732	368.020	370.173	381.145	83.257	95.427	388.496	0.001185	0.00083844	0.00021537	761.39	7.1373e-06	8.0738e-06	1122.2	330.51	5.5825e-06	6.683e-06	524.92	232.89	142.52	71.096	8.8104e-06	130.88	0.00037864	0.00016134	4.4553e-05	739.76	1.6802e-06	1.7199e-06	1093.5	324.17	1.8237e-06	1.7561e-06	512.75	228.63	140.13	70.502	1.8471e-06	129.44	142.173	151.687	129.801	69.391	195.817	207.593	68.685	73.301	201.232	194.565	71.948	75.794	77.132	82.245	211.129	80.037	-8191	255	
1947.876	1	1	0	0	0.31597	0.071228	0.010963	0.14486	0.19088	0.17527	0.2543	0.020754	0.14776	0.17277	0.11855	0.34884	0.33977	0.063098	0.15728	0.10604	-2.7146	-3.4021	-3.4062	-3.0979	-3.3854	-3.1792	-3.3896	-3.5312	-3.0979	-3.3979	-3.4729	-3.2708	-3.3063	-3.3354	-3.1333	-3.6521	314.806	226.822	309.233	403.146	147.618	222.686	397.715	71.787	298.720	118.499	64.141	384.647	61.092	393.682	138.139	319.723	0.0011973	0.00068524	0.00020951	755.62	6.4063e-06	6.9839e-06	1120.6	331.92	7.4976e-06	8.0435e-06	522	230.66	142.37	70.618	8.6972e-06	129.97	0.00038227	0.00016174	4.3458e-05	737.27	1.7688e-06	1.6986e-06	1092.8	325.06	1.8037e-06	1.6685e-06	511.72	226.77	139.85	70.073	1.8715e-06	128.24	142.616	139.331	135.523	69.307	198.630	195.010	68.665	73.216	196.365	206.971	71.860	76.023	77.363	82.221	216.307	79.818	-8191	255	
1947.972	1	1	0	0	0.11474	0.2417	0.14968	0.50295	0.1851	0.20073	0.17398	0.075557	0.12532	0.16462	0.27625	0.35614	0.12129	0.051857	0.10568	0.17338	-2.7062	-3.1188	-3.2812	-3.025	-3.2625	-2.9771	-3.3063	-3.425	-3.2229	-3.3854	-3.4562	-3.1708	-3.4208	-3.4083	-3.1813	-3.5896	398.756	327.877	191.653	339.857	162.704	133.870	407.115	365.155	402.894	377.553	63.281	353.555	376.006	251.145	197.004	62.764	0.0011908	0.00072938	0.00015919	757.73	6.9682e-06	7.7843e-06	1117.7	330.79	6.057e-06	7.5491e-06	524.07	229.69	141.93	70.287	8.1437e-06	129.79	0.00037861	0.00016314	4.2666e-05	737.63	1.7379e-06	1.6332e-06	1089.1	325.02	1.7829e-06	1.687e-06	513.25	226.13	139.88	69.738	1.8549e-06	127.86	142.125	145.780	134.489	69.304	200.535	207.522	68.609	73.156	209.152	197.349	71.685	75.912	77.246	82.146	208.722	80.087	-8191	255	
1948.068	1	1	0	0	0.34336	0.15684	0.19879	0.068843	0.12573	0.061681	0.25995	0.10733	0.2034	0.077552	0.11266	0.21622	0.18652	0.078061	0.23284	0.42929	-2.7542	-3.1562	-3.3063	-3.1917	-3.3917	-3.1937	-3.1312	-3.575	-3.1792	-3.2167	-3.5646	-3.2812	-3.3958	-3.4021	-3.1125	-3.4875	267.696	397.172	323.759	68.617	203.022	273.406	332.967	403.648	325.405	146.999	100.778	71.160	139.906	226.594	302.495	397.950	0.0012277	0.00074908	0.00014382	757.1	8.6349e-06	8.4885e-06	1122.2	333.15	6.4526e-06	8.057e-06	528.87	231.04	143.14	70.805	8.2374e-06	130.4	0.00038126	0.00016001	4.2225e-05	737.65	1.7947e-06	1.6623e-06	1092.8	325.93	1.8016e-06	1.7172e-06	516.14	227.37	140.43	70.063	1.9095e-06	128.55	141.842	136.929	125.650	69.600	206.021	213.085	68.708	73.253	204.689	193.065	71.856	75.720	77.180	82.306	209.036	80.123	-8191	255	
1948.163	1	1	0	0	0.087911	0.07266	0.17726	0.17617	0.1796	0.082431	0.27148	0.38558	0.17328	0.18216	0.084819	0.10781	0.10175	0.079184	0.1085	0.3325	-2.8083	-3.0708	-3.3521	-3.1417	-3.2354	-3.0938	-3.0979	-3.5396	-3.1917	-3.2417	-3.4729	-3.4854	-3.4167	-3.6333	-3.0958	-3.6833	134.147	383.644	168.508	242.938	115.610	129.023	320.825	340.694	366.106	374.469	388.835	406.268	243.704	137.024	378.556	349.020	0.0012138	0.00079247	0.00016809	758.53	6.0319e-06	6.5107e-06	1121.5	332.22	6.3124e-06	7.7343e-06	531.74	231.61	143.05	70.84	8.3379e-06	131.3	0.00037931	0.00015854	4.3615e-05	739.58	1.7215e-06	1.6042e-06	1095.9	326.41	1.8061e-06	1.7317e-06	517.9	228.2	140.69	70.351	1.8714e-06	129.49	141.919	142.668	150.142	69.302	206.190	196.953	68.524	73.190	205.271	206.062	71.934	75.831	77.183	82.160	211.028	80.125	-8191	255	
1948.259	1	1	0	0	0.27194	0.1607	0.28922	0.18752	0.085281	0.26336	0.14214	0.10175	0.18812	0.19801	0.12099	0.25392	0.17462	0.22636	0.086598	0.16565	-2.7313	-3.0729	-3.3125	-3.0958	-3.3479	-3.2146	-3.3812	-3.3396	-3.3792	-3.1479	-3.4229	-3.2917	-3.2521	-3.6208	-3.1833	-3.4688	194.859	224.543	80.053	333.532	223.978	402.342	405.240	372.409	265.815	69.134	341.749	346.571	360.674	369.887	302.897	386.858	0.0011948	0.00081822	0.00020671	757.76	6.2634e-06	7.4124e-06	1122.2	332.66	5.0825e-06	6.5628e-06	525.86	228.54	141.99	71.054	8.2388e-06	130.31	0.00037466	0.00015654	4.2197e-05	738.66	1.6945e-06	1.6562e-06	1093.6	325.73	1.7613e-06	1.6548e-06	516.18	225.23	139.45	70.257	1.8661e-06	128.83	141.650	138.805	131.131	69.249	205.303	213.199	68.769	73.102	193.400	195.282	71.821	75.842	77.175	82.102	215.631	80.209	-8191	255	
1948.380	1	1	0	0	0.17232	0.1843	0.13511	0.10099	0.19052	0.13647	0.20763	0.21623	0.042837	0.18794	0.086871	0.16015	0.088551	0.20813	0.30245	0.17983	-2.825	-2.9542	-3.3312	-3.1375	-3.1292	-3.3292	-3.2875	-3.3125	-3.1896	-3.0833	-3.3875	-3.3104	-3.25	-3.6042	-3.1083	-3.5125	83.274	167.405	143.424	145.350	309.563	137.516	400.249	363.868	275.216	332.757	194.696	150.147	363.015	393.915	220.722	122.559	0.0011942	0.00069395	0.00020504	757.26	5.9905e-06	9.2782e-06	1117.8	331.82	6.8833e-06	6.4618e-06	529.47	228.96	141.6	70.662	7.9078e-06	130.03	0.000376	0.00016146	4.3765e-05	738.05	1.6896e-06	1.6522e-06	1091.5	325.73	1.7971e-06	1.6639e-06	516.38	225.37	139.66	70.086	1.8681e-06	128.51	143.426	142.129	129.433	69.354	201.885	212.934	68.525	73.105	197.638	210.953	71.838	75.822	77.102	82.331	206.144	80.187	-8191	255	
1948.476	1	1	0	0	0.063575	0.11194	0.13873	0.19562	0.21052	0.082952	0.19151	0.24061	0.17268	0.20622	0.25355	0.14361	0.31216	0.051921	0.086081	0.30575	-2.7292	-3.1875	-3.3312	-3.2521	-3.0771	-3.4375	-3.2146	-3.2479	-3.3458	-2.9833	-3.4229	-3.5146	-3.1396	-3.5083	-3.1437	-3.4688	313.522	104.693	388.466	293.656	356.290	361.196	400.854	182.551	191.966	134.312	86.034	312.448	391.320	194.939	136.373	337.202	0.0012099	0.00063683	0.00022637	759.99	7.9198e-06	7.9901e-06	1118.1	333.97	6.6036e-06	7.7437e-06	530.05	230.36	142.53	70.922	7.2584e-06	130.04	0.00038129	0.00015538	4.3931e-05	740.3	1.7699e-06	1.6268e-06	1092.9	327.61	1.8263e-06	1.6389e-06	518.71	226.64	140.57	70.25	1.8807e-06	128.66	142.512	134.891	134.749	69.611	209.038	218.534	68.631	73.192	200.787	208.633	72.066	75.805	77.289	82.261	222.240	79.940	-8191	255	
1948.572	1	1	0	0	0.16494	0.10895	0.05414	0.21669	0.087842	0.14542	0.13814	0.21908	0.25506	0.17181	0.2806	0.65531	0.19785	0.20188	0.32001	0.39971	-3.0062	-2.9708	-3.5	-3.3542	-3.2021	-3.2812	-3.2687	-3.1979	-3.5062	-3.1708	-3.2667	-3.4292	-3.3646	-3.5958	-3.3146	-3.6583	180.958	81.997	197.881	98.538	209.207	176.113	380.683	391.008	266.655	220.735	366.273	387.146	116.558	78.030	220.106	389.725	0.0011782	0.00082438	0.00026762	759.95	6.9438e-06	6.6662e-06	1123.1	334.62	6.3619e-06	7.9306e-06	531.63	231.08	143.1	71.146	7.6809e-06	131.24	0.00037583	0.00016191	4.5503e-05	740.48	1.7373e-06	1.7138e-06	1095.8	328.74	1.8016e-06	1.7288e-06	520.21	228.18	140.92	70.438	1.8102e-06	129.74	141.996	150.954	132.526	69.378	198.648	214.587	68.576	73.070	199.819	198.178	71.809	75.736	77.288	82.094	201.778	80.125	-8191	255	
1948.668	1	1	0	0	0.11627	0.066538	0.12451	0.22355	0.098181	0.15618	0.039178	0.34635	0.075795	0.16162	0.31392	0.26153	0.2601	0.2114	0.15917	0.21899	-2.9896	-3.2	-3.2375	-3.425	-3.1625	-3.425	-3.3333	-3.4292	-3.4604	-3.2333	-3.3438	-3.2313	-3.3625	-3.5104	-3.2458	-3.4896	86.053	327.436	55.767	401.588	217.914	339.582	329.849	344.644	133.656	342.274	384.743	372.449	391.956	406.514	413.068	366.759	0.0011936	0.00075784	0.00016428	758.7	8.4785e-06	7.8919e-06	1126.7	336.08	7.5077e-06	5.7066e-06	532.79	231.25	142.67	70.831	8.2097e-06	129.87	0.00037725	0.00016013	4.3868e-05	741.79	1.7516e-06	1.6698e-06	1098.6	328.82	1.8928e-06	1.6956e-06	521.04	227.46	140.7	70.308	1.8362e-06	128.53	142.546	146.486	138.355	69.383	209.385	211.424	68.350	73.239	202.640	202.503	71.900	75.768	77.139	82.090	207.415	79.932	-8191	255	
1948.764	1	1	0	0	0.13836	0.18554	0.083541	0.17252	0.037301	0.12413	0.31427	0.19926	0.2592	0.24524	0.31872	0.18968	0.079284	0.18754	0.13855	0.19706	-3.1167	-3.0062	-3.1521	-3.3979	-2.8958	-3.2854	-3.3708	-3.2833	-3.4125	-3.0458	-3.3667	-3.5542	-3.0687	-3.4875	-3.4104	-3.2938	228.697	138.196	102.452	300.282	192.861	347.575	377.048	377.499	320.723	94.310	369.604	338.068	211.535	263.579	240.643	365.939	0.0011838	0.00065006	0.00017556	760.77	6.3439e-06	6.9509e-06	1123.7	337.04	7.3512e-06	4.3926e-06	531.02	230.51	142.58	70.87	9.9454e-06	129.68	0.00037261	0.00015401	4.2792e-05	742.76	1.7208e-06	1.6193e-06	1094.6	330.56	1.8619e-06	1.6226e-06	520.03	227.07	140.64	70.174	1.8769e-06	128.32	142.173	138.514	139.973	69.315	207.955	211.113	68.740	73.087	196.662	196.140	72.076	75.873	77.269	82.187	204.065	80.094	-8191	255	
#DATA ENDS
