BOXY.EXE: ISS Imagent and Oximeter Data Acquisition Program Version 0.80
Ascii Record File

#ACQ INFORMATION
2  Detector Channels 
16  External MUX Channels 
1  Auxiliary Channels 
5000  Waveform (CCF) Frequency (Hz)
1  Waveforms Skipped 
30  Waveforms Averaged 
1  Cycles Averaged 
16  Acquisitions per Waveform 
10.0806  Updata Rate (Hz) 

#FILE INFORMATION
TRUE -- External MUX Channel results are PARSED.
FALSE -- AC DC and Phase are NOT grouped.
TRUE -- Companion Program Settings File CREATED.
FALSE -- AC data not excluded
FALSE -- DC data not excluded
FALSE -- Phase data not excluded
FALSE -- Auxillary Chn. data not excluded
Tab delimiters

#CALIBRATION STATE
TRUE -- Waveform Calibration Values APPLIED.


#AUX CALIBRATION VALUES
Val Type	aux-1	

Term	1.0000e+00	
Factor	0.0000e+00	


#WF CALIBRATION VALUES
A = Detector Channel
Val Type	A-AC1	A-AC2	A-AC3	A-AC4	A-AC5	A-AC6	A-AC7	A-AC8	A-AC9	A-AC10	A-AC11	A-AC12	A-AC13	A-AC14	A-AC15	A-AC16	A-DC1	A-DC2	A-DC3	A-DC4	A-DC5	A-DC6	A-DC7	A-DC8	A-DC9	A-DC10	A-DC11	A-DC12	A-DC13	A-DC14	A-DC15	A-DC16	A-Ph1	A-Ph2	A-Ph3	A-Ph4	A-Ph5	A-Ph6	A-Ph7	A-Ph8	A-Ph9	A-Ph10	A-Ph11	A-Ph12	A-Ph13	A-Ph14	A-Ph15	A-Ph16	

Term	0.00000e+00	0.00000e+00	0.00000e+00	0.00000e+00	0.00000e+00	0.00000e+00	0.00000e+00	0.00000e+00	0.00000e+00	0.00000e+00	0.00000e+00	0.00000e+00	0.00000e+00	0.00000e+00	0.00000e+00	0.00000e+00	0.00000e+00	0.00000e+00	0.00000e+00	0.00000e+00	0.00000e+00	0.00000e+00	0.00000e+00	0.00000e+00	0.00000e+00	0.00000e+00	0.00000e+00	0.00000e+00	0.00000e+00	0.00000e+00	0.00000e+00	0.00000e+00	0.00000e+00	0.00000e+00	0.00000e+00	0.00000e+00	0.00000e+00	0.00000e+00	0.00000e+00	0.00000e+00	0.00000e+00	0.00000e+00	0.00000e+00	0.00000e+00	0.00000e+00	0.00000e+00	0.00000e+00	0.00000e+00	
Factor	1.00000e+00	1.00000e+00	1.00000e+00	1.00000e+00	1.00000e+00	1.00000e+00	1.00000e+00	1.00000e+00	1.00000e+00	1.00000e+00	1.00000e+00	1.00000e+00	1.00000e+00	1.00000e+00	1.00000e+00	1.00000e+00	1.00000e+00	1.00000e+00	1.00000e+00	1.00000e+00	1.00000e+00	1.00000e+00	1.00000e+00	1.00000e+00	1.00000e+00	1.00000e+00	1.00000e+00	1.00000e+00	1.00000e+00	1.00000e+00	1.00000e+00	1.00000e+00	X	X	X	X	X	X	X	X	X	X	X	X	X	X	X	X	

B = Detector Channel
Val Type	B-AC1	B-AC2	B-AC3	B-AC4	B-AC5	B-AC6	B-AC7	B-AC8	B-AC9	B-AC10	B-AC11	B-AC12	B-AC13	B-AC14	B-AC15	B-AC16	B-DC1	B-DC2	B-DC3	B-DC4	B-DC5	B-DC6	B-DC7	B-DC8	B-DC9	B-DC10	B-DC11	B-DC12	B-DC13	B-DC14	B-DC15	B-DC16	B-Ph1	B-Ph2	B-Ph3	B-Ph4	B-Ph5	B-Ph6	B-Ph7	B-Ph8	B-Ph9	B-Ph10	B-Ph11	B-Ph12	B-Ph13	B-Ph14	B-Ph15	B-Ph16	

Term	0.00000e+00	0.00000e+00	0.00000e+00	0.00000e+00	0.00000e+00	0.00000e+00	0.00000e+00	0.00000e+00	0.00000e+00	0.00000e+00	0.00000e+00	0.00000e+00	0.00000e+00	0.00000e+00	0.00000e+00	0.00000e+00	0.00000e+00	0.00000e+00	0.00000e+00	0.00000e+00	0.00000e+00	0.00000e+00	0.00000e+00	0.00000e+00	0.00000e+00	0.00000e+00	0.00000e+00	0.00000e+00	0.00000e+00	0.00000e+00	0.00000e+00	0.00000e+00	-5.53345e+01	-1.27015e+02	-1.27340e+02	-1.81716e+02	-4.47746e+01	-6.81240e+01	-1.57128e+02	-1.62015e+02	-4.21788e+01	-6.97516e+01	-1.72142e+02	-1.70362e+02	-1.80059e+02	-1.77178e+02	-5.13089e+01	-1.50265e+02	
Factor	1.80857e-05	1.60277e-04	4.48908e-05	1.58796e-01	1.75125e-06	1.97752e-06	1.70809e-01	6.08193e-02	1.37557e-06	1.84322e-06	8.34618e-02	2.77414e-02	2.97006e-02	8.95166e-03	1.69608e-06	1.25925e-02	1.30705e-05	2.57931e-05	7.13724e-06	8.02894e-02	2.50439e-07	2.91465e-07	8.12663e-02	3.08636e-02	2.52611e-07	2.90207e-07	4.12275e-02	1.37531e-02	1.53383e-02	4.59568e-03	2.66348e-07	6.24348e-03	X	X	X	X	X	X	X	X	X	X	X	X	X	X	X	X	



#DISTANCE SETTINGS
A = Detector Channel
A-1	A-2	A-3	A-4	A-5	A-6	A-7	A-8	A-9	A-10	A-11	A-12	A-13	A-14	A-15	A-16	

2.5000e+00	3.0000e+00	2.5000e+00	3.0000e+00	2.0000e+00	3.0000e+00	1.5000e+00	3.0000e+00	3.0000e+00	3.0000e+00	3.0000e+00	3.0000e+00	3.0000e+00	3.0000e+00	1.5000e+00	3.0000e+00	

B = Detector Channel
B-1	B-2	B-3	B-4	B-5	B-6	B-7	B-8	B-9	B-10	B-11	B-12	B-13	B-14	B-15	B-16	

1.0000e+01	1.0000e+01	1.0000e+01	1.4400e+00	1.0000e+01	1.0000e+01	1.5100e+00	1.9400e+00	1.0000e+01	1.0000e+01	1.9900e+00	2.4900e+00	2.4100e+00	2.9000e+00	1.0000e+01	2.9800e+00	




#DATA BEGINS
time	group	step	mark	flag	A-AC1	A-AC2	A-AC3	A-AC4	A-AC5	A-AC6	A-AC7	A-AC8	A-AC9	A-AC10	A-AC11	A-AC12	A-AC13	A-AC14	A-AC15	A-AC16	A-DC1	A-DC2	A-DC3	A-DC4	A-DC5	A-DC6	A-DC7	A-DC8	A-DC9	A-DC10	A-DC11	A-DC12	A-DC13	A-DC14	A-DC15	A-DC16	A-Ph1	A-Ph2	A-Ph3	A-Ph4	A-Ph5	A-Ph6	A-Ph7	A-Ph8	A-Ph9	A-Ph10	A-Ph11	A-Ph12	A-Ph13	A-Ph14	A-Ph15	A-Ph16	B-AC1	B-AC2	B-AC3	B-AC4	B-AC5	B-AC6	B-AC7	B-AC8	B-AC9	B-AC10	B-AC11	B-AC12	B-AC13	B-AC14	B-AC15	B-AC16	B-DC1	B-DC2	B-DC3	B-DC4	B-DC5	B-DC6	B-DC7	B-DC8	B-DC9	B-DC10	B-DC11	B-DC12	B-DC13	B-DC14	B-DC15	B-DC16	B-Ph1	B-Ph2	B-Ph3	B-Ph4	B-Ph5	B-Ph6	B-Ph7	B-Ph8	B-Ph9	B-Ph10	B-Ph11	B-Ph12	B-Ph13	B-Ph14	B-Ph15	B-Ph16	aux-1	digaux	

2142.547	1	1	0	768	0.2779	0.1774	0.033902	0.043403	0.15729	0.019662	0.132	0.11146	0.043552	0.17301	0.27228	0.2771	0.22786	0.14515	0.30537	0.18735	-2.2292	-2.9021	-2.5146	-3.0792	-2.75	-2.7208	-3.0625	-2.6229	-2.7979	-2.9583	-2.5625	-2.8688	-2.7229	-2.5833	-2.8875	-2.5646	246.059	389.956	426.797	392.653	224.366	153.910	324.791	134.423	405.973	389.406	381.255	438.558	269.885	441.179	377.711	302.954	0.0010995	0.0027806	0.00096093	1022.9	4.2749e-05	3.1942e-05	1079.2	258.81	8.288e-06	2.7861e-05	343.09	146.67	87.747	35.353	1.1826e-05	71.556	0.071093	0.14108	0.039152	1397.7	0.0013591	0.0015825	1453.7	410.55	0.0013764	0.0015962	550.18	215.16	168.11	59.541	0.0014888	102.67	278.232	273.218	372.175	126.664	253.390	127.663	126.506	132.132	419.677	138.386	131.138	136.614	136.952	140.262	246.349	139.263	-8191	255	
2142.642	1	1	0	0	0.21786	0.031124	0.23712	0.34993	0.22328	0.14276	0.28731	0.061223	0.1874	0.14791	0.23244	0.12015	0.075451	0.20595	0.14389	0.31254	-2.2375	-2.7604	-2.4792	-2.9313	-2.65	-2.3896	-3.0312	-2.5625	-2.6021	-2.9896	-2.5667	-2.9042	-2.8688	-2.6625	-2.9688	-2.6271	394.735	297.816	172.458	415.880	277.653	291.242	385.157	243.724	345.353	378.233	407.704	295.241	115.640	378.769	452.438	385.746	0.00069083	0.002137	0.00043419	1031.7	2.4326e-05	6.2458e-05	1083.3	261.39	1.9873e-05	6.1902e-05	340.86	148.13	88.461	36.199	4.2371e-05	72.387	0.07266	0.14317	0.039524	1406.3	0.0013811	0.00162	1465.6	417.03	0.0014074	0.0016167	555.09	216.48	168.61	59.952	0.0014741	103.4	254.908	114.180	178.718	126.675	259.753	411.396	126.787	132.030	363.296	249.147	131.389	136.284	137.374	140.093	406.536	139.702	-8191	255	
2142.738	1	1	0	0	0.075943	0.079339	0.19909	0.22188	0.037299	0.18564	0.15932	0.078545	0.15443	0.24288	0.062765	0.067435	0.19484	0.29185	0.10742	0.059665	-2.1854	-2.9042	-2.5021	-3.0812	-2.9042	-2.4229	-2.9	-2.7667	-2.4729	-2.9396	-2.5	-2.7771	-2.8458	-2.6188	-2.8917	-3.0458	393.697	154.663	464.405	382.705	223.204	313.200	446.152	442.567	275.758	142.708	128.293	157.268	428.649	372.208	392.267	416.249	0.00046731	0.0046247	0.0002998	1028.6	3.2206e-06	7.2496e-06	1082.6	260.78	1.5389e-05	2.9341e-05	343.55	147.93	89.123	36.017	2.1823e-05	72.201	0.072236	0.14212	0.039184	1407	0.0013573	0.0015706	1452.5	411.3	0.0013391	0.0015325	541.31	212.12	163.18	58.035	0.0013532	100.63	278.088	167.775	214.990	126.950	176.865	453.494	126.647	131.957	176.690	137.005	131.502	136.669	137.252	140.710	410.047	139.568	-8191	255	
2142.836	1	1	0	0	0.12122	0.17443	0.30582	0.051515	0.11287	0.12086	0.27929	0.1653	0.23293	0.24307	0.21735	0.3916	0.046621	0.19062	0.06421	0.33967	-2.1833	-2.9625	-2.4667	-2.8625	-2.7188	-2.4	-3.075	-3.0042	-2.575	-3.0021	-2.6875	-2.575	-2.9396	-2.5729	-2.6083	-3	249.813	275.337	472.475	357.618	341.844	446.650	407.793	135.707	149.597	457.245	219.167	422.721	429.851	123.420	441.641	430.933	0.0006493	0.002188	0.00054641	1033.4	2.0158e-05	9.7489e-06	1087.2	264.35	1.1877e-05	2.7165e-05	343.74	149.24	89.51	36.089	3.1963e-05	72.369	0.066225	0.12972	0.035605	1368.9	0.0012324	0.0014351	1419.5	399.41	0.0012417	0.0014315	528.74	208.47	158.94	57.17	0.0012959	99.568	238.644	115.246	283.434	126.466	121.276	444.260	126.791	132.024	262.395	238.503	131.114	136.556	137.420	140.130	349.529	139.415	-8191	255	
2142.930	1	1	0	0	0.21991	0.16553	0.22883	0.15391	0.14707	0.21079	0.43804	0.2023	0.24492	0.050218	0.24306	0.18232	0.19064	0.099349	0.1537	0.30498	-1.9875	-3.0792	-2.5354	-2.625	-2.7854	-2.2146	-3.0021	-2.7583	-2.4396	-2.9875	-2.675	-2.625	-2.8396	-2.5812	-2.7417	-2.8021	467.966	211.219	159.742	396.926	186.731	162.727	423.404	430.530	230.805	382.642	397.007	412.919	303.718	428.577	405.651	391.724	0.0010378	0.002304	0.00026419	1040.9	1.6133e-05	1.5192e-05	1090.4	266.12	2.52e-05	4.2761e-05	347.72	150.6	89.575	36.068	1.2419e-05	72.765	0.064173	0.12577	0.034933	1367.4	0.0012346	0.0014462	1430.1	403.49	0.0012803	0.0014915	541.34	213.24	163.66	58.286	0.0013815	101.68	246.189	138.036	114.854	126.796	303.322	257.804	126.708	132.000	282.557	471.904	131.247	136.882	137.433	140.121	225.960	139.409	-8191	255	
2143.026	1	1	0	0	0.34527	0.12579	0.064198	0.26679	0.19725	0.13839	0.049656	0.14247	0.30347	0.3455	0.19343	0.16883	0.12624	0.23197	0.081282	0.23319	-2.1292	-2.8	-2.3917	-2.5646	-2.7562	-2.425	-2.6813	-2.8896	-2.5479	-2.9188	-2.8042	-2.6188	-2.9604	-2.8	-2.6208	-2.7729	159.524	450.196	254.159	412.891	324.931	114.329	396.104	183.462	176.426	261.351	345.129	387.511	407.993	387.145	211.706	400.365	0.00095476	0.0023899	0.00091784	1040.4	1.4979e-05	1.6626e-05	1106.6	266.26	1.5044e-05	3.9408e-05	351.58	150.54	89.501	36.675	1.4435e-05	73.934	0.068279	0.1335	0.036976	1396.2	0.0013077	0.0015181	1457.4	411.49	0.0013223	0.0015061	544.39	214.18	163.94	58.255	0.0013525	102.08	241.300	175.754	415.094	126.732	466.859	392.013	126.688	132.169	305.445	262.886	131.504	136.666	137.429	140.191	378.832	139.766	-8191	255	
2143.147	1	1	0	0	0.21396	0.15311	0.15772	0.057342	0.072418	0.27731	0.21612	0.22413	0.21297	0.12791	0.26993	0.12729	0.28025	0.29209	0.27597	0.26439	-2.0604	-2.8771	-2.6125	-2.4979	-2.9938	-2.5521	-2.8063	-2.8229	-2.4938	-2.7792	-2.7292	-2.5979	-2.8458	-2.6854	-2.4833	-2.9938	172.020	235.761	378.285	351.681	414.817	152.164	442.992	312.163	414.676	443.847	368.704	469.058	434.965	347.703	245.412	391.707	0.00076969	0.0022914	0.00075468	1052.7	3.0817e-05	3.1937e-05	1101.8	264.62	1.4762e-05	3.9299e-05	346.81	150.28	90.695	36.798	3.7721e-05	73.034	0.06643	0.12991	0.036043	1392.1	0.0012682	0.0014718	1446.1	407.5	0.0012776	0.0014678	539.54	212.64	163.65	58.537	0.0013752	102.13	248.881	363.646	253.242	126.714	262.392	218.439	126.547	131.990	351.758	257.123	131.435	136.509	136.991	140.659	441.247	139.840	-8191	255	
2143.243	1	1	0	0	0.16458	0.17866	0.17698	0.16082	0.10649	0.15914	0.15861	0.26998	0.13653	0.13491	0.22026	0.10798	0.061979	0.15243	0.13486	0.16234	-1.9667	-2.6333	-2.6958	-2.5354	-2.8063	-2.7042	-2.7396	-3.0229	-2.6521	-3.0167	-3.0542	-2.5312	-2.9792	-2.85	-2.4562	-3.05	320.846	195.576	219.372	409.673	294.136	238.843	405.937	414.475	311.725	263.895	423.584	404.624	274.553	440.537	159.728	150.537	0.00056488	0.0010588	0.0011769	1047.8	3.4525e-05	1.7068e-05	1098.9	263.24	1.9338e-05	1.8884e-05	346.54	149.35	90.385	36.911	1.0677e-05	73.543	0.068296	0.13361	0.036878	1395.9	0.0012782	0.0014899	1446	407.96	0.0012918	0.0014895	540.22	212.48	163.06	58.305	0.0013498	101.43	245.440	198.670	220.770	126.395	303.446	242.840	126.551	131.923	187.282	191.754	131.561	136.417	137.821	140.447	311.459	139.830	-8191	255	
2143.339	1	1	0	0	0.044784	0.18531	0.17963	0.46868	0.30119	0.39607	0.30776	0.12614	0.17164	0.18722	0.088401	0.21631	0.27892	0.094977	0.16455	0.20332	-2.1146	-2.7896	-2.8271	-2.4417	-2.9958	-2.8438	-2.675	-2.9875	-2.475	-2.7938	-2.75	-2.5938	-2.9125	-2.8646	-2.6271	-3.0146	386.852	240.635	438.621	450.958	340.108	316.446	465.610	178.924	268.096	450.962	158.753	138.552	377.303	455.171	384.987	396.853	0.001022	0.00098675	0.0014397	1046.9	2.1737e-06	1.2378e-05	1103.8	265.99	1.3553e-05	2.8013e-05	349.19	150.47	91.173	36.355	4.5301e-05	73.438	0.066181	0.12981	0.036148	1390.3	0.0012561	0.00146	1442.6	403.55	0.0012329	0.0014169	530.16	209.69	160.01	57.236	0.0013159	100.64	256.447	249.736	183.774	126.631	318.566	178.060	126.638	132.452	157.884	211.002	131.445	136.212	137.081	140.662	243.164	140.458	-8191	255	
2143.435	1	1	0	0	0.097527	0.24794	0.18548	0.13091	0.25552	0.22768	0.14063	0.051042	0.16722	0.019369	0.042492	0.18273	0.071563	0.3062	0.24673	0.22099	-2.1667	-2.7167	-2.875	-2.7125	-2.8479	-2.7771	-2.6688	-2.8812	-2.6437	-2.8792	-3.0958	-2.6708	-2.925	-2.6958	-2.4875	-3.0604	242.608	444.437	223.237	400.257	423.205	319.318	170.271	119.786	463.047	426.411	425.094	296.462	465.190	423.847	358.677	434.736	0.0010292	0.0022622	0.00074955	1052.2	2.839e-05	2.5012e-05	1111.9	266.49	2.9896e-05	3.1484e-05	352.89	152.15	91.788	36.886	2.5354e-05	74.167	0.064453	0.12586	0.035051	1376.1	0.0012053	0.0013993	1427.7	397.11	0.0011928	0.0013674	525.76	208.76	156.8	56.474	0.0012431	99.533	247.438	145.149	167.555	126.677	271.485	190.842	126.786	132.281	252.237	370.796	131.446	137.021	137.682	140.368	397.618	139.771	-8191	255	
2143.531	1	1	0	0	0.14618	0.13711	0.056472	0.32382	0.21282	0.26293	0.068014	0.21909	0.092852	0.21458	0.15672	0.19127	0.10083	0.23791	0.13977	0.24416	-2.2438	-2.55	-2.775	-2.6875	-2.725	-2.8646	-2.5187	-2.9833	-2.5604	-2.5438	-2.9521	-2.5417	-2.8333	-2.8563	-2.3792	-2.9917	164.004	452.415	282.752	444.990	327.974	227.343	311.667	472.956	329.931	148.809	398.308	385.075	117.248	386.083	342.382	400.198	0.00066784	0.0030257	0.00050188	1054.6	1.5848e-05	2.4419e-05	1117.1	269.01	3.3026e-05	2.4748e-05	353.28	151.05	90.921	36.878	1.9458e-05	73.852	0.060899	0.11961	0.033185	1359.7	0.0011488	0.0013377	1416.2	392.83	0.0011504	0.0013312	521.79	207.16	156.92	56.583	0.0012507	99.525	279.841	162.478	433.303	126.926	231.250	209.692	126.533	132.205	267.649	188.181	131.275	136.826	137.139	140.934	349.884	139.787	-8191	255	
2143.628	1	1	0	0	0.039258	0.099898	0.20366	0.14628	0.26078	0.11801	0.12834	0.14925	0.25476	0.24749	0.038855	0.25842	0.22036	0.1898	0.070147	0.18145	-2.2396	-2.4313	-2.9688	-2.6646	-2.7208	-2.8958	-2.6729	-2.9521	-2.6125	-2.5396	-2.9729	-2.4979	-2.7	-2.6958	-2.3042	-3.0792	187.800	238.736	265.368	454.685	155.393	310.509	368.037	352.519	183.881	261.044	236.790	372.372	432.484	117.975	444.106	409.912	0.00066845	0.0020041	0.00083213	1050.7	1.7906e-05	1.371e-05	1111	268.31	2.3337e-06	9.9027e-06	348.89	150.21	89.724	36.622	3.6907e-05	72.829	0.061878	0.12224	0.033803	1364.7	0.0011827	0.0013868	1424.5	398.26	0.0012173	0.0014183	531.28	210.43	161.33	57.965	0.0013341	100.77	262.234	166.623	222.115	126.575	354.518	255.149	126.132	132.209	151.108	295.738	131.701	136.706	137.185	140.489	220.872	139.476	-8191	255	
2143.724	1	1	0	0	0.11182	0.099593	0.087485	0.31203	0.31038	0.12384	0.10755	0.18545	0.071913	0.20689	0.22619	0.25682	0.14125	0.11667	0.019457	0.12564	-2.4479	-2.4958	-2.6854	-2.5875	-2.625	-2.8479	-2.7958	-2.7229	-2.6229	-2.4417	-2.9375	-2.5812	-2.5833	-3.0667	-2.6125	-2.9104	249.538	290.633	197.824	448.848	429.212	287.952	426.027	337.232	413.609	441.982	473.214	466.806	255.726	267.727	373.413	413.473	0.00074072	0.0030203	0.00064029	1052.3	1.3638e-05	5.0587e-05	1099.7	265.45	5.8598e-06	1.9426e-05	346.39	149.81	90.039	36.446	3.2219e-05	72.995	0.065529	0.12912	0.035548	1382.4	0.001246	0.0014563	1441.1	403.49	0.0012668	0.0014693	537.85	212.77	163.38	58.478	0.0013771	101.8	278.721	351.339	455.355	126.830	387.493	185.006	126.709	131.890	303.364	152.959	131.033	136.460	137.261	140.248	317.635	139.797	-8191	255	
2143.843	1	1	0	0	0.21937	0.11705	0.063187	0.17505	0.25119	0.056245	0.26365	0.11087	0.25112	0.30489	0.10322	0.16467	0.081341	0.16531	0.093839	0.11935	-2.3167	-2.1667	-2.8771	-2.85	-2.4958	-2.9396	-2.6437	-2.8792	-2.9458	-2.5687	-2.8333	-2.8125	-2.6521	-2.8438	-2.5167	-2.6771	463.751	446.086	336.248	300.108	173.345	120.195	374.199	387.893	341.325	246.007	156.692	114.649	411.289	341.200	354.893	422.806	0.0004568	0.00091664	0.00046133	1051.6	4.4158e-05	1.3749e-05	1106.8	266.89	1.1027e-05	1.2329e-05	348.18	152.09	89.795	36.701	4.8397e-05	73.218	0.068687	0.13546	0.037532	1409.9	0.0013211	0.0015467	1470	414.65	0.0013439	0.0015462	548.49	216.75	167.13	59.273	0.0013979	102.7	243.360	194.609	372.796	126.598	144.342	445.188	126.535	132.082	208.412	461.274	131.532	136.338	137.034	140.195	385.349	139.441	-8191	255	
2143.939	1	1	0	0	0.083615	0.22877	0.29278	0.13355	0.034146	0.17918	0.069728	0.087799	0.15233	0.15032	0.27128	0.16358	0.32037	0.050847	0.39654	0.25442	-2.6396	-2.5542	-2.6792	-2.7021	-2.3354	-3.0396	-2.425	-2.6208	-2.9104	-2.3521	-2.8604	-2.7375	-2.6479	-2.9292	-2.4938	-2.7042	310.983	207.261	298.591	435.001	456.427	245.227	379.953	355.873	396.216	425.184	176.095	467.070	458.005	462.157	343.704	117.660	0.00059004	0.00085059	0.00049041	1050.1	3.5648e-05	2.9464e-05	1110	266.8	2.4224e-05	3.9794e-05	347.57	150.24	90.825	36.613	2.246e-05	73.095	0.068683	0.13451	0.036978	1408.5	0.0012983	0.0015012	1459.9	409.51	0.0012886	0.0014749	537.95	211.93	161.75	57.841	0.0013161	100.66	256.366	439.724	417.756	126.000	267.496	157.676	126.407	132.183	213.518	318.827	131.391	136.504	136.570	139.802	293.655	139.489	-8191	255	
2144.035	1	1	0	0	0.22401	0.21769	0.226	0.065335	0.091773	0.20417	0.28415	0.15509	0.21963	0.23117	0.13366	0.18899	0.1343	0.33269	0.18337	0.11809	-2.5042	-2.4271	-2.6667	-2.8042	-2.5	-2.775	-2.5917	-2.6875	-2.8583	-2.4479	-2.9042	-3.025	-2.5187	-2.9979	-2.7188	-2.4833	344.646	224.669	227.617	405.295	382.323	295.786	220.780	341.982	445.455	144.146	138.969	360.482	192.928	125.449	221.719	187.922	0.00040039	0.0030522	0.00038549	1051	2.0534e-05	4.248e-05	1109.9	265.91	8.3331e-06	3.0129e-05	348.54	149.9	91.181	36.896	2.0756e-05	72.851	0.064705	0.12579	0.034684	1378.5	0.0012161	0.0014043	1431.4	399.48	0.0012164	0.0013914	525.86	208.89	158.33	56.734	0.0012519	99.243	248.474	251.639	243.301	127.231	272.004	175.161	126.451	131.858	262.972	332.228	131.447	136.291	137.256	140.563	295.572	139.773	-8191	255	
2144.131	1	1	0	0	0.15791	0.1555	0.13922	0.15799	0.15556	0.27456	0.24363	0.15442	0.078818	0.1672	0.14822	0.18105	0.17381	0.21296	0.042861	0.057191	-2.4208	-2.55	-2.6042	-2.8146	-2.6271	-2.9104	-2.8208	-2.4813	-2.8271	-2.5521	-2.8375	-2.8708	-2.3688	-2.8042	-2.6396	-2.5146	168.672	282.047	369.121	436.844	295.785	363.015	386.372	360.993	432.107	315.851	276.735	422.651	399.831	131.079	286.396	299.770	0.0010228	0.0012597	0.00056622	1045.1	2.3479e-05	2.4932e-05	1106.3	267.48	1.2597e-05	3.3749e-05	348.87	150.18	90.302	36.137	8.6831e-06	72.8	0.061286	0.1185	0.032426	1349.8	0.0011252	0.0012989	1400.4	388.92	0.0011305	0.001299	515	205.17	154.32	55.364	0.0012001	97.993	232.191	175.967	183.513	126.783	252.655	412.642	126.677	132.278	286.929	321.716	130.873	136.603	136.901	140.523	242.709	139.521	-8191	255	
2144.227	1	1	0	0	0.072894	0.33397	0.071804	0.11896	0.21177	0.086579	0.11648	0.20817	0.26834	0.17425	0.20904	0.10123	0.14005	0.054529	0.082351	0.043564	-2.575	-2.6188	-2.675	-2.8583	-2.5375	-2.8563	-2.8042	-2.4833	-3.0604	-2.6271	-2.6813	-3.1104	-2.4292	-2.7792	-2.7708	-2.5812	241.808	381.264	384.949	359.421	350.350	145.924	297.613	375.923	219.931	469.236	406.146	185.753	284.697	331.027	403.455	134.062	0.00088847	0.0038162	0.00029076	1043.8	1.2631e-06	4.3224e-05	1102.5	263.83	6.8604e-06	3.8656e-05	346.31	151.4	88.866	36.41	2.7706e-05	73.036	0.059071	0.11618	0.032228	1348.5	0.0011485	0.0013334	1409	393	0.0011658	0.001343	519.62	207.57	156.02	56.106	0.0012606	99.312	253.242	164.320	433.692	126.929	343.669	338.924	126.357	132.017	422.960	123.736	131.564	136.796	137.215	140.047	257.632	139.686	-8191	255	
2144.323	1	1	0	0	0.2684	0.15727	0.42163	0.28589	0.15641	0.11558	0.30254	0.12898	0.14034	0.1131	0.15867	0.072869	0.27663	0.18964	0.34529	0.16424	-2.4521	-2.6188	-2.475	-2.8604	-2.6	-2.6562	-2.9667	-2.5375	-2.8083	-2.7062	-2.7562	-2.8979	-2.7812	-2.9833	-2.8792	-2.4375	454.040	279.746	381.549	152.548	178.248	235.836	367.626	149.929	132.800	232.841	287.725	340.936	447.714	134.929	444.263	454.505	0.00078324	0.0021635	0.00048035	1042.9	3.0647e-05	2.6086e-05	1096.9	263.4	4.04e-05	9.6423e-06	342.25	149.97	88.664	36.277	3.1413e-05	71.948	0.062009	0.12172	0.033771	1358.2	0.0011724	0.0013553	1411.7	390.83	0.0011653	0.0013366	515.92	205.14	154.22	55.297	0.0012262	97.121	268.394	419.000	462.635	127.073	300.539	210.718	126.457	132.327	333.139	451.687	131.463	136.487	137.004	140.668	256.993	139.638	-8191	255	
2144.419	1	1	0	0	0.2651	0.045276	0.071342	0.027613	0.16254	0.20733	0.097642	0.17729	0.16545	0.25562	0.19816	0.1616	0.25669	0.16561	0.18101	0.2393	-2.4958	-2.7354	-2.5187	-3.0521	-2.5812	-2.7458	-2.9417	-2.4167	-2.875	-2.6979	-2.6354	-3.0521	-2.5917	-2.8521	-2.8917	-2.7083	335.795	392.027	342.356	222.291	259.819	312.560	327.734	369.739	135.744	448.951	405.874	126.546	439.835	376.452	441.777	427.550	0.00061495	0.0022577	0.00037597	1043.9	7.9734e-06	4.1632e-05	1089.8	260.04	4.4806e-06	4.6921e-05	340.91	147.62	88.229	35.31	2.0245e-05	71.115	0.059582	0.11677	0.032408	1337.2	0.0011271	0.0013169	1393.2	385.78	0.0011485	0.0013316	513.34	203.87	153.97	54.934	0.0012419	96.786	216.175	400.671	219.593	126.869	254.484	305.359	126.821	132.309	314.611	211.570	131.200	136.910	137.462	140.676	208.864	139.849	-8191	255	
2144.516	1	1	0	0	0.081578	0.1618	0.12505	0.076767	0.050935	0.087648	0.29106	0.15229	0.3078	0.24984	0.29938	0.16943	0.25344	0.043986	0.056305	0.058887	-2.3167	-2.7104	-2.4771	-2.9854	-2.6	-2.6562	-2.9604	-2.6375	-2.7104	-2.7333	-2.5208	-2.6729	-2.6146	-2.5271	-2.95	-2.6708	413.154	195.895	177.774	180.381	402.513	258.710	417.780	442.010	462.396	156.634	438.943	233.657	185.696	388.731	170.496	434.881	0.0010186	0.0020113	0.00074715	1035.9	3.5635e-05	2.6882e-05	1092.1	262.04	1.0363e-05	2.4427e-05	340.58	148.36	88.356	35.013	3.2016e-05	71.577	0.060248	0.11849	0.032771	1330.6	0.0011257	0.0013146	1386.4	383.78	0.0011298	0.0013026	506.62	201.17	150.24	53.734	0.0011775	95.284	262.948	201.205	149.462	126.616	257.880	456.479	126.557	132.498	474.127	236.897	131.717	136.829	137.300	140.490	400.543	139.465	-8191	255	
2144.634	1	1	0	0	0.24278	0.089726	0.15965	0.29594	0.031073	0.12008	0.26957	0.17162	0.10452	0.12441	0.38878	0.33343	0.13058	0.18416	0.18808	0.25251	-2.2458	-2.7438	-2.2708	-3.0646	-2.7562	-2.5542	-2.9313	-2.6625	-2.8292	-2.7562	-2.6917	-3.0333	-2.6771	-2.5354	-3.0042	-2.5875	455.768	166.338	287.601	445.280	219.701	378.507	451.265	470.414	440.020	396.994	454.657	456.241	172.400	138.259	295.756	378.570	0.00093846	0.0013688	0.001116	1026.6	2.6042e-06	2.5212e-05	1081.2	259.25	4.918e-06	6.8729e-06	341.25	147.45	87.729	35.116	2.5307e-05	70.996	0.05772	0.11409	0.031648	1317.5	0.0010968	0.0012902	1374.3	379.96	0.0011113	0.0012907	504.65	200.68	149.74	53.46	0.0011577	94.42	285.065	199.069	201.563	126.792	167.870	188.033	126.569	132.296	214.335	187.038	131.254	136.695	136.952	140.648	458.923	139.706	-8191	255	
2144.708	1	1	0	0	0.17841	0.32018	0.29278	0.18309	0.14245	0.15051	0.25242	0.11253	0.11749	0.16352	0.20686	0.31983	0.091188	0.21968	0.1854	0.1553	-2.3438	-2.9229	-2.4896	-2.9958	-2.6292	-2.6146	-3.1688	-2.8375	-2.7104	-2.8875	-2.5104	-3.0104	-2.8167	-2.5833	-2.8771	-2.6292	218.374	208.948	421.501	438.339	456.396	415.375	335.818	363.800	440.724	386.215	130.921	131.125	327.357	441.803	213.567	406.132	0.00077301	0.00041633	0.00088036	1026.6	2.0834e-05	1.8254e-05	1086.3	258.18	1.2868e-05	3.0687e-05	339.52	148.16	87.605	34.732	2.2816e-05	70.688	0.056412	0.11107	0.030534	1301.5	0.0010599	0.0012382	1358.1	371.34	0.0010486	0.001212	491.6	196.34	145.87	52.24	0.0011015	92.816	276.366	156.887	230.729	126.736	285.917	231.227	126.843	132.416	272.964	276.489	132.002	136.489	137.050	140.573	207.644	139.578	-8191	255	
2144.829	1	1	0	0	0.098795	0.13536	0.29993	0.06405	0.073589	0.2623	0.26714	0.048288	0.16398	0.13246	0.12853	0.23567	0.0087369	0.23435	0.14897	0.17584	-2.1167	-2.8271	-2.35	-2.9708	-2.7979	-2.4896	-3.0333	-2.7208	-2.6688	-2.9562	-2.6417	-2.9792	-2.75	-2.5083	-2.9562	-2.6896	398.861	333.278	321.340	118.530	339.314	345.468	390.201	157.612	156.728	377.096	349.589	125.882	405.802	455.552	162.587	178.155	0.00064315	7.2193e-05	0.00042799	1025.3	6.928e-06	2.6556e-05	1079.9	259.31	1.2297e-05	3.2797e-05	336.28	146.1	86.353	34.739	6.9501e-06	70.709	0.054232	0.10646	0.029358	1289.2	0.0010338	0.0012035	1346.1	370.05	0.0010586	0.0012293	491.21	196.35	147.21	52.652	0.0011333	93.667	238.914	170.863	435.039	126.646	374.077	386.600	126.548	131.780	221.826	160.828	131.102	136.540	137.215	140.513	351.976	140.063	-8191	255	
2144.923	1	1	0	0	0.10183	0.27123	0.14779	0.050601	0.18156	0.062473	0.21855	0.23352	0.17584	0.25291	0.088663	0.15545	0.048419	0.30777	0.33851	0.22511	-2.1604	-2.8875	-2.2979	-2.8521	-2.8021	-2.5792	-2.8583	-2.7583	-2.4229	-2.8229	-2.8354	-2.7104	-3.0917	-2.5542	-2.7812	-2.7417	201.176	144.544	451.089	396.612	402.527	215.008	396.267	433.635	179.227	213.170	240.987	205.881	415.956	128.737	210.211	432.322	0.00079144	0.0025238	0.00010124	1029.8	1.4167e-05	1.7657e-06	1079.4	259.44	1.2522e-05	2.4326e-05	340.18	148.44	88.163	34.992	3.0124e-05	71.437	0.05676	0.11195	0.031065	1313.7	0.0011075	0.0012873	1367.6	378.71	0.001117	0.0012905	501	200.38	151.01	53.754	0.0011798	95.602	236.662	444.597	387.777	126.609	291.480	445.337	126.690	132.150	254.520	243.252	131.644	136.622	137.512	140.460	376.949	139.404	-8191	255	
2145.019	1	1	0	0	0.10377	0.15009	0.17366	0.15215	0.1496	0.040638	0.14648	0.1015	0.2876	0.11556	0.2478	0.22317	0.18497	0.10665	0.086365	0.33577	-2.0125	-2.9104	-2.6208	-2.65	-2.9604	-2.3396	-2.7625	-2.7562	-2.2771	-2.9375	-2.5917	-2.5521	-2.6354	-2.5167	-2.8063	-2.8	252.347	413.344	361.045	397.782	396.556	250.098	168.644	137.008	314.967	429.785	414.674	413.799	302.221	468.769	279.808	458.312	0.0006899	0.0040296	0.00075042	1032.7	3.1044e-05	1.6116e-05	1082.5	260.63	2.5679e-05	4.5798e-05	337.58	148.31	88.004	35.296	1.8098e-05	71.097	0.059581	0.11725	0.032424	1334.8	0.001144	0.0013303	1383.6	385.37	0.0011505	0.0013158	506.93	203.5	153.62	54.601	0.0012153	96.598	276.923	275.512	296.145	126.536	332.656	291.171	126.591	131.868	217.044	343.593	131.701	136.496	137.247	140.792	432.349	139.503	-8191	255	
2145.115	1	1	0	0	0.18803	0.15575	0.28214	0.4465	0.1727	0.097469	0.14776	0.24437	0.1786	0.073918	0.13512	0.22477	0.31707	0.13362	0.16422	0.13217	-2.175	-2.8958	-2.5042	-2.6229	-2.8458	-2.525	-2.8167	-2.9458	-2.3521	-2.9083	-2.7354	-2.6625	-2.9396	-2.7104	-2.675	-2.8583	423.568	279.663	171.228	376.921	471.694	244.710	361.225	444.470	329.224	130.131	460.124	349.794	360.419	271.488	135.616	197.531	0.00056712	0.0030034	0.00059773	1027.6	1.3882e-05	6.9449e-06	1079.5	259.46	2.1758e-05	2.2953e-05	341.99	147.55	88.63	35.62	9.9713e-06	71.071	0.060331	0.11778	0.032524	1333.9	0.0011416	0.0013206	1383.5	384.53	0.0011438	0.0013117	506.7	202.34	151.21	53.99	0.0011667	95.223	248.709	442.208	335.015	126.589	222.389	304.211	126.513	132.739	388.928	221.834	131.011	136.177	137.317	140.300	373.464	139.575	-8191	255	
2145.236	1	1	0	0	0.13175	0.1666	0.063183	0.058219	0.18254	0.32998	0.03171	0.074043	0.069341	0.16431	0.18802	0.28569	0.064934	0.1099	0.15455	0.093887	-1.9375	-2.8021	-2.4917	-2.5812	-2.8833	-2.6083	-2.6312	-2.8521	-2.4375	-2.8187	-2.7812	-2.5229	-2.9583	-2.5125	-2.5354	-2.9333	420.906	235.303	417.615	454.318	208.753	465.541	435.254	195.024	255.032	443.436	389.838	418.831	433.782	299.535	355.751	190.273	0.00084997	0.0031259	0.00067473	1033.6	2.7575e-05	2.6728e-05	1084.3	260.12	2.6151e-05	2.7214e-05	336.84	147.81	87.789	35.191	9.8315e-06	70.881	0.057149	0.11151	0.030949	1316.4	0.0010854	0.0012617	1368.1	378.65	0.0010947	0.0012512	498.67	199.81	149.05	53.495	0.001147	94.967	241.154	335.101	188.957	126.748	418.523	126.148	126.561	131.956	221.700	242.512	131.508	136.453	136.923	140.504	342.138	139.737	-8191	255	
2145.332	1	1	0	0	0.22572	0.1048	0.048462	0.28767	0.49721	0.34262	0.081086	0.17474	0.3428	0.13635	0.18584	0.28908	0.17379	0.20149	0.21547	0.1992	-1.9813	-2.8646	-2.6333	-2.4979	-2.9437	-2.6771	-2.8792	-2.8417	-2.3521	-2.7062	-2.8542	-2.5208	-2.8521	-2.4771	-2.4542	-2.9271	321.131	407.366	238.869	452.340	445.781	286.253	130.548	395.172	117.883	213.602	466.179	429.629	411.418	424.267	306.755	198.924	0.001048	0.0018658	0.00081419	1035	1.3587e-05	4.3363e-05	1083.5	262.53	1.0475e-05	1.7042e-05	339.54	148.35	88.734	35.668	1.3468e-05	71.399	0.056978	0.1119	0.031207	1324	0.0011025	0.0012797	1374.8	381.78	0.001108	0.0012693	503.54	202.36	151.19	54.351	0.0012044	96.555	233.873	261.480	262.034	126.635	473.872	225.612	126.908	132.100	132.755	464.147	131.466	136.631	137.571	140.486	411.424	139.754	-8191	255	
2145.404	1	1	0	0	0.12425	0.174	0.038552	0.40591	0.15116	0.24853	0.27251	0.046384	0.15815	0.080503	0.21367	0.27694	0.15329	0.22788	0.25359	0.18757	-1.9333	-2.5521	-2.7042	-2.7521	-2.8896	-2.55	-2.5875	-2.8812	-2.5833	-2.775	-3.0104	-2.4188	-2.7687	-2.6875	-2.5687	-2.9875	193.259	246.021	123.334	452.815	266.593	314.699	396.031	341.526	171.799	155.096	122.715	469.987	123.201	390.880	231.925	443.218	0.00072286	0.0026482	0.00038209	1041.1	1.3778e-05	2.694e-05	1086.8	262.58	3.9835e-05	2.5617e-05	346.42	151.68	89.739	36.23	2.077e-05	72.916	0.059848	0.11734	0.03274	1345	0.0011448	0.0013384	1395.4	388.47	0.0011494	0.0013206	513.44	204.7	153.19	54.918	0.0012061	97.201	243.537	464.566	254.387	126.993	395.227	146.841	126.576	132.295	293.080	153.500	131.545	136.935	137.615	140.177	332.629	140.250	-8191	255	
2145.524	1	1	0	0	0.14981	0.10753	0.20117	0.45793	0.1057	0.19641	0.1597	0.12246	0.14278	0.18546	0.098353	0.37461	0.13857	0.22297	0.15064	0.17948	-1.9042	-2.6083	-2.6917	-2.5771	-2.8604	-2.6917	-2.5583	-2.9292	-2.3812	-2.7021	-2.8375	-2.4667	-2.9708	-2.5312	-2.4042	-3.0333	257.230	384.510	272.371	429.386	334.087	251.953	469.895	390.407	184.689	193.150	231.476	441.106	404.674	415.798	364.909	467.693	0.00044514	0.0012929	0.00072045	1047.1	2.0676e-05	2.677e-05	1100.8	264.55	1.9328e-05	1.8609e-05	348.96	151.83	91.619	36.176	1.4084e-05	73.046	0.058601	0.11571	0.032098	1341	0.001116	0.0013117	1398.7	388.82	0.0011441	0.0013311	518.38	207.1	156.23	55.892	0.0012436	98.338	294.922	315.604	255.947	126.813	332.102	151.852	126.544	132.483	227.583	226.277	131.899	136.550	137.307	140.814	138.161	140.136	-8191	255	
2145.620	1	1	0	0	0.18894	0.21638	0.06964	0.036763	0.09396	0.06159	0.37371	0.091069	0.20803	0.10701	0.1543	0.25276	0.30487	0.29673	0.25513	0.16917	-2.1521	-2.4583	-2.7812	-2.7104	-2.8646	-2.7229	-2.575	-2.8375	-2.4896	-2.6479	-3.0875	-2.8146	-2.6771	-2.7146	-2.3667	-2.9375	439.205	171.874	211.136	353.424	390.330	221.852	372.416	194.231	412.543	244.677	431.098	147.952	396.348	469.838	200.703	360.221	0.00076128	0.0025602	0.00075889	1051.2	1.6301e-05	8.2366e-05	1099.3	264.69	3.1851e-05	1.7337e-05	346.87	151.59	90.446	36.253	3.9629e-05	73.054	0.06188	0.1222	0.033796	1363.1	0.0011733	0.001367	1407.3	390.45	0.0011616	0.0013458	516.37	206.67	155.85	56.032	0.0012584	98.321	250.509	210.099	201.016	126.943	245.218	198.529	126.514	132.257	261.328	267.583	131.695	136.809	137.546	140.981	386.517	139.808	-8191	255	
2145.715	1	1	0	0	0.12018	0.14128	0.25285	0.11578	0.10967	0.20405	0.26544	0.11451	0.30635	0.10219	0.066684	0.12479	0.067203	0.24504	0.24422	0.076414	-2.0667	-2.4333	-2.6771	-2.6583	-2.6896	-2.9292	-2.5062	-2.925	-2.7396	-2.4021	-2.8521	-2.7729	-2.7792	-2.9479	-2.4896	-2.9021	464.303	404.222	254.961	473.540	408.924	379.883	413.893	389.115	174.410	251.625	135.658	398.092	183.359	449.039	166.663	390.874	0.00076777	0.0038053	0.00030193	1046	3.6135e-05	2.9666e-05	1100.2	265.1	2.3993e-05	1.497e-05	344.97	151.53	91.42	36.049	4.7678e-05	72.722	0.061943	0.12311	0.034089	1366.1	0.0012066	0.0014189	1427.9	399.97	0.0012511	0.0014516	533.25	211.63	161.93	57.574	0.0013542	100.5	254.387	302.104	150.663	127.092	140.108	307.926	126.477	132.008	289.838	150.696	131.718	136.691	137.560	140.873	209.798	139.990	-8191	255	
2145.811	1	1	0	0	0.074955	0.28778	0.21795	0.34453	0.018675	0.048038	0.15716	0.090903	0.22991	0.21465	0.097265	0.15757	0.25023	0.14142	0.021601	0.10881	-2.3458	-2.5208	-2.7771	-2.7417	-2.5604	-2.8792	-2.7167	-2.7687	-2.7833	-2.5708	-2.9604	-2.6125	-2.8021	-2.9917	-2.4604	-2.9125	349.390	394.360	206.067	357.443	346.976	367.750	124.321	276.447	443.540	153.840	365.876	444.645	423.270	276.013	141.422	296.576	0.0006303	0.003069	0.00030255	1053.8	5.9834e-06	1.5988e-05	1109.6	265.75	1.4767e-05	5.9192e-05	347.46	151.85	91.511	36.255	3.106e-05	72.063	0.067261	0.13318	0.036748	1396.5	0.0012864	0.0014993	1446	405.24	0.001288	0.0014824	538.01	214.07	164.22	58.394	0.0013874	101.81	260.856	180.552	130.198	126.805	303.957	310.208	126.530	132.344	415.306	449.280	131.678	136.468	137.949	140.479	436.774	140.146	-8191	255	
2145.932	1	1	0	0	0.093928	0.26782	0.23359	0.16437	0.34866	0.060663	0.35469	0.096866	0.19327	0.18605	0.11073	0.2608	0.23068	0.10289	0.13741	0.2536	-2.3271	-2.1979	-2.7583	-2.8604	-2.5312	-3.0146	-2.8125	-2.9833	-2.7396	-2.3167	-2.8167	-2.6542	-2.5104	-3.05	-2.45	-2.9729	279.836	352.597	366.849	434.504	293.117	377.360	463.246	423.116	421.800	378.163	275.783	417.041	414.499	127.259	426.424	405.603	0.0007386	0.0016482	0.00016657	1058.9	2.4879e-05	1.5733e-05	1104.8	268.67	2.7763e-05	1.3468e-05	348.19	152.18	90.638	36.219	1.9816e-05	72.616	0.069607	0.13769	0.038109	1418.2	0.0013593	0.0015867	1471.3	417.2	0.0013727	0.0015764	550.27	218.08	167.97	59.251	0.001419	102.07	240.355	150.714	232.804	126.661	264.175	280.898	126.787	132.574	222.595	377.478	130.877	136.520	137.498	140.932	204.554	139.820	-8191	255	
2146.003	1	1	0	0	0.056561	0.16016	0.12582	0.18172	0.089415	0.17792	0.24392	0.32919	0.14082	0.14528	0.15309	0.38515	0.27342	0.19275	0.07732	0.097362	-2.2979	-2.4417	-2.8917	-2.7833	-2.6521	-3.125	-2.6021	-2.7833	-2.875	-2.5917	-3.0083	-2.6813	-2.6375	-3.0187	-2.6	-2.9333	276.318	220.244	261.752	466.652	322.801	406.697	424.464	337.772	295.868	341.394	207.176	134.103	130.464	409.801	258.691	327.979	0.0010377	0.0014045	0.00083565	1056.5	2.1252e-05	1.5702e-05	1093.6	264.23	3.3733e-05	4.7878e-05	342.79	150.32	90.388	36.01	2.6943e-05	72.203	0.069929	0.1363	0.037409	1403.4	0.0012968	0.0014915	1437	404.24	0.0012764	0.0014549	530.74	211.32	161.42	57.251	0.0013175	99.83	250.043	238.974	387.591	127.160	301.562	349.099	126.843	132.135	318.126	305.286	131.959	136.837	137.256	140.701	165.972	139.805	-8191	255	
2146.099	1	1	0	0	0.16412	0.24724	0.21038	0.23808	0.24753	0.10175	0.20152	0.072103	0.12137	0.2331	0.14553	0.32436	0.28387	0.2684	0.18594	0.16004	-2.5229	-2.3167	-2.7625	-2.8063	-2.3896	-2.9458	-2.7104	-2.6833	-2.8042	-2.6854	-2.8854	-2.8917	-2.5146	-2.9188	-2.8333	-2.7708	366.752	157.370	424.058	397.395	430.576	419.413	362.139	346.163	433.386	340.098	203.558	410.247	258.537	123.256	466.227	373.129	0.00089762	0.0024993	0.00082101	1037.5	3.6905e-06	2.9589e-05	1094.1	263.72	1.7816e-05	1.7919e-05	343.86	151.07	89.747	35.626	4.1189e-05	71.91	0.065474	0.12787	0.035494	1374	0.0012459	0.001453	1422	400.76	0.0012536	0.0014372	528.79	211.14	160.72	56.865	0.0013307	100.19	243.029	466.013	449.849	126.921	165.222	303.950	126.725	132.331	376.880	136.238	131.567	136.598	137.321	140.782	175.662	139.502	-8191	255	
2146.196	1	1	0	0	0.099283	0.15497	0.087072	0.27315	0.16416	0.065201	0.045983	0.11688	0.13626	0.064027	0.24132	0.084439	0.1676	0.36771	0.072801	0.36249	-2.5208	-2.4854	-2.7917	-2.8542	-2.4917	-2.8563	-2.8333	-2.6396	-2.9833	-2.6188	-2.6937	-2.8104	-2.3438	-2.8583	-2.5979	-2.7125	210.268	264.591	449.385	472.973	276.784	451.249	421.003	330.886	406.111	146.695	141.827	322.116	404.999	408.701	421.944	399.741	0.00045825	0.0029559	0.0010678	1035.2	3.1846e-06	1.5425e-05	1082.5	261.12	1.4131e-05	2.6594e-05	343.83	150.85	89.766	35.707	2.6898e-05	72.307	0.067123	0.13209	0.036701	1387.9	0.0012844	0.0014796	1429.7	404.22	0.0012911	0.0014843	537	214.09	162.7	57.376	0.0013638	100.79	190.108	462.053	134.612	126.734	268.866	348.620	126.524	132.273	267.271	190.511	131.437	136.950	137.267	140.630	442.328	139.999	-8191	255	
2146.316	1	1	0	0	0.0023246	0.26044	0.21104	0.079867	0.2628	0.1531	0.25716	0.092831	0.048207	0.21653	0.30081	0.20494	0.11856	0.096452	0.22177	0.48642	-2.3521	-2.4688	-2.5833	-2.8	-2.275	-2.7479	-2.8708	-2.6146	-2.7146	-2.575	-2.7313	-2.9396	-2.4688	-2.7979	-2.8604	-2.5125	180.000	257.325	418.528	193.788	245.344	263.369	419.816	146.665	441.939	159.207	423.410	366.788	360.553	466.178	318.209	410.585	0.0011969	0.00092925	0.000852	1042	2.0458e-05	2.4076e-05	1088.9	262.75	1.3584e-05	4.4894e-05	347.11	151.33	89.423	35.916	1.8811e-05	72.112	0.067018	0.13184	0.03637	1385.5	0.0012616	0.0014658	1431.7	403.34	0.0012713	0.0014689	538.6	214.31	163.22	57.735	0.0013724	101.36	259.780	243.221	436.362	126.771	344.145	348.339	126.720	132.523	337.462	430.095	131.431	136.833	137.731	140.018	220.980	139.681	-8191	255	
2146.412	1	1	0	0	0.35514	0.28235	0.14809	0.18031	0.037994	0.20994	0.2034	0.10307	0.12255	0.25897	0.19998	0.17096	0.08561	0.26322	0.14057	0.086379	-2.4625	-2.6083	-2.6833	-3.0479	-2.5021	-2.9208	-3.0396	-2.2708	-2.8896	-2.5146	-2.5646	-3.0396	-2.7042	-2.8438	-2.7583	-2.6562	151.224	325.088	200.168	311.479	216.981	367.860	125.099	147.676	390.733	354.792	180.375	324.407	147.880	409.548	253.956	247.038	0.00058234	0.0023448	0.00087624	1036.9	2.9264e-06	2.288e-05	1088.7	262.7	1.5679e-05	2.7567e-05	344.68	150.24	89.48	35.52	8.6959e-06	71.866	0.067989	0.13411	0.037253	1394.2	0.0013006	0.0015171	1442.9	407.35	0.0013071	0.001506	538.75	213.2	162.96	57.713	0.0013819	101	255.999	328.981	306.967	126.735	235.896	250.806	126.476	132.871	443.719	257.759	131.167	136.785	136.935	140.390	332.489	139.657	-8191	255	
2146.509	1	1	0	0	0.028985	0.30122	0.11703	0.043736	0.13779	0.12408	0.25716	0.29958	0.38976	0.24323	0.34416	0.19956	0.18391	0.20088	0.23829	0.20898	-2.5708	-2.5917	-2.5646	-3.05	-2.6104	-2.8042	-2.9729	-2.5542	-2.9667	-2.7833	-2.7188	-3.1729	-2.7458	-2.6562	-2.9042	-2.8979	421.345	299.021	224.732	119.581	176.118	347.647	450.897	306.047	173.194	167.898	409.271	264.719	429.722	473.079	134.181	136.263	0.0010985	0.0029035	0.00088413	1037.5	3.7789e-05	4.1879e-05	1082	263.57	1.6599e-05	3.3318e-05	338.46	149.94	88.713	35.723	2.0312e-05	72.259	0.068403	0.135	0.037826	1398	0.0013177	0.0015441	1447.1	411.41	0.0013455	0.0015623	545.98	216.25	166.93	59.042	0.001451	102.16	265.676	224.795	388.066	127.108	416.607	149.659	126.928	132.979	386.794	257.980	131.273	137.163	137.218	140.556	250.907	140.013	-8191	255	
2146.605	1	1	0	0	0.21869	0.14356	0.31149	0.14386	0.080502	0.16287	0.25329	0.31916	0.13715	0.27995	0.15445	0.37388	0.25805	0.12395	0.22315	0.012715	-2.4979	-2.7104	-2.6167	-2.9896	-2.4354	-2.7021	-3.0146	-2.4729	-2.5875	-2.8479	-2.6562	-3.0021	-2.7229	-2.5583	-2.9104	-2.5271	219.575	260.666	284.157	154.188	279.137	225.486	382.375	413.820	275.357	416.352	198.967	419.764	422.587	397.174	461.664	150.587	0.00053818	0.0018095	0.00083594	1037.5	3.9426e-05	4.3599e-05	1084	264.55	3.9886e-05	3.4438e-05	346.52	151.54	90.431	35.862	1.8011e-05	72.551	0.070922	0.14013	0.038757	1390.1	0.001307	0.0015339	1446.3	409.12	0.0013088	0.0014931	537.83	212.96	162.63	57.593	0.0013615	100.74	274.574	462.720	117.200	126.827	281.235	265.758	126.848	132.169	296.411	161.327	131.937	136.532	137.751	140.669	385.361	140.224	-8191	255	
2146.701	1	1	0	0	0.10467	0.10913	0.29274	0.10792	0.23558	0.19874	0.22877	0.30848	0.18931	0.24316	0.086353	0.22694	0.014332	0.20096	0.21035	0.20563	-2.45	-2.7208	-2.3521	-2.9396	-2.8187	-2.6833	-3.025	-2.5271	-2.8292	-2.7167	-2.5312	-3.0042	-2.6375	-2.6063	-3	-2.7229	230.204	139.746	223.558	143.925	355.952	147.885	327.329	384.345	416.790	305.338	297.557	148.808	437.949	315.491	148.667	155.142	0.00084383	0.0022724	0.00040453	1041.9	3.3644e-05	4.7882e-05	1091.7	262.96	1.5254e-05	3.0736e-05	347.9	152.07	91.343	36.307	2.5772e-05	72.82	0.066799	0.13251	0.036798	1389.6	0.0012814	0.0014987	1441	404.88	0.0012851	0.0014863	540.32	214.58	163.63	58.086	0.0013853	101.76	254.598	321.728	147.486	126.748	372.983	363.274	126.779	132.193	343.471	344.076	131.483	136.578	137.354	140.699	415.276	139.727	-8191	255	
2146.797	1	1	0	0	0.12103	0.22362	0.23665	0.025567	0.23453	0.19143	0.1693	0.058837	0.15264	0.10208	0.2128	0.36016	0.22568	0.34889	0.18307	0.31154	-2.2812	-2.8625	-2.5146	-3.0021	-2.7854	-2.3458	-3.1792	-2.7458	-2.6312	-2.8187	-2.6292	-2.8229	-2.875	-2.3458	-3.0042	-2.5396	147.250	460.204	414.793	340.867	386.773	236.927	332.233	395.075	471.418	428.608	430.289	374.784	176.643	472.933	379.619	445.731	0.00062496	0.0018948	0.00059224	1042	2.1813e-05	3.0219e-05	1082.9	264.2	3.0401e-05	1.9612e-05	344.51	151.52	90.508	35.985	9.928e-06	72.121	0.068624	0.13613	0.037708	1402.2	0.0013221	0.0015485	1451.1	411.88	0.0013454	0.0015603	547.56	216.89	168.28	59.424	0.0014529	102.67	248.556	373.922	225.745	126.859	375.966	264.549	126.591	132.377	301.122	432.928	131.944	136.780	137.419	140.406	317.913	140.170	-8191	255	
2146.916	1	1	0	0	0.1755	0.24816	0.28348	0.12096	0.17969	0.16607	0.30538	0.053215	0.16921	0.12612	0.058972	0.29905	0.077291	0.24789	0.14897	0.26799	-2.1708	-2.7917	-2.5104	-2.7438	-2.7	-2.2812	-2.9646	-2.6917	-2.6104	-2.9875	-2.5604	-2.8063	-2.9375	-2.6063	-2.9062	-2.6771	405.709	346.725	313.297	374.955	207.398	366.251	374.685	411.858	139.875	384.633	117.113	417.542	377.904	419.061	212.011	380.950	0.00066999	0.0038718	0.00028604	1050.1	1.4352e-05	3.5853e-05	1086.1	264.75	9.8566e-06	9.9583e-06	345.61	151.46	90.481	36.449	3.4174e-05	71.945	0.071524	0.14075	0.038795	1412.1	0.0013513	0.0015705	1454.8	414.62	0.0013699	0.0015835	550.69	218.25	170.32	60.274	0.001491	103.66	258.859	132.026	118.332	127.008	396.121	127.604	126.675	132.490	221.253	358.418	131.393	136.978	137.613	140.837	233.914	139.730	-8191	255	
2147.012	1	1	0	0	0.15994	0.0303	0.1523	0.050569	0.098085	0.29259	0.22787	0.31395	0.20009	0.14734	0.092908	0.10678	0.39488	0.17429	0.17342	0.19972	-1.9208	-2.7583	-2.5812	-2.8708	-2.7479	-2.5625	-3.1229	-2.6833	-2.5104	-3.0229	-2.7917	-2.9396	-2.7687	-2.4854	-2.7521	-2.8729	405.938	238.410	195.381	297.572	274.496	352.307	449.942	430.943	323.657	371.618	363.139	331.286	434.161	376.889	332.381	376.357	0.00065162	0.0028656	0.000923	1039.1	7.367e-06	3.118e-05	1085.9	263.26	2.4009e-05	1.3159e-05	345.75	150.5	89.399	36.272	4.2173e-05	72.272	0.073708	0.14484	0.040019	1431	0.0014111	0.0016499	1477.1	422.88	0.0014331	0.0016517	559.92	220.69	172.4	60.541	0.0015163	104.32	227.014	333.056	182.927	126.530	175.676	183.856	126.916	132.261	373.526	328.793	131.471	136.541	137.847	140.505	250.429	139.821	-8191	255	
2147.108	1	1	0	0	0.23509	0.26399	0.14158	0.10471	0.16206	0.076926	0.11963	0.077469	0.17055	0.16374	0.039181	0.060713	0.32363	0.21184	0.23868	0.25302	-2.1375	-2.8958	-2.4271	-2.8187	-2.9021	-2.4354	-2.7562	-2.8708	-2.525	-2.8583	-2.7479	-2.5833	-2.8833	-2.6479	-2.6688	-2.7146	192.991	265.244	356.103	438.404	324.237	292.201	411.132	118.707	326.734	430.891	404.908	432.407	438.714	352.684	311.153	397.755	0.00063885	0.00064973	0.0011132	1043.8	2.5251e-05	3.9569e-05	1088.1	265.79	2.8632e-05	5.0147e-05	346.82	152.81	92.087	36.538	9.2787e-06	72.509	0.074842	0.14684	0.040373	1434.9	0.0014116	0.0016299	1475.5	421.74	0.0014024	0.0016124	556.38	221.04	171.72	60.378	0.001502	104.43	238.184	328.567	241.823	126.590	167.029	307.390	126.379	132.288	383.138	353.077	131.666	136.699	137.446	141.114	341.812	139.821	-8191	255	
2147.229	1	1	0	0	0.16888	0.17458	0.27215	0.22109	0.085976	0.1431	0.14133	0.35618	0.16474	0.0061245	0.19935	0.11317	0.18475	0.14443	0.19866	0.11557	-2.1229	-2.5312	-2.4479	-2.9708	-2.8646	-2.5104	-2.8208	-2.9417	-2.5271	-2.9146	-2.6854	-2.6167	-2.8792	-2.3646	-2.5771	-2.9083	300.238	124.771	447.193	459.018	348.345	415.581	432.649	418.147	288.018	360.697	408.235	360.644	306.430	354.569	447.684	344.298	0.00081621	0.00052673	0.00074903	1044.9	2.2323e-05	3.0851e-05	1089.7	264.3	2.6737e-05	6.3462e-06	343.88	150.21	90.313	36.545	2.058e-05	72.099	0.074593	0.14533	0.040009	1432.2	0.0014003	0.0016188	1468.9	419.69	0.0013988	0.0015941	549.76	217.24	168.14	59.116	0.0014203	101.8	275.220	308.517	132.514	126.954	375.688	203.582	126.914	132.189	307.955	117.366	131.615	136.747	137.195	140.903	150.640	139.776	-8191	255	
2147.300	1	1	0	0	0.26915	0.15554	0.13287	0.21784	0.035959	0.070571	0.2353	0.09079	0.038111	0.029723	0.1424	0.10953	0.19671	0.14719	0.12925	0.2649	-2.05	-2.7062	-2.75	-2.5292	-2.9375	-2.6458	-2.7	-2.9417	-2.3708	-2.8708	-2.6771	-2.6479	-3.0417	-2.6146	-2.6979	-3.0167	179.146	273.666	206.961	452.945	470.330	296.067	123.854	393.725	275.383	461.942	386.537	119.586	409.297	419.194	378.203	440.317	0.0008361	0.0014385	0.00065049	1050.7	2.8012e-05	3.4085e-05	1094.3	267	6.2196e-06	5.7381e-05	344.44	149.89	91.312	36.261	1.5166e-05	72.068	0.069399	0.13529	0.037411	1403.5	0.001302	0.001514	1446.7	413.68	0.0013294	0.001531	545.58	216.51	168.27	59.495	0.0014598	103.17	250.785	442.403	467.526	126.793	420.249	450.045	126.549	132.368	118.739	371.863	131.651	136.471	137.073	140.535	448.374	139.757	-8191	255	
2147.397	1	1	0	0	0.059437	0.16665	0.11492	0.19818	0.15396	0.17465	0.34285	0.078986	0.098922	0.20265	0.045528	0.32235	0.29816	0.2048	0.13876	0.26598	-2.0187	-2.7562	-2.5812	-2.7	-2.8354	-2.6771	-2.8875	-3.0354	-2.5583	-2.8333	-2.9667	-2.4604	-2.8917	-2.7458	-2.5917	-2.8646	352.843	337.009	280.314	416.932	290.172	374.579	452.349	456.952	246.615	263.635	435.804	406.635	292.520	233.346	201.783	454.562	0.0010205	0.005463	0.00026764	1044.1	5.5057e-05	1.648e-05	1085.8	264.4	1.3745e-05	3.0428e-05	344.03	149.89	89.643	36.244	1.2407e-05	71.679	0.073337	0.14514	0.040668	1444.2	0.0014392	0.0016966	1497.6	430.1	0.0014792	0.0017058	568.03	222.89	174.2	61.26	0.0015579	105.19	262.614	205.215	213.653	126.570	312.759	209.100	126.422	132.384	328.353	428.071	131.387	136.994	137.045	140.509	285.305	139.338	-8191	255	
2147.493	1	1	0	0	0.30389	0.14227	0.1151	0.17499	0.20129	0.18614	0.13207	0.024237	0.09697	0.19994	0.12718	0.34645	0.21751	0.21779	0.11993	0.21177	-2.1042	-2.8	-2.7417	-2.6146	-2.7771	-2.7396	-2.6729	-3.1625	-2.6042	-2.5979	-2.8667	-2.5812	-2.8854	-2.6063	-2.5812	-3.0271	378.865	133.521	289.138	427.966	421.355	224.876	450.304	442.750	347.338	427.382	120.890	360.950	459.464	388.211	416.845	456.166	0.00078281	0.00073837	0.00032207	1044.5	3.4074e-05	4.3775e-05	1084.3	266.71	6.4923e-06	1.47e-05	345.99	150.52	91.507	36.266	1.1484e-05	71.812	0.076704	0.15135	0.042009	1447.9	0.0014562	0.001702	1497.6	431.03	0.0014846	0.0017208	574.03	225.26	176.97	61.854	0.0015842	105.44	230.775	168.037	117.344	126.614	218.888	239.354	126.711	132.376	371.578	403.590	131.969	136.333	136.902	139.824	258.476	139.166	-8191	255	
2147.612	1	1	0	0	0.25398	0.30481	0.20032	0.11645	0.2786	0.17199	0.097642	0.12772	0.33437	0.073072	0.095968	0.21367	0.32248	0.10944	0.2077	0.11196	-2.0729	-2.5042	-2.85	-2.5708	-2.7667	-2.7354	-2.6417	-2.8458	-2.4542	-2.7521	-2.8646	-2.3375	-2.6771	-2.7229	-2.5708	-3.1063	286.661	454.414	159.920	373.409	363.686	437.292	386.087	360.876	354.932	238.319	250.767	448.444	187.069	426.356	418.283	328.266	0.0010187	0.0040806	0.00042616	1039	4.7754e-05	2.1185e-05	1073	263.88	1.3157e-05	4.058e-05	341.67	148.53	89.734	36.078	2.0868e-05	71.232	0.076357	0.14963	0.041176	1437.7	0.0014143	0.0016435	1473.8	421.27	0.001399	0.0016133	553.67	217.59	169.4	59.655	0.0014604	102.06	265.618	137.678	146.454	126.823	354.929	169.402	127.036	132.311	219.467	350.337	131.442	136.715	137.535	140.133	445.564	139.810	-8191	255	
2147.708	1	1	0	0	0.29005	0.10989	0.11832	0.10885	0.1541	0.20587	0.24264	0.16102	0.11694	0.1795	0.24409	0.34218	0.10447	0.0078856	0.1264	0.19953	-2.0708	-2.5375	-2.9125	-2.6458	-2.8708	-2.7479	-2.6437	-3.0833	-2.625	-2.5854	-2.9354	-2.7229	-2.9146	-2.825	-2.7125	-3.0687	437.615	136.947	457.058	152.147	136.708	162.450	441.178	450.267	449.712	259.440	141.808	428.341	415.744	349.792	327.575	419.389	0.00085458	0.0010516	0.00019979	1040.3	2.7882e-05	2.528e-05	1078.5	263.63	2.9225e-05	7.9878e-06	344.12	150.28	90.256	35.845	2.7804e-05	71.462	0.070909	0.14011	0.038695	1414.5	0.0013496	0.0015799	1457.5	416.33	0.0013696	0.0015809	550.08	216.59	167.99	59.154	0.0014214	101.7	235.889	203.962	384.552	126.564	276.241	280.134	126.791	132.224	250.936	162.811	131.401	136.463	137.136	141.180	431.058	139.651	-8191	255	
2147.804	1	1	0	0	0.1299	0.26966	0.33635	0.096797	0.14586	0.10571	0.35621	0.16315	0.19913	0.1292	0.21656	0.35036	0.16274	0.07259	0.22836	0.19461	-2.2125	-2.4417	-2.9	-2.6542	-2.5812	-2.7708	-2.6479	-3.0333	-2.5563	-2.3542	-2.9062	-2.6333	-2.6813	-3.0208	-2.5396	-2.9938	354.853	460.220	184.188	123.763	142.130	188.400	457.786	324.591	292.367	452.955	174.246	435.501	274.873	246.778	281.707	415.265	0.00098929	0.0017522	0.00054297	1045.7	9.6649e-06	4.3159e-06	1090.5	265.12	1.7372e-05	1.37e-05	344.28	150.53	91.25	36.161	1.5221e-05	71.409	0.070377	0.13905	0.03844	1412.3	0.0013496	0.0015872	1465.3	417.5	0.0013762	0.0015887	551.35	217.73	168.85	59.528	0.0014548	102.72	252.260	210.558	312.377	126.898	183.306	161.146	126.624	132.289	270.677	142.319	131.557	136.695	136.588	140.752	353.030	139.446	-8191	255	
2147.877	1	1	0	0	0.18413	0.36095	0.21777	0.083766	0.14082	0.17673	0.32213	0.079351	0.35769	0.1599	0.13958	0.088613	0.15948	0.04637	0.33538	0.17821	-2.2729	-2.4479	-2.8521	-2.6646	-2.6333	-2.6917	-2.6562	-2.8708	-2.7146	-2.5354	-2.8917	-2.7042	-2.5542	-2.9292	-2.5146	-2.8625	167.015	243.046	289.214	353.961	234.519	411.359	442.506	350.309	396.147	214.324	125.752	444.418	267.310	348.856	267.048	464.551	0.00085677	0.00013357	0.00082688	1045.4	2.9179e-05	1.635e-05	1091.8	266.92	3.4553e-05	2.2356e-05	347.11	152.56	91.236	36.627	3.3184e-05	72.738	0.072298	0.14258	0.03928	1427.3	0.0013743	0.0016024	1468.5	419.11	0.00137	0.001574	551.34	218.34	168.57	59.486	0.0014274	102.77	245.947	342.014	212.567	126.524	262.531	173.980	126.645	132.524	262.085	218.525	131.539	136.533	137.393	140.659	245.527	140.308	-8191	255	
2147.996	1	1	0	0	0.19777	0.21011	0.20087	0.30057	0.1237	0.22807	0.32322	0.33296	0.19036	0.30532	0.13856	0.17326	0.11483	0.24549	0.025596	0.019682	-2.4125	-2.1708	-2.9313	-2.6771	-2.5646	-3.0312	-2.8021	-2.8333	-2.8104	-2.4437	-2.9833	-2.8979	-2.5083	-3.0521	-2.5792	-2.7812	408.332	443.762	426.679	459.327	116.676	340.623	384.644	388.675	425.892	433.383	474.534	433.001	144.219	173.977	186.627	187.035	0.0011666	0.0054294	0.0001788	1052.4	1.8998e-06	1.8721e-05	1091.9	267.76	2.7218e-05	5.9405e-06	346.3	151.12	91.326	36.325	2.7527e-05	72.116	0.070656	0.14	0.038412	1420.6	0.0013519	0.0015761	1464.3	417.6	0.0013581	0.0015663	548.64	217.17	168.96	59.77	0.0014461	102.66	264.148	392.554	270.510	126.398	323.647	311.043	126.582	132.783	264.301	274.829	131.364	136.856	137.424	140.806	327.285	139.927	-8191	255	
2148.092	1	1	0	0	0.3077	0.11532	0.23274	0.20274	0.12992	0.21394	0.27182	0.028326	0.16816	0.24399	0.50404	0.29343	0.32712	0.050506	0.20014	0.24153	-2.3625	-2.4125	-2.825	-2.8375	-2.5271	-3.0771	-2.8146	-2.7771	-2.8958	-2.3521	-3.0146	-2.7542	-2.5979	-2.9	-2.7562	-2.6833	373.386	353.021	199.497	443.333	424.303	432.812	409.986	380.795	319.567	133.594	379.385	202.024	152.296	410.377	416.280	421.720	0.00071584	0.001057	0.00090436	1053.9	3.6345e-05	3.9374e-05	1087	266.29	4.2699e-05	2.4864e-05	345.5	151.63	91.186	36.713	2.8346e-05	71.522	0.071275	0.13897	0.038369	1414.8	0.001335	0.0015429	1448.6	412.9	0.0013273	0.0015142	538.79	214.29	165.12	58.279	0.0013695	100.51	268.089	176.977	438.981	126.494	151.669	192.083	126.654	132.746	248.802	354.247	131.275	136.569	137.240	140.975	306.806	139.646	-8191	255	
2148.189	1	1	0	0	0.079786	0.10299	0.2622	0.31291	0.10127	0.087913	0.030517	0.098575	0.054655	0.13553	0.31068	0.37719	0.30897	0.19727	0.14187	0.21231	-2.4271	-2.4396	-2.6583	-3.0312	-2.4896	-2.9021	-2.6979	-2.8229	-2.8937	-2.6688	-2.8542	-2.6875	-2.3854	-2.8875	-2.7021	-2.8229	349.363	254.489	167.972	397.909	429.417	201.382	457.123	391.831	324.206	273.514	447.821	414.090	444.268	382.373	470.480	220.951	0.00053207	0.0028846	0.00021333	1046.6	1.7502e-05	2.4775e-05	1087.2	264.96	3.0839e-05	1.157e-05	346.24	150.67	90.358	35.942	9.357e-06	71.818	0.067317	0.13195	0.036365	1391.5	0.0012838	0.001493	1433.7	408.84	0.0013063	0.0014966	537.37	213.57	164.51	57.953	0.0013821	100.69	229.125	409.347	228.558	126.905	164.140	288.333	126.669	132.310	229.175	182.149	131.533	136.636	138.048	140.632	144.808	139.589	-8191	255	
2148.309	1	1	0	0	0.18983	0.11142	0.25454	0.15266	0.22906	0.27626	0.29203	0.125	0.24313	0.29422	0.22791	0.28109	0.15849	0.37411	0.15463	0.065224	-2.3688	-2.5042	-2.6854	-2.9854	-2.3937	-3.05	-2.7833	-2.6813	-2.8667	-2.7479	-2.9833	-2.9708	-2.4938	-2.7896	-2.6354	-2.5687	151.484	374.925	183.151	151.417	414.538	455.537	459.738	419.545	273.747	400.663	415.076	443.170	446.027	115.358	148.774	422.926	0.00105	0.0032268	0.00039957	1044.4	1.0399e-05	2.9563e-05	1086	265.16	4.2224e-05	4.6932e-05	343.84	151.19	91.103	35.848	1.7321e-05	71.416	0.069023	0.13546	0.037698	1403.3	0.001334	0.0015572	1452.6	415.96	0.0013777	0.0016002	552.65	219.59	170.36	59.486	0.0014776	102.47	241.417	449.039	412.130	126.869	318.839	178.436	126.750	132.407	192.011	207.349	131.590	136.735	137.610	141.051	319.689	139.862	-8191	255	
2148.405	1	1	0	0	0.22521	0.18979	0.03295	0.14767	0.10367	0.11477	0.42407	0.18724	0.059847	0.20608	0.13269	0.50431	0.26944	0.17542	0.037029	0.16541	-2.4208	-2.5208	-2.7188	-2.9	-2.2167	-2.8646	-2.6188	-2.4792	-2.9688	-2.6292	-2.7021	-3.0354	-2.575	-2.7979	-2.6625	-2.5042	219.403	463.950	263.290	473.259	337.846	414.801	381.000	123.967	246.535	213.417	360.146	443.546	445.054	278.267	228.757	455.273	0.001027	0.00095324	8.75e-05	1039.6	3.6751e-05	1.2643e-05	1080.1	263.51	1.9807e-05	5.893e-05	338.12	148.24	88.991	35.239	2.9313e-05	70.247	0.072317	0.14127	0.039031	1413.2	0.0013641	0.0015938	1451.4	415.99	0.0013827	0.0015873	544.43	215.29	167.13	58.495	0.0014482	100.54	274.955	436.839	455.165	126.721	300.573	330.856	126.766	132.460	392.497	433.378	131.589	136.543	137.459	140.513	184.631	139.778	-8191	255	
2148.501	1	1	0	0	0.1084	0.065292	0.067735	0.19839	0.090257	0.18932	0.14131	0.15172	0.19138	0.19244	0.077819	0.23934	0.26722	0.14422	0.061605	0.17575	-2.6	-2.5042	-2.6792	-2.9896	-2.8042	-2.6917	-2.8042	-2.4125	-3.0938	-2.6729	-2.7229	-2.8937	-2.5375	-2.7854	-2.8292	-2.6354	139.082	377.040	294.824	380.944	197.272	342.916	332.417	255.685	427.563	195.246	380.900	407.200	426.574	365.795	327.511	464.553	0.00071084	0.0023433	0.0010842	1034.6	9.8252e-06	3.0427e-06	1065	263.4	2.0718e-05	2.9705e-05	338.04	146.82	89.087	35.153	1.4696e-05	69.777	0.071168	0.14007	0.0389	1405.9	0.0013547	0.0015714	1436.6	410.42	0.0013465	0.001547	538.62	212.4	165.07	57.895	0.0014279	99.629	279.791	438.698	190.488	127.012	411.420	250.088	126.735	132.367	145.341	376.195	131.401	136.416	137.170	140.799	385.014	139.630	-8191	255	
2148.598	1	1	0	0	0.21586	0.27128	0.10302	0.1781	0.10664	0.10776	0.11848	0.0192	0.32471	0.13886	0.1751	0.066232	0.1861	0.06353	0.21046	0.14174	-2.425	-2.5229	-2.4979	-2.9542	-2.5021	-2.575	-2.9792	-2.5542	-2.7917	-2.7167	-2.6979	-3.0312	-2.5625	-2.7625	-2.825	-2.4	214.021	156.381	368.153	404.403	333.103	383.617	357.157	455.603	255.501	426.670	250.045	167.891	223.311	341.414	119.902	417.796	0.0007289	0.0044962	0.0011952	1032.4	3.5896e-05	1.4704e-05	1065	261.93	9.7965e-06	2.498e-05	335.78	147.27	88.789	35.397	3.6407e-05	69.794	0.069645	0.1369	0.037587	1387.6	0.0012991	0.0014981	1413.6	402.05	0.0012699	0.0014493	524.31	207.02	158.27	55.979	0.001295	96.833	246.848	203.260	314.103	126.630	266.394	198.476	126.770	132.581	363.263	362.329	131.405	136.743	137.425	140.974	166.720	139.934	-8191	255	
2148.694	1	1	0	0	0.17329	0.076561	0.24798	0.16629	0.17487	0.15959	0.077328	0.15753	0.18784	0.26333	0.13504	0.1405	0.26275	0.25584	0.12793	0.24656	-2.3479	-2.5792	-2.6542	-3.0125	-2.6042	-2.5271	-2.7604	-2.3021	-2.8208	-2.8042	-2.3646	-3.0958	-2.7	-2.6833	-2.7417	-2.6875	160.552	347.847	430.523	393.130	222.191	393.419	445.027	207.833	116.385	188.261	188.326	212.478	440.542	459.375	460.096	432.589	0.00060746	0.0027427	0.00021417	1030.4	2.8185e-05	1.1666e-05	1070.9	260.57	1.2171e-05	1.6443e-05	338.62	149.31	89.695	35.485	1.2918e-05	70.635	0.06345	0.12446	0.034591	1353.7	0.0012023	0.0014044	1395.1	392.84	0.0011982	0.0013912	517.08	206.15	156.97	55.652	0.0012802	96.819	230.639	334.507	155.863	127.117	346.436	183.509	126.648	132.214	157.994	268.357	131.684	136.643	137.588	140.481	304.419	139.794	-8191	255	
2148.788	1	1	0	0	0.18083	0.077449	0.074083	0.48295	0.073722	0.057996	0.25584	0.18119	0.11862	0.14752	0.30147	0.22825	0.27012	0.24555	0.10987	0.29941	-2.3458	-2.5646	-2.3583	-2.9625	-2.6479	-2.5187	-3.0583	-2.525	-2.8396	-2.775	-2.6604	-2.9875	-2.625	-2.6146	-2.9021	-2.6979	358.342	296.680	303.332	414.677	219.264	399.174	411.480	123.544	318.722	292.867	386.296	134.486	196.781	327.732	218.428	349.843	0.00074128	0.00050562	0.00088285	1032.4	3.7285e-05	1.5145e-05	1068.7	262.09	3.6591e-05	1.7453e-05	337.93	146.76	88.588	35.556	1.2422e-05	70.109	0.062828	0.12426	0.03451	1351.6	0.0012013	0.0014037	1390.2	393.32	0.0012142	0.001404	516.29	205.42	157.65	55.769	0.0012982	96.762	260.839	298.356	167.999	127.007	116.224	171.420	127.022	132.568	241.329	417.752	131.805	136.537	137.375	140.777	214.932	139.710	-8191	255	
2148.909	1	1	0	0	0.12707	0.064969	0.35092	0.21194	0.3199	0.022589	0.21529	0.18014	0.20828	0.16912	0.18135	0.33466	0.093803	0.3599	0.11161	0.24889	-2.0604	-2.9896	-2.5208	-2.9833	-2.6771	-2.5167	-2.9396	-2.7167	-2.5083	-2.9437	-2.4	-2.8208	-2.6896	-2.5792	-2.9604	-2.6208	178.950	438.779	341.971	348.406	355.839	138.500	434.278	274.085	330.710	197.743	455.396	400.125	364.401	378.547	470.881	445.740	0.00076719	0.0011391	0.00049876	1032.3	1.2953e-05	1.7327e-05	1075.6	264.47	1.9244e-05	1.6569e-05	339.26	148.47	89.837	35.613	2.8076e-05	70.429	0.063417	0.12482	0.034242	1349.3	0.001191	0.0013946	1388.9	392.95	0.0012076	0.001394	515.92	205.72	157.81	55.912	0.0012866	97.05	253.945	272.669	150.885	127.183	279.142	438.728	126.671	132.325	212.935	191.195	131.741	136.606	137.828	140.850	235.516	139.903	-8191	255	
2149.005	1	1	0	0	0.0486	0.26571	0.18074	0.12862	0.22574	0.21247	0.12846	0.042787	0.20471	0.16835	0.35177	0.31463	0.07787	0.22263	0.35067	0.22832	-2.2583	-2.6583	-2.3646	-2.8292	-2.7396	-2.5958	-3.1208	-2.7667	-2.5438	-2.9479	-2.5292	-2.75	-2.65	-2.4188	-2.7458	-2.6604	132.845	193.338	272.668	441.349	425.879	383.056	376.246	142.209	398.079	381.561	457.184	351.478	167.117	159.710	275.055	309.466	0.0007927	0.002051	0.0006465	1042.7	2.1954e-05	3.7721e-05	1076.2	265.29	2.9448e-05	2.1597e-05	336.12	147.48	90.499	35.873	1.3204e-05	71.012	0.06332	0.12439	0.034628	1359.2	0.0012085	0.0014181	1394.3	396.43	0.0012301	0.0014188	521.71	207.59	160.51	56.803	0.0013284	98.772	277.691	347.314	426.944	127.054	279.648	115.154	126.942	132.697	291.399	349.402	131.720	136.575	137.116	140.611	337.022	139.902	-8191	255	
2149.101	1	1	0	0	0.11637	0.20442	0.1087	0.20208	0.096296	0.14615	0.14475	0.22943	0.27926	0.24705	0.21724	0.17417	0.064773	0.21487	0.2526	0.35606	-2.1437	-2.7875	-2.5521	-2.8917	-2.6188	-2.3979	-3.1271	-2.4854	-2.5604	-2.9458	-2.4562	-2.6604	-2.7188	-2.3042	-2.725	-2.8292	445.609	388.632	247.961	429.002	202.805	286.978	414.965	401.806	245.643	279.888	234.664	395.681	453.996	417.022	344.465	438.515	0.00086985	0.001906	0.00054337	1042.2	3.3689e-05	3.8988e-05	1080.5	263.22	1.4362e-05	3.2103e-05	340.47	149.76	90.62	35.786	4.8434e-05	71.946	0.066521	0.13094	0.036294	1385.6	0.0012804	0.0014976	1425	406.1	0.0012913	0.001477	529.48	209.94	160.33	56.556	0.0012789	97.778	254.075	174.824	258.623	127.189	182.206	288.859	126.816	132.671	408.492	331.893	131.992	137.296	137.457	140.800	282.089	139.273	-8191	255	
2149.173	1	1	0	0	0.15146	0.076418	0.14961	0.1331	0.11952	0.26589	0.16026	0.14257	0.2969	0.19912	0.1126	0.15966	0.22281	0.05346	0.11236	0.23519	-2.3667	-2.9437	-2.7146	-3.0292	-2.8729	-2.4479	-3.0125	-2.6625	-2.4125	-2.7313	-2.6604	-2.8083	-2.9375	-2.4042	-2.6625	-2.9062	245.347	394.900	220.297	464.811	328.259	182.076	380.771	153.113	223.201	264.552	392.448	353.243	342.752	450.687	143.844	119.246	0.00072485	0.0022842	0.00081129	1046.4	3.1282e-05	7.5423e-06	1095.4	267.43	1.661e-05	3.4221e-05	344.88	151.8	90.732	36.23	1.9087e-05	71.572	0.062167	0.12081	0.033173	1347.2	0.0011491	0.0013259	1382.1	386.62	0.0011292	0.0012908	507.42	203.51	153.83	55.035	0.0012038	96.807	265.124	150.480	450.652	127.179	258.010	395.722	127.068	132.706	217.366	429.408	131.491	136.774	137.023	141.248	280.481	139.831	-8191	255	
2149.293	1	1	0	0	0.091933	0.21046	0.2919	0.5423	0.17703	0.13245	0.28044	0.14209	0.19781	0.053887	0.20506	0.12469	0.15522	0.038908	0.16954	0.31005	-2.0521	-2.7542	-2.4542	-2.6833	-2.7313	-2.5771	-2.9167	-2.7604	-2.4542	-2.9167	-2.6708	-2.625	-2.9354	-2.6125	-2.6437	-2.9771	364.186	371.232	261.706	422.645	189.573	193.104	433.090	258.159	406.738	173.894	340.344	451.324	336.363	213.029	218.669	418.082	0.00055578	0.0013171	0.00078889	1048.4	1.5014e-05	2.2214e-05	1090.3	264.33	3.4175e-05	1.6248e-05	344.53	151.08	91.32	36.64	1.5211e-05	71.732	0.060335	0.11902	0.033096	1349.2	0.0011651	0.0013532	1389.5	390.18	0.0011698	0.0013361	513.96	205.92	155.93	55.598	0.0012298	97.138	238.075	408.874	399.132	127.023	182.045	175.953	126.757	132.410	264.457	163.211	131.895	137.269	138.048	140.970	329.411	139.683	-8191	255	
2149.390	1	1	0	0	0.234	0.082438	0.35729	0.22166	0.090974	0.23564	0.063381	0.078658	0.16854	0.070683	0.046901	0.24803	0.19198	0.25163	0.15933	0.17119	-2.0687	-2.8	-2.5312	-2.5979	-3.0229	-2.4625	-2.8646	-2.8937	-2.4792	-2.9021	-2.9792	-2.6667	-2.9	-2.5812	-2.4854	-2.7917	433.027	381.894	426.399	434.234	293.143	430.891	321.685	468.657	143.576	143.603	222.247	334.573	400.272	458.911	201.315	439.734	0.00097859	0.0033605	0.00048038	1050.1	1.4211e-05	1.6349e-05	1101.5	268.27	1.9546e-05	4.0705e-05	347.29	151.96	91.442	36.355	4.6363e-06	72.462	0.060926	0.11928	0.033183	1357.1	0.0011728	0.0013677	1400	395.89	0.0011878	0.0013609	519.69	208.31	158.56	56.29	0.0012803	98.382	265.136	258.333	421.816	126.735	269.557	333.248	126.630	132.249	338.943	293.630	131.673	136.860	137.960	141.139	380.871	139.718	-8191	255	
2149.486	1	1	0	0	0.26117	0.37828	0.19061	0.25552	0.18561	0.22114	0.15294	0.188	0.088433	0.11757	0.15616	0.15848	0.19691	0.0969	0.09413	0.067681	-2.1708	-2.7875	-2.6583	-2.5917	-2.9333	-2.6083	-2.7104	-2.9167	-2.525	-2.8979	-2.7417	-2.5167	-2.9833	-2.6896	-2.8167	-3.2313	199.290	463.680	387.098	194.304	381.952	388.704	438.724	359.230	299.435	217.288	368.488	440.603	135.483	367.504	215.179	197.369	0.0010443	0.00041579	0.00040152	1055.1	2.8027e-05	1.8635e-05	1096.9	268.47	1.8521e-05	1.7451e-05	345.26	152.4	92.468	36.595	2.9233e-05	72.949	0.063323	0.12395	0.034395	1375.3	0.001215	0.0014164	1418.3	402.48	0.0012419	0.0014219	531.07	212.19	162.03	57.431	0.0013177	100.14	250.033	383.237	233.324	127.006	325.766	423.053	127.155	132.502	366.878	245.056	131.894	136.941	137.575	140.881	290.648	139.732	-8191	255	
2149.582	1	1	0	0	0.09602	0.1141	0.11215	0.12147	0.20694	0.097522	0.18608	0.22508	0.13078	0.21377	0.32042	0.081737	0.23221	0.014357	0.060599	0.26389	-2.0333	-2.6375	-2.7854	-2.5687	-2.9229	-2.6021	-2.5958	-2.8896	-2.55	-2.8354	-2.7292	-2.4667	-2.8292	-2.6	-2.5125	-3.1375	351.977	194.971	137.145	471.498	408.547	367.080	370.372	372.509	472.632	186.740	403.489	403.521	451.626	332.294	132.160	440.351	0.0009361	0.0015564	3.3027e-05	1060.4	3.6307e-05	4.5489e-05	1107.3	270.34	2.1283e-05	3.3709e-05	349.39	153.55	92.841	36.643	7.0162e-06	72.641	0.064871	0.12781	0.035673	1394.3	0.0012586	0.001477	1445.5	411.16	0.0012933	0.0014925	541.13	215.65	164.95	58.42	0.0013745	101.33	240.969	457.271	139.007	126.642	354.081	458.947	127.015	132.862	273.660	381.322	131.322	136.931	137.500	141.246	227.645	139.664	-8191	255	
2149.678	1	1	0	0	0.22848	0.25353	0.13552	0.21165	0.082877	0.13372	0.43138	0.010051	0.15787	0.090599	0.24242	0.457	0.26652	0.098969	0.18446	0.10098	-2.0333	-2.7104	-2.825	-2.5917	-2.8417	-2.5729	-2.5187	-3.0292	-2.6437	-2.7812	-2.9354	-2.6354	-2.7208	-2.8458	-2.5125	-2.9354	222.466	404.584	201.655	427.445	211.851	298.609	362.075	217.083	416.964	248.946	431.659	459.372	185.765	383.797	240.450	391.818	0.00044361	0.0025996	0.00086594	1057	2.6622e-05	4.4799e-05	1100.3	268.71	1.3584e-05	4.8747e-05	345.38	152.65	91.869	36.74	4.309e-05	72.451	0.067643	0.13321	0.037047	1406.9	0.0013075	0.0015317	1459.4	418.13	0.001366	0.0015938	555.93	220.57	172.73	61.036	0.0015432	105.08	234.390	133.232	156.960	127.128	282.131	130.247	126.779	132.543	285.608	159.921	131.220	136.856	137.933	141.192	264.779	139.977	-8191	255	
2149.772	1	1	0	0	0.10626	0.18079	0.34085	0.19435	0.11276	0.031584	0.24008	0.092268	0.32343	0.17049	0.14266	0.30849	0.10328	0.24905	0.29525	0.078895	-2.1229	-2.6104	-2.8604	-2.5667	-2.8312	-2.9396	-2.7396	-2.9938	-2.6375	-2.5958	-2.9938	-2.6167	-2.6708	-3.0396	-2.4688	-2.9813	372.604	230.649	128.629	396.499	448.650	435.103	425.632	172.635	465.760	296.115	138.532	413.454	186.335	413.242	222.236	140.537	0.00079836	0.0027203	0.00046589	1059	2.9166e-05	9.0161e-06	1088.8	268.01	2.4938e-05	2.6679e-05	345.95	151.19	91.06	35.949	2.8042e-05	72.075	0.076583	0.15166	0.042205	1460	0.0014721	0.001723	1500.3	433.2	0.0014907	0.0017221	571.29	225.08	176.11	61.701	0.0015911	105.67	258.115	261.514	411.908	127.018	230.647	227.186	127.046	132.769	279.820	288.746	131.640	136.871	137.749	141.514	315.495	140.001	-8191	255	
2149.870	1	1	0	0	0.078257	0.14759	0.20149	0.11481	0.23705	0.15967	0.11501	0.15406	0.089407	0.22761	0.27843	0.18689	0.1596	0.07858	0.18544	0.32922	-2.2125	-2.4042	-2.8312	-2.6688	-2.7542	-2.7854	-2.3708	-2.9437	-2.6646	-2.5917	-3.1063	-2.6813	-2.8417	-2.9354	-2.2354	-2.8271	281.541	232.273	239.322	141.388	465.497	338.540	374.465	356.993	319.680	178.671	126.820	454.105	449.562	172.845	185.187	393.940	0.00081516	0.0021862	0.00043703	1054.9	4.3751e-06	1.1044e-05	1092.3	267.39	1.5004e-05	3.5424e-05	346.22	153.12	91.397	36.201	1.2952e-05	72.137	0.07794	0.15305	0.042194	1455.1	0.0014456	0.0016933	1495.4	431.11	0.0014891	0.0017306	575.09	226.47	178.06	62.409	0.001615	106.65	240.419	423.215	115.198	126.893	329.377	403.238	126.971	132.590	360.715	266.594	132.015	136.432	137.424	140.513	298.582	140.169	-8191	255	
2149.989	1	1	0	0	0.16524	0.10241	0.24442	0.25221	0.095448	0.20181	0.15241	0.11855	0.20445	0.087188	0.31702	0.40163	0.11635	0.17991	0.27198	0.096851	-2.4146	-2.4875	-2.8958	-2.7042	-2.6063	-2.7146	-2.4917	-2.9479	-2.5271	-2.3354	-3.1	-2.7521	-2.7792	-3.0146	-2.4958	-2.7458	302.170	342.176	465.438	116.703	393.444	188.283	388.917	375.730	399.089	382.905	442.011	419.566	119.063	437.406	229.385	205.116	0.00089375	0.0027911	0.00044698	1060.9	4.6358e-05	4.5162e-05	1103.1	270.78	7.8871e-06	4.1202e-05	346.75	152.94	91.991	36.667	4.1856e-06	72.103	0.07909	0.15593	0.043206	1476	0.0015032	0.0017651	1518.1	439.27	0.0015333	0.0017841	581.03	228.81	181	63.242	0.0016475	107.38	246.627	361.597	284.817	127.206	273.941	402.188	127.204	132.430	267.140	255.083	131.892	137.130	137.243	140.819	161.083	140.053	-8191	255	
2150.085	1	1	0	0	0.2311	0.12932	0.042496	0.059627	0.31493	0.15082	0.15985	0.19843	0.063845	0.10643	0.24094	0.15235	0.10297	0.09993	0.12718	0.10802	-2.3396	-2.3458	-3.0062	-2.8875	-2.5771	-2.9646	-2.7146	-2.8	-2.9125	-2.6208	-2.9521	-2.6917	-2.5875	-2.9062	-2.575	-3.1063	354.376	464.636	436.439	170.624	280.026	417.887	366.454	128.774	284.915	378.870	323.201	393.587	385.379	192.350	133.721	450.943	0.0011466	0.0033835	0.00076989	1061.5	4.8319e-05	3.0581e-05	1092.8	267.39	1.7187e-05	2.1222e-05	343.21	150.01	90.589	36.156	2.2113e-05	72.039	0.081654	0.16192	0.044876	1497.5	0.0015721	0.0018445	1531	444.28	0.0015783	0.0018156	579.51	226.42	179.54	62.434	0.0016103	105.95	252.757	339.357	138.922	127.078	181.907	430.100	126.651	132.942	373.376	163.775	131.750	137.396	137.159	141.104	389.938	139.922	-8191	255	
2150.181	1	1	0	0	0.32875	0.047866	0.10977	0.15243	0.11165	0.20218	0.053838	0.10181	0.18755	0.11193	0.14833	0.1122	0.22417	0.032747	0.26017	0.09923	-2.5542	-2.5938	-3.0083	-2.8854	-2.5042	-3.1	-2.7917	-2.7125	-2.9208	-2.5625	-2.8063	-2.7188	-2.5729	-2.9708	-2.625	-3.0333	431.528	386.653	125.725	474.290	273.267	446.894	269.396	455.463	196.360	182.428	382.181	174.079	432.755	133.238	173.264	275.630	0.00062044	0.0015422	0.00030097	1053.4	1.2705e-05	5.2532e-05	1086.8	264.74	1.9691e-05	1.7304e-05	344.7	150.12	90.735	35.724	1.2324e-05	70.791	0.079574	0.15547	0.042696	1460.2	0.0014885	0.0017326	1495.4	430.52	0.001492	0.0017225	567.57	222.69	174.71	60.773	0.0015638	103.95	227.544	297.575	136.027	126.849	347.202	403.598	126.810	132.592	160.891	189.175	131.370	136.586	138.094	140.977	269.978	140.113	-8191	255	
2150.278	1	1	0	0	0.13245	0.33896	0.1429	0.17823	0.0066798	0.060462	0.43217	0.25775	0.098869	0.3522	0.1634	0.056651	0.148	0.20329	0.15147	0.076705	-2.4938	-2.4188	-2.6958	-2.7771	-2.6896	-2.8021	-2.6708	-2.7938	-2.9542	-2.6833	-2.7625	-2.9833	-2.6583	-3.0479	-2.5333	-2.5979	122.044	274.654	242.423	409.743	267.132	357.637	362.256	359.738	464.536	422.774	147.706	210.879	444.183	380.463	378.149	124.224	0.00079484	0.0024016	0.00061413	1046.6	1.7322e-05	1.3687e-05	1080.7	264.76	9.8075e-06	8.3761e-06	344.08	151.15	90.023	35.084	3.3807e-05	71.371	0.076635	0.14997	0.04119	1437.7	0.0014362	0.001651	1465.3	418.28	0.0014035	0.0015916	544.73	216.39	166.13	57.907	0.0013997	100.4	275.266	151.236	377.097	126.918	343.863	293.960	126.609	132.545	257.034	311.515	131.313	137.437	137.847	140.706	228.033	139.814	-8191	255	
2150.398	1	1	0	0	0.042268	0.10475	0.13116	0.20004	0.12955	0.18604	0.24265	0.37516	0.18551	0.16601	0.08615	0.1777	0.19953	0.15806	0.16816	0.18772	-2.4833	-2.4688	-2.6771	-2.9271	-2.3125	-2.6188	-2.8	-2.5812	-2.9188	-2.5917	-2.7812	-2.8063	-2.4083	-2.9313	-2.8104	-2.6125	287.081	243.570	449.595	140.676	138.523	276.419	120.738	118.915	248.159	278.106	431.775	453.133	423.159	264.798	439.874	358.010	0.00068014	0.0012334	0.00037924	1040.3	3.2453e-05	2.9831e-05	1089.7	262.58	3.4558e-05	4.265e-06	343.19	148.94	89.677	35.136	6.0186e-05	70.658	0.068864	0.13405	0.036783	1385.6	0.0012903	0.0015036	1426.7	404.83	0.0013067	0.0014945	530.45	210.78	161.54	56.31	0.0013398	98.425	242.738	289.299	188.823	127.040	199.589	196.618	126.923	132.845	305.370	456.574	131.426	136.731	137.471	140.838	293.831	140.154	-8191	255	
2150.470	1	1	0	0	0.16706	0.13046	0.38105	0.22419	0.15139	0.11203	0.3658	0.036856	0.036427	0.17269	0.30335	0.34141	0.031923	0.23931	0.11902	0.22433	-2.475	-2.5375	-2.7333	-2.9938	-2.4104	-2.8542	-2.8083	-2.65	-2.8229	-2.4396	-2.7313	-2.8625	-2.4437	-2.8979	-2.7938	-2.5646	334.753	399.962	182.717	121.262	276.364	250.066	411.169	230.195	458.643	123.554	118.185	380.350	172.787	130.683	459.427	411.430	0.0006324	0.0034332	0.00035044	1034	3.0629e-05	5.477e-05	1070.5	261.64	1.3901e-05	2.8602e-05	339.59	147.61	88.721	34.863	2.0523e-05	70.371	0.065725	0.12832	0.035421	1364	0.0012449	0.0014432	1402	396.11	0.0012415	0.0014099	510.84	203.94	154.59	54.384	0.001239	95.927	239.787	351.749	439.309	127.083	288.308	246.068	127.086	132.433	123.963	308.257	131.941	136.762	137.569	140.697	210.249	140.043	-8191	255	
2150.591	1	1	0	0	0.20506	0.084712	0.22947	0.17451	0.08707	0.16948	0.14384	0.22683	0.039973	0.1503	0.42928	0.28947	0.16998	0.1656	0.13752	0.052526	-2.5458	-2.3646	-2.5187	-3.0042	-2.4167	-2.6958	-2.9854	-2.4271	-2.9271	-2.6854	-2.5979	-2.9458	-2.5	-2.7396	-2.8479	-2.4562	120.433	272.381	149.720	351.992	334.449	243.873	417.808	389.400	266.868	454.988	406.750	445.922	142.119	386.078	261.427	448.394	0.00093177	0.005198	0.0016847	1035.5	3.4612e-05	2.1362e-05	1073.1	262.23	2.2296e-05	3.5204e-05	337.86	149.49	88.214	35.174	3.568e-05	71.407	0.060704	0.11846	0.032712	1331.2	0.0011374	0.0013232	1369.9	384.17	0.0011349	0.0013025	503.01	202.25	151.11	53.754	0.0011878	95.186	271.235	142.621	193.964	126.681	282.780	338.440	126.910	133.133	310.969	218.185	131.536	136.955	137.752	141.020	207.940	140.199	-8191	255	
2150.685	1	1	0	0	0.070136	0.19055	0.12799	0.07086	0.25457	0.33825	0.30921	0.11368	0.11883	0.2013	0.21078	0.15752	0.081633	0.14989	0.28298	0.15051	-2.4542	-2.5604	-2.4396	-3.0875	-2.5812	-2.9146	-2.9	-2.6917	-2.8438	-2.7062	-2.6146	-2.8771	-2.6562	-2.7771	-2.8771	-2.6604	193.946	395.633	133.543	433.158	134.904	413.272	399.964	323.643	185.412	427.325	434.012	267.294	448.849	142.233	261.053	418.618	0.00056702	0.0043334	0.00023804	1032.2	1.2462e-05	3.6602e-05	1072.2	261.37	1.7153e-05	3.8896e-05	338.92	149.38	87.952	34.9	2.4204e-05	71.298	0.057989	0.11375	0.031548	1316.8	0.0011035	0.0012911	1361.4	380.69	0.0011085	0.0012795	500.61	201.18	149.66	53.181	0.0011745	94.736	224.217	269.484	471.527	127.171	354.454	171.073	126.893	132.605	361.085	248.035	131.650	136.903	137.943	140.811	261.848	139.459	-8191	255	
2150.781	1	1	0	0	0.126	0.036965	0.17816	0.17166	0.21528	0.076424	0.14733	0.45778	0.14228	0.011497	0.13884	0.13593	0.16592	0.11208	0.32316	0.17128	-2.3708	-2.4667	-2.3854	-2.8917	-2.4062	-2.5125	-2.7708	-2.3958	-2.8625	-2.7208	-2.4083	-2.8479	-2.7021	-2.7562	-2.7938	-2.6083	318.827	306.521	197.038	133.969	325.105	379.235	352.841	440.085	289.689	280.332	161.593	156.987	137.194	295.512	380.496	332.770	0.00074736	0.0023868	0.00033185	1029.8	1.7143e-05	2.8869e-05	1072.3	258.63	2.5253e-05	7.582e-06	338.27	147.74	87.088	34.676	2.36e-05	70.383	0.057586	0.11362	0.03149	1310.5	0.0010968	0.0012899	1358.3	378.43	0.001124	0.0013104	505.03	201.83	152.34	54.005	0.0012265	95.311	231.830	428.861	224.235	127.445	275.519	181.822	126.868	132.171	357.828	337.675	132.066	136.769	137.638	140.946	186.609	139.722	-8191	255	
2150.877	1	1	0	0	0.094043	0.15803	0.097799	0.41589	0.12032	0.27371	0.15288	0.1979	0.11989	0.22673	0.38342	0.094259	0.099786	0.077356	0.23509	0.22478	-2.4146	-2.6646	-2.4875	-3	-2.6854	-2.6729	-3.1188	-2.6292	-2.6688	-2.9042	-2.5604	-2.9604	-2.4542	-2.6063	-2.9708	-2.4896	454.359	220.098	453.958	454.761	121.031	389.254	422.775	467.093	295.080	413.290	446.292	470.157	441.359	192.667	426.609	419.438	0.00068095	0.0023808	0.00088269	1024.4	2.6511e-05	1.9464e-05	1067.6	260.9	4.9306e-06	4.5645e-07	338.7	147.14	88.768	35.007	1.9536e-05	71.36	0.059719	0.11774	0.032546	1320.6	0.0011318	0.0013322	1370.3	385.35	0.0011689	0.0013637	512.24	203.93	154.7	54.639	0.0012414	96.556	249.497	205.439	169.326	127.000	271.860	133.592	126.728	132.326	115.814	142.191	131.797	137.262	137.163	140.727	287.406	140.081	-8191	255	
2150.973	1	1	0	0	0.16867	0.13295	0.050242	0.20685	0.14036	0.16621	0.13688	0.14931	0.12099	0.089401	0.27472	0.014987	0.21953	0.3315	0.28226	0.062333	-2.2146	-2.7333	-2.4062	-3.0104	-2.65	-2.5292	-2.9646	-2.5896	-2.6125	-2.8667	-2.4875	-2.9188	-2.7917	-2.5458	-2.8375	-2.7354	380.864	392.411	153.784	409.223	314.244	415.732	371.245	411.930	132.876	276.483	336.710	213.878	210.820	400.341	247.567	184.536	0.00056047	0.0010577	0.0002639	1028.1	2.7611e-05	1.3926e-05	1072.1	261.82	7.5618e-06	3.0179e-05	339.67	150.83	89.383	35.818	5.6708e-05	72.137	0.060737	0.11997	0.033185	1330	0.0011546	0.0013524	1381.2	387.48	0.0011766	0.0013578	512.05	205.13	155.53	55.27	0.00126	97.763	277.326	160.325	149.337	127.156	460.026	392.923	126.710	132.783	304.486	165.098	131.584	136.692	137.343	141.098	335.636	139.707	-8191	255	
2151.070	1	1	0	0	0.24557	0.22561	0.13747	0.19394	0.032616	0.14219	0.072958	0.13259	0.23346	0.20918	0.11098	0.45998	0.33195	0.27502	0.23267	0.31267	-2.3396	-2.9271	-2.3312	-2.7625	-2.7104	-2.4792	-3.1562	-2.6646	-2.5687	-2.8271	-2.6125	-2.8563	-2.8937	-2.3958	-3.0667	-2.9167	428.123	316.575	130.941	365.083	414.954	333.144	461.947	249.609	265.323	155.393	132.622	455.225	403.674	377.661	376.970	425.013	0.00060626	0.00015257	0.0012524	1041.2	4.3194e-06	2.3596e-05	1085.6	262.93	1.1947e-05	3.3083e-05	343.43	149.82	89.64	35.56	1.0555e-05	71.64	0.062581	0.12429	0.034462	1354.6	0.0012159	0.0014299	1405.7	397.9	0.0012708	0.0014762	532.99	211.88	163.51	57.821	0.0014129	101.56	233.330	459.155	145.298	127.245	155.661	233.802	126.500	132.350	436.427	277.657	131.735	137.096	136.958	140.906	317.823	139.809	-8191	255	
2151.166	1	1	0	0	0.072198	0.10003	0.12906	0.17661	0.021093	0.14802	0.15173	0.30395	0.37025	0.062826	0.16203	0.15234	0.21036	0.19208	0.2343	0.15351	-2.2396	-2.8021	-2.3937	-2.9229	-2.7125	-2.4146	-3.1354	-2.6229	-2.2771	-2.9688	-2.6146	-2.7396	-2.7833	-2.5542	-2.8292	-2.9125	203.974	453.328	179.458	132.274	448.488	141.830	468.257	431.978	253.274	412.294	391.655	302.135	434.820	404.864	165.853	382.664	0.0010148	0.0022463	0.00065742	1038.1	1.7307e-05	5.0261e-05	1072.4	262.02	3.4652e-06	1.8752e-05	338.05	149.63	88.595	34.968	1.0816e-05	71.233	0.070791	0.14104	0.039196	1411.1	0.0013908	0.0016379	1456.6	417.55	0.0014266	0.0016482	552.17	218.35	170.52	59.447	0.0015149	103.43	239.157	252.206	244.848	127.263	201.184	316.312	126.939	132.434	131.331	278.260	131.485	137.067	137.775	141.487	283.927	140.071	-8191	255	
2151.262	1	1	0	0	0.20559	0.20597	0.081687	0.0046452	0.090533	0.25867	0.099048	0.2272	0.18299	0.15927	0.087783	0.38805	0.17829	0.21257	0.065315	0.11517	-2.0938	-2.9938	-2.4938	-2.9792	-2.8312	-2.4333	-2.9313	-2.7125	-2.5938	-2.9313	-2.6083	-2.7604	-2.8875	-2.5271	-2.8771	-2.9958	451.480	150.290	424.152	201.563	203.601	442.650	338.917	393.146	304.108	210.667	151.977	442.684	135.939	315.304	422.701	430.011	0.00089857	0.0033808	0.00042778	1029.3	1.2193e-05	3.5261e-06	1062.9	258.3	2.7923e-05	2.9035e-05	337.69	147.4	86.503	34.883	3.175e-05	71.535	0.075834	0.14975	0.041353	1428.1	0.0014549	0.0016843	1456	417.91	0.0014535	0.00168	554.87	219.12	171.91	60.025	0.0015506	104.3	254.902	316.007	231.247	126.904	300.239	378.942	126.923	132.005	207.464	170.969	131.356	137.057	137.656	141.411	269.038	139.941	-8191	255	
2151.358	1	1	0	0	0.086385	0.21418	0.19913	0.22011	0.36148	0.11732	0.055437	0.16984	0.18062	0.2623	0.17786	0.13611	0.40336	0.13081	0.14186	0.25315	-2.1042	-2.7625	-2.6437	-2.7646	-2.7833	-2.5312	-2.9917	-2.65	-2.525	-2.95	-2.7354	-2.6542	-2.9854	-2.6813	-2.7646	-2.7875	427.069	449.033	300.427	468.278	123.211	164.626	360.661	221.877	264.542	387.410	373.624	465.256	156.572	344.525	129.515	439.826	0.00087592	0.0011556	0.00032141	1027.3	4.3924e-05	5.9306e-05	1055.1	260.13	4.5577e-05	4.5672e-05	337.89	147.84	88.187	35.145	2.4657e-05	71.388	0.077267	0.15082	0.041792	1427.5	0.0014623	0.0016917	1457.8	422.04	0.0014779	0.0017046	560.04	221.65	174.83	60.913	0.0016005	105.67	259.106	262.026	230.923	126.550	213.713	179.915	126.677	132.574	382.934	438.907	131.396	137.182	137.606	141.105	393.750	140.130	-8191	255	
2151.479	1	1	0	0	0.22187	0.066044	0.093409	0.11005	0.19135	0.26728	0.072636	0.15249	0.29393	0.084227	0.078904	0.33089	0.225	0.16883	0.030538	0.072661	-1.9604	-2.8646	-2.6271	-2.6792	-2.9583	-2.5771	-2.8833	-3.0792	-2.5542	-2.8479	-2.7188	-2.7854	-2.8604	-2.5854	-2.5375	-3.1771	261.940	441.547	240.476	346.753	455.141	255.094	373.065	455.791	458.659	256.956	167.360	372.834	152.053	159.156	299.904	378.664	0.0010719	0.0046807	0.00065956	1028.4	1.311e-05	3.2848e-05	1060.8	260.99	4.5558e-05	2.6286e-05	339.49	148.82	88.88	35.016	1.9214e-05	72.166	0.079693	0.15577	0.043394	1450.7	0.0015173	0.0017605	1484.7	429.64	0.0015129	0.0017232	562.52	221.96	173.22	60.069	0.001556	105.27	240.204	444.509	169.674	127.104	275.584	368.196	126.610	132.439	128.404	282.250	131.382	137.003	137.573	141.109	123.007	140.165	-8191	255	
2151.575	1	1	0	0	0.33992	0.27604	0.088543	0.33864	0.49806	0.15454	0.1749	0.26093	0.10998	0.28486	0.17627	0.33048	0.27315	0.086831	0.056149	0.0966	-2.1354	-2.6625	-2.7583	-2.6125	-2.9688	-2.7479	-2.7833	-3.0271	-2.5958	-2.7812	-2.7729	-2.6	-2.8625	-2.7854	-2.7396	-2.9688	309.562	247.364	141.103	406.450	364.266	157.953	362.188	349.240	466.243	163.217	370.040	411.711	417.725	190.703	182.305	229.401	0.00062056	0.0025945	0.00069486	1033.6	2.6394e-05	3.3725e-05	1067.7	260.48	7.6751e-06	2.0919e-05	344.73	150.57	89.479	35.379	3.7107e-05	73.036	0.076963	0.15156	0.042266	1444.2	0.0014782	0.0017181	1475.5	426.85	0.0014814	0.0016966	564.24	223.06	174.27	60.539	0.0015688	106.14	234.939	244.440	383.375	126.966	276.236	424.127	127.115	132.302	164.201	264.302	131.548	136.765	137.622	140.733	162.424	140.261	-8191	255	
2151.671	1	1	0	0	0.11016	0.16007	0.2561	0.32202	0.23628	0.20407	0.19488	0.065732	0.15694	0.23687	0.25969	0.36019	0.33784	0.14741	0.035009	0.15411	-2.2687	-2.5958	-2.5812	-2.6854	-2.9333	-2.7313	-2.6562	-2.9417	-2.4521	-2.7896	-2.8708	-2.725	-2.8917	-2.8583	-2.6188	-3.0667	134.158	241.636	125.893	431.486	392.309	357.977	366.140	436.073	214.366	346.530	409.573	434.950	439.310	463.790	149.060	393.054	0.0003265	0.002414	0.0013006	1032.3	3.2519e-05	2.2403e-05	1065.5	261.89	6.0733e-06	2.5468e-05	337.96	150.27	88.408	35.753	1.8617e-05	72.461	0.077767	0.15295	0.042825	1450.8	0.001503	0.0017594	1490.1	432.55	0.0015309	0.0017653	572.1	225.96	176.94	61.722	0.0016221	106.9	277.010	222.105	473.735	126.680	153.184	180.047	127.007	132.668	426.931	374.221	131.706	137.403	137.893	140.732	393.952	140.222	-8191	255	
2151.765	1	1	0	0	0.3207	0.11174	0.28613	0.11723	0.16418	0.43042	0.095144	0.2705	0.18585	0.16864	0.22402	0.10944	0.40649	0.22569	0.25481	0.14531	-2.1271	-2.7583	-2.9313	-2.5458	-2.8812	-2.6396	-2.55	-3.0062	-2.5583	-2.7313	-2.9083	-2.55	-3.0354	-2.8146	-2.6312	-3.1229	117.580	406.777	188.090	362.681	335.886	121.008	420.047	284.703	290.967	267.436	432.379	398.427	141.867	470.342	204.147	419.965	0.00069268	0.0014949	0.0017374	1026.3	2.8427e-05	4.5961e-05	1058.8	261.07	1.4031e-05	1.9814e-05	338.61	149.53	88.618	35.158	2.8457e-05	72.12	0.079635	0.15688	0.043609	1453.1	0.0015247	0.001784	1493.1	433.94	0.0015476	0.0017916	575.19	225.89	177.09	61.633	0.0016453	106.82	272.599	154.201	257.778	127.252	474.025	177.128	127.192	132.311	378.857	235.524	131.473	137.357	136.972	141.273	316.575	139.883	-8191	255	
2151.861	1	1	0	0	0.25238	0.28077	0.068866	0.18643	0.14015	0.17244	0.12958	0.20704	0.21864	0.18588	0.27015	0.21166	0.20417	0.1749	0.1341	0.33196	-2.2646	-2.7854	-2.9833	-2.6063	-2.8458	-2.8375	-2.6958	-2.9458	-2.6896	-2.7125	-3.1625	-2.4479	-2.9729	-2.8979	-2.4354	-2.9729	271.785	322.909	383.592	431.602	208.768	319.486	126.517	437.119	381.994	219.606	385.971	471.274	414.006	131.670	273.099	435.534	0.00064752	0.0036416	0.00078976	1026.2	4.7975e-05	2.9877e-05	1076.1	261.23	2.1882e-05	2.7389e-05	340.72	150.46	89.621	35.694	2.5906e-05	73.398	0.07988	0.15826	0.043964	1451.3	0.001522	0.0017898	1496.6	431.12	0.0015154	0.0017312	565.11	222.58	172.05	60.171	0.0015264	105.08	238.739	196.048	457.668	126.982	180.992	243.005	127.143	132.660	140.913	380.490	131.994	136.790	138.146	140.778	352.550	139.821	-8191	255	
2151.959	1	1	0	0	0.095946	0.15841	0.069771	0.20007	0.1228	0.16811	0.22549	0.060724	0.14308	0.10162	0.053015	0.15286	0.36948	0.13439	0.16074	0.15768	-2.1542	-2.6521	-3.05	-2.6521	-2.7708	-2.7458	-2.6542	-2.9521	-2.7125	-2.5646	-2.9896	-2.5687	-2.8854	-2.6604	-2.5312	-2.9896	314.978	142.792	269.288	163.905	167.853	290.431	367.860	212.544	192.466	196.832	464.566	132.663	376.767	419.377	358.810	272.762	0.00064319	0.001771	0.00046941	1034.5	2.6081e-05	3.5567e-05	1077.9	262.74	2.459e-05	1.4497e-05	346.94	151.06	89.054	35.32	5.9608e-06	72.372	0.074375	0.14702	0.040844	1422.8	0.0014294	0.0016868	1480.1	426.44	0.0014925	0.0017407	571.92	225.62	176.83	62.036	0.0016518	108.13	237.922	122.174	441.883	126.996	209.101	302.307	127.078	132.715	325.891	236.365	132.211	136.601	137.531	141.209	245.938	139.955	-8191	255	
2152.078	1	1	0	0	0.098441	0.098132	0.20863	0.29024	0.13654	0.065287	0.26861	0.14307	0.25125	0.055034	0.030672	0.2617	0.37097	0.30121	0.12212	0.15473	-2.2479	-2.6896	-2.8896	-2.8312	-2.725	-2.8792	-2.4625	-2.8604	-2.5438	-2.6583	-2.9979	-2.6063	-2.7083	-2.9708	-2.4708	-2.825	373.720	281.885	321.157	142.076	178.710	126.805	367.361	350.234	297.630	244.814	184.675	390.531	462.811	442.736	126.640	414.993	0.00062022	0.0034413	0.00086734	1028.9	4.7297e-05	4.3308e-05	1060.1	260.13	3.0239e-05	4.2495e-05	337.22	149.01	88.802	35.163	2.9205e-05	72.245	0.082662	0.16529	0.046244	1488	0.0016378	0.0019233	1528.3	445.77	0.0016597	0.0019145	590.24	230.27	183.88	63.654	0.0017454	109.5	303.780	177.330	432.075	126.913	207.760	310.239	126.954	132.221	323.139	326.924	131.760	137.059	137.828	140.779	241.893	139.785	-8191	255	
2152.174	1	1	0	0	0.27881	0.043479	0.48807	0.23979	0.11799	0.26396	0.16014	0.1257	0.098468	0.15851	0.17044	0.23752	0.096157	0.10496	0.3776	0.21095	-2.3083	-2.3979	-2.8646	-2.9167	-2.7562	-2.9625	-2.6063	-2.95	-2.8312	-2.55	-3.1146	-2.7229	-2.6625	-3.0917	-2.4875	-2.7438	339.571	461.050	267.511	373.046	331.319	126.274	426.875	248.287	253.379	242.000	452.292	407.882	295.342	443.422	306.289	378.650	0.0010949	0.0049801	0.00099656	1025.8	2.5819e-05	5.3576e-05	1063.5	258.71	1.2726e-05	1.3586e-05	338.22	148.64	89.636	35.227	3.6171e-05	72.221	0.0853	0.16759	0.045871	1470.3	0.0016056	0.0018786	1518.9	441.95	0.0016438	0.0018859	586.92	229.45	182.69	63.134	0.0017194	109.4	240.032	138.668	271.909	127.233	293.620	244.960	126.789	132.253	247.133	214.640	131.671	137.039	137.705	141.131	298.244	140.148	-8191	255	
2152.271	1	1	0	0	0.1136	0.1468	0.097498	0.23346	0.45459	0.086366	0.32115	0.29813	0.094855	0.11049	0.061701	0.19561	0.12812	0.19613	0.3574	0.21643	-2.5396	-2.4917	-2.8042	-2.8688	-2.4437	-3.0521	-2.7	-2.775	-2.8646	-2.4583	-2.9125	-2.8563	-2.65	-2.9521	-2.5833	-2.8229	143.140	138.150	315.846	458.425	213.413	155.648	384.107	412.006	237.638	287.773	133.857	472.980	437.225	445.598	135.183	139.448	0.0010921	0.0030286	0.00061656	1022.3	2.7453e-05	6.4948e-05	1073.9	260.19	2.0252e-05	3.452e-05	341.1	149.97	88.234	35.241	3.0058e-05	72.991	0.085371	0.16788	0.046067	1477.3	0.0016193	0.0018856	1517.2	440.86	0.0016136	0.0018479	579.69	227.21	178.69	61.628	0.0016156	107.26	250.506	244.495	355.372	127.040	367.454	373.537	126.849	132.241	192.835	311.326	131.802	136.926	137.695	141.171	246.771	140.238	-8191	255	
2152.367	1	1	0	0	0.17734	0.12443	0.15465	0.24638	0.12553	0.31744	0.04181	0.12424	0.17324	0.28016	0.13087	0.12869	0.30224	0.11052	0.33864	0.069025	-2.3208	-2.5667	-2.8125	-2.75	-2.5729	-3.1437	-2.7875	-2.7646	-2.9792	-2.4229	-2.9708	-2.8604	-2.6229	-2.9042	-2.7042	-2.6917	353.139	316.995	323.200	373.254	438.417	160.731	135.984	368.736	181.958	379.846	329.908	327.029	167.884	417.709	240.200	389.417	0.00083784	0.0023077	0.0001498	1026.9	2.6771e-05	3.2258e-05	1070.3	263	2.3174e-05	5.6491e-05	347.94	152.04	89.578	35.919	3.5178e-05	74.694	0.078491	0.15288	0.041836	1432.2	0.0014576	0.0016849	1468.9	424.49	0.0014656	0.0016861	563.31	223.97	173.38	60.533	0.0015403	106.69	262.067	117.610	265.147	126.977	122.969	201.201	127.178	132.343	293.012	269.009	131.375	136.635	138.198	141.428	158.699	140.085	-8191	255	
#DATA ENDS
