BOXY.EXE: ISS Imagent and Oximeter Data Acquisition Program Version 0.80
Ascii Record File

#ACQ INFORMATION
2  Detector Channels 
16  External MUX Channels 
1  Auxiliary Channels 
5000  Waveform (CCF) Frequency (Hz)
1  Waveforms Skipped 
30  Waveforms Averaged 
1  Cycles Averaged 
16  Acquisitions per Waveform 
10.0806  Updata Rate (Hz) 

#FILE INFORMATION
TRUE -- External MUX Channel results are PARSED.
FALSE -- AC DC and Phase are NOT grouped.
TRUE -- Companion Program Settings File CREATED.
FALSE -- AC data not excluded
FALSE -- DC data not excluded
FALSE -- Phase data not excluded
FALSE -- Auxillary Chn. data not excluded
Tab delimiters

#CALIBRATION STATE
TRUE -- Waveform Calibration Values APPLIED.


#AUX CALIBRATION VALUES
Val Type	aux-1	

Term	1.0000e+00	
Factor	0.0000e+00	


#WF CALIBRATION VALUES
A = Detector Channel
Val Type	A-AC1	A-AC2	A-AC3	A-AC4	A-AC5	A-AC6	A-AC7	A-AC8	A-AC9	A-AC10	A-AC11	A-AC12	A-AC13	A-AC14	A-AC15	A-AC16	A-DC1	A-DC2	A-DC3	A-DC4	A-DC5	A-DC6	A-DC7	A-DC8	A-DC9	A-DC10	A-DC11	A-DC12	A-DC13	A-DC14	A-DC15	A-DC16	A-Ph1	A-Ph2	A-Ph3	A-Ph4	A-Ph5	A-Ph6	A-Ph7	A-Ph8	A-Ph9	A-Ph10	A-Ph11	A-Ph12	A-Ph13	A-Ph14	A-Ph15	A-Ph16	

Term	0.00000e+00	0.00000e+00	0.00000e+00	0.00000e+00	0.00000e+00	0.00000e+00	0.00000e+00	0.00000e+00	0.00000e+00	0.00000e+00	0.00000e+00	0.00000e+00	0.00000e+00	0.00000e+00	0.00000e+00	0.00000e+00	0.00000e+00	0.00000e+00	0.00000e+00	0.00000e+00	0.00000e+00	0.00000e+00	0.00000e+00	0.00000e+00	0.00000e+00	0.00000e+00	0.00000e+00	0.00000e+00	0.00000e+00	0.00000e+00	0.00000e+00	0.00000e+00	0.00000e+00	0.00000e+00	0.00000e+00	0.00000e+00	0.00000e+00	0.00000e+00	0.00000e+00	0.00000e+00	0.00000e+00	0.00000e+00	0.00000e+00	0.00000e+00	0.00000e+00	0.00000e+00	0.00000e+00	0.00000e+00	
Factor	1.00000e+00	1.00000e+00	1.00000e+00	1.00000e+00	1.00000e+00	1.00000e+00	1.00000e+00	1.00000e+00	1.00000e+00	1.00000e+00	1.00000e+00	1.00000e+00	1.00000e+00	1.00000e+00	1.00000e+00	1.00000e+00	1.00000e+00	1.00000e+00	1.00000e+00	1.00000e+00	1.00000e+00	1.00000e+00	1.00000e+00	1.00000e+00	1.00000e+00	1.00000e+00	1.00000e+00	1.00000e+00	1.00000e+00	1.00000e+00	1.00000e+00	1.00000e+00	X	X	X	X	X	X	X	X	X	X	X	X	X	X	X	X	

B = Detector Channel
Val Type	B-AC1	B-AC2	B-AC3	B-AC4	B-AC5	B-AC6	B-AC7	B-AC8	B-AC9	B-AC10	B-AC11	B-AC12	B-AC13	B-AC14	B-AC15	B-AC16	B-DC1	B-DC2	B-DC3	B-DC4	B-DC5	B-DC6	B-DC7	B-DC8	B-DC9	B-DC10	B-DC11	B-DC12	B-DC13	B-DC14	B-DC15	B-DC16	B-Ph1	B-Ph2	B-Ph3	B-Ph4	B-Ph5	B-Ph6	B-Ph7	B-Ph8	B-Ph9	B-Ph10	B-Ph11	B-Ph12	B-Ph13	B-Ph14	B-Ph15	B-Ph16	

Term	0.00000e+00	0.00000e+00	0.00000e+00	0.00000e+00	0.00000e+00	0.00000e+00	0.00000e+00	0.00000e+00	0.00000e+00	0.00000e+00	0.00000e+00	0.00000e+00	0.00000e+00	0.00000e+00	0.00000e+00	0.00000e+00	0.00000e+00	0.00000e+00	0.00000e+00	0.00000e+00	0.00000e+00	0.00000e+00	0.00000e+00	0.00000e+00	0.00000e+00	0.00000e+00	0.00000e+00	0.00000e+00	0.00000e+00	0.00000e+00	0.00000e+00	0.00000e+00	-5.59862e+01	-1.37165e+02	-1.09869e+02	-1.83892e+02	-6.46307e+01	-7.36611e+01	-1.56891e+02	-1.62015e+02	-4.00765e+01	-6.46858e+01	-1.74830e+02	-1.70829e+02	-1.79669e+02	-1.77438e+02	-3.40695e+01	-1.50113e+02	
Factor	2.00826e-05	1.16048e-04	2.50199e-05	2.01756e-01	1.04398e-06	1.05918e-06	1.68114e-01	5.33662e-02	9.36267e-07	1.40336e-06	1.25515e-01	3.06584e-02	2.97817e-02	1.00133e-02	1.07325e-06	1.43431e-02	9.95168e-07	1.02890e-06	2.87747e-07	1.00126e-01	1.12210e-08	1.12741e-08	7.94418e-02	2.67727e-02	1.12170e-08	1.12980e-08	5.87010e-02	1.47241e-02	1.47267e-02	4.94447e-03	1.13127e-08	6.80183e-03	X	X	X	X	X	X	X	X	X	X	X	X	X	X	X	X	



#DISTANCE SETTINGS
A = Detector Channel
A-1	A-2	A-3	A-4	A-5	A-6	A-7	A-8	A-9	A-10	A-11	A-12	A-13	A-14	A-15	A-16	

2.5000e+00	3.0000e+00	2.5000e+00	3.0000e+00	2.0000e+00	3.0000e+00	1.5000e+00	3.0000e+00	3.0000e+00	3.0000e+00	3.0000e+00	3.0000e+00	3.0000e+00	3.0000e+00	1.5000e+00	3.0000e+00	

B = Detector Channel
B-1	B-2	B-3	B-4	B-5	B-6	B-7	B-8	B-9	B-10	B-11	B-12	B-13	B-14	B-15	B-16	

1.0000e+01	1.0000e+01	1.0000e+01	1.4400e+00	1.0000e+01	1.0000e+01	1.5100e+00	1.9400e+00	1.0000e+01	1.0000e+01	1.9900e+00	2.4900e+00	2.4100e+00	2.9000e+00	1.0000e+01	2.9800e+00	




#DATA BEGINS
time	group	step	mark	flag	A-AC1	A-AC2	A-AC3	A-AC4	A-AC5	A-AC6	A-AC7	A-AC8	A-AC9	A-AC10	A-AC11	A-AC12	A-AC13	A-AC14	A-AC15	A-AC16	A-DC1	A-DC2	A-DC3	A-DC4	A-DC5	A-DC6	A-DC7	A-DC8	A-DC9	A-DC10	A-DC11	A-DC12	A-DC13	A-DC14	A-DC15	A-DC16	A-Ph1	A-Ph2	A-Ph3	A-Ph4	A-Ph5	A-Ph6	A-Ph7	A-Ph8	A-Ph9	A-Ph10	A-Ph11	A-Ph12	A-Ph13	A-Ph14	A-Ph15	A-Ph16	B-AC1	B-AC2	B-AC3	B-AC4	B-AC5	B-AC6	B-AC7	B-AC8	B-AC9	B-AC10	B-AC11	B-AC12	B-AC13	B-AC14	B-AC15	B-AC16	B-DC1	B-DC2	B-DC3	B-DC4	B-DC5	B-DC6	B-DC7	B-DC8	B-DC9	B-DC10	B-DC11	B-DC12	B-DC13	B-DC14	B-DC15	B-DC16	B-Ph1	B-Ph2	B-Ph3	B-Ph4	B-Ph5	B-Ph6	B-Ph7	B-Ph8	B-Ph9	B-Ph10	B-Ph11	B-Ph12	B-Ph13	B-Ph14	B-Ph15	B-Ph16	aux-1	digaux	

7217.190	1	1	0	512	0.11742	0.089073	0.31589	0.058634	0.0090515	0.050909	0.11329	0.093059	0.19078	0.13031	0.25069	0.22076	0.064873	0.13788	0.083999	0.080925	-2.1688	-3.1583	-2.5062	-2.9833	-2.9188	-2.4417	-3.2542	-2.6688	-2.8667	-3.4375	-2.4917	-3.0542	-2.8354	-2.4042	-3.2521	-2.7417	279.525	423.401	351.884	355.203	338.034	333.121	101.064	282.080	232.300	303.737	385.938	84.515	176.498	355.220	376.360	264.910	0.00021634	0.00072099	0.00020433	200.45	1.5522e-05	1.0523e-05	369.04	88.188	9.2158e-06	5.9237e-06	165.41	68.623	37.468	19.795	1.5233e-05	37.898	0.004213	0.0042683	0.0011865	627.08	4.7538e-05	4.6626e-05	688.37	201.65	4.7357e-05	4.674e-05	397.46	128.93	97.214	39.45	4.6998e-05	65.199	195.760	364.797	172.290	94.127	168.925	339.155	92.747	99.496	283.238	394.731	96.559	102.003	104.636	108.207	184.723	104.518	-8191	255	
7217.285	1	1	0	0	0.20529	0.26842	0.066215	0.21847	0.15741	0.027706	0.18622	0.20953	0.080887	0.2165	0.26608	0.06458	0.16656	0.13768	0.10033	0.092896	-2.2917	-3.1229	-2.425	-2.9	-2.9479	-2.4208	-3.2854	-2.7667	-2.6104	-3.2854	-2.6188	-2.9667	-2.9625	-2.4667	-3.3271	-2.8875	277.303	344.293	412.321	146.809	273.400	390.945	131.195	280.561	311.117	409.127	400.710	384.290	425.822	94.756	166.182	326.895	0.00037621	0.00088742	0.00019248	203.93	1.6471e-05	1.8337e-05	369.91	87.886	1.3498e-05	6.295e-06	166.85	67.689	37.276	20.067	6.0304e-06	37.969	0.0041498	0.0042113	0.0012056	627.81	4.707e-05	4.606e-05	693.18	200.56	4.6861e-05	4.6194e-05	402.58	128.11	96.287	39.342	4.8055e-05	64.708	254.807	286.608	174.764	94.488	222.688	404.748	93.566	99.082	354.347	429.180	97.878	101.514	105.245	107.307	204.915	104.671	-8191	255	
7217.383	1	1	0	0	0.22935	0.23097	0.21527	0.18621	0.1484	0.23025	0.030323	0.27822	0.11169	0.066994	0.18018	0.11188	0.10806	0.15599	0.30067	0.17804	-1.925	-3.4167	-2.5896	-2.7354	-3.075	-2.2875	-3.1354	-2.7083	-2.5563	-3.4604	-2.4958	-2.7812	-3.3542	-2.3854	-3.0229	-3.0687	183.364	132.514	222.304	180.567	364.606	418.040	97.395	213.325	82.277	217.980	144.678	84.235	333.811	120.986	197.720	381.045	0.00036688	0.0018648	0.00010639	199.43	8.2273e-06	1.5603e-05	369.89	87.672	2.4314e-06	6.9788e-06	165.18	68.603	37.3	19.913	1.0216e-05	37.614	0.0041239	0.0041732	0.0012159	612.98	4.5953e-05	4.5332e-05	692.44	196.75	4.5362e-05	4.5535e-05	401.75	126.5	95.332	39.325	4.8179e-05	64.298	213.944	171.473	293.590	95.193	245.398	111.339	94.422	100.199	228.124	197.379	97.798	102.017	104.400	107.319	402.441	105.612	-8191	255	
7217.477	1	1	0	0	0.19125	0.23241	0.29422	0.12634	0.092234	0.13855	0.17956	0.2372	0.22455	0.10899	0.12612	0.16193	0.28112	0.17129	0.22804	0.29676	-1.9688	-3.3	-2.6063	-2.7021	-3.2875	-2.4479	-2.8604	-2.9792	-2.4188	-3.2646	-2.6458	-2.7708	-3.3042	-2.4646	-3.1188	-3.025	164.540	350.705	248.812	140.620	330.938	127.051	429.984	315.581	184.197	232.250	361.267	319.014	424.660	186.560	171.989	395.579	6.2382e-05	0.00040182	0.00019878	200.4	3.8944e-06	2.7418e-05	367.31	87.744	5.0524e-06	3.8822e-05	168.12	69.286	37.548	20.295	2.6284e-05	37.936	0.0040631	0.0042314	0.0012289	609.26	4.5523e-05	4.6282e-05	694.17	196.17	4.5044e-05	4.6509e-05	403.62	126.59	95.048	39.819	4.7761e-05	64.125	92.455	354.388	315.247	93.867	372.585	227.655	93.236	99.879	227.396	213.276	97.606	101.830	105.169	107.910	158.252	105.131	-8191	255	
7217.573	1	1	0	0	0.19253	0.10711	0.10235	0.15857	0.40737	0.083329	0.062978	0.14624	0.16608	0.20391	0.12087	0.21323	0.088738	0.15373	0.33007	0.06318	-2.0521	-3.2958	-2.6021	-2.7208	-3.2021	-2.425	-2.9396	-3.325	-2.4437	-3.25	-3.0479	-2.6229	-3.1417	-2.6042	-2.6229	-3.3167	83.232	328.235	359.160	438.686	186.279	300.620	250.879	351.850	169.240	157.242	396.523	131.280	340.137	375.175	207.225	186.488	0.000734	0.00047672	0.00020336	203.1	1.136e-05	1.0274e-05	372.01	88.571	9.6907e-06	1.421e-05	164.04	68.953	37.109	20.213	1.0201e-05	37.773	0.0040047	0.0042787	0.0012159	608.15	4.5415e-05	4.7616e-05	696.6	197.26	4.555e-05	4.8033e-05	405.74	127.04	95.45	40.407	4.7549e-05	64.134	238.294	129.356	108.213	93.540	395.433	236.028	93.340	99.272	182.863	138.436	98.228	102.197	104.343	107.570	239.420	105.153	-8191	255	
7217.669	1	1	0	0	0.25351	0.13235	0.029302	0.20353	0.047563	0.11437	0.1115	0.40119	0.044239	0.22009	0.17497	0.13489	0.06134	0.093339	0.30839	0.20481	-1.9333	-3.1833	-2.85	-2.2542	-3.2229	-2.4667	-2.7583	-3.2729	-2.2583	-2.9583	-2.9604	-2.3979	-3.2062	-2.6604	-2.5958	-3.2438	390.622	148.325	356.563	364.850	162.783	156.901	147.949	423.035	155.452	136.256	374.353	112.157	431.067	149.778	336.879	372.249	0.00051598	0.00059058	0.00031872	199.81	1.0477e-05	1.5918e-05	370.67	86.725	9.9857e-06	5.7094e-06	166.69	68.565	37.241	19.878	5.108e-06	37.693	0.0040532	0.0043634	0.0012079	603.62	4.5606e-05	4.8026e-05	689.78	194.41	4.5567e-05	4.7822e-05	399.07	125.64	95.89	40.133	4.6935e-05	63.245	218.983	132.026	326.675	95.393	132.876	263.022	93.771	100.104	247.534	144.283	98.004	102.530	103.988	108.001	316.973	105.060	-8191	255	
7217.790	1	1	0	0	0.19695	0.074909	0.03188	0.034272	0.18468	0.18348	0.26198	0.16337	0.12705	0.060238	0.18317	0.21737	0.2634	0.26305	0.16839	0.17707	-1.9562	-2.9854	-2.9146	-2.4792	-3.075	-2.9833	-2.5438	-3.0146	-2.5375	-2.95	-3.2167	-2.6271	-3.1063	-2.9271	-2.4646	-3.325	106.656	422.527	290.257	180.241	407.968	87.137	119.305	156.015	160.222	152.670	428.961	317.061	403.591	342.579	123.163	116.461	0.00036054	0.0012932	0.00016394	196.84	9.9781e-06	1.2889e-05	363.74	88.514	3.8656e-06	2.2305e-05	163.21	69.592	37.396	20.162	5.5698e-06	38.102	0.0040948	0.0043235	0.0011851	593.41	4.6073e-05	4.7313e-05	681.48	192.3	4.6066e-05	4.7008e-05	392.14	124.82	96.086	39.819	4.5858e-05	63.175	214.001	210.776	391.309	94.230	284.948	211.167	93.422	99.713	288.408	186.819	96.793	101.817	104.698	107.342	364.515	104.990	-8191	255	
7217.886	1	1	0	0	0.12742	0.069471	0.026509	0.019496	0.13944	0.09156	0.25112	0.07229	0.18406	0.3795	0.14622	0.020145	0.073213	0.20727	0.098405	0.03487	-2.1417	-2.9062	-3.1521	-2.5875	-3.1792	-2.8542	-2.5333	-3.3042	-2.5312	-2.7667	-3.2125	-2.5854	-3.1688	-2.8542	-2.5396	-3.3792	352.029	161.424	164.464	334.897	296.909	402.780	178.991	153.532	431.830	396.543	338.180	253.759	333.585	394.565	265.708	326.905	0.00046004	0.0014724	0.0001685	202.44	1.8755e-05	1.7493e-05	366.58	88.79	1.7989e-05	1.3702e-05	167.45	70.398	38.183	20.252	1.4342e-05	38.482	0.0041255	0.0042639	0.0011692	594.92	4.6743e-05	4.7158e-05	682.15	194.17	4.7124e-05	4.6726e-05	395.79	127.1	98.15	40.05	4.598e-05	64.064	192.372	363.743	147.991	94.324	226.731	246.529	93.276	99.687	153.435	422.767	97.854	101.792	104.597	107.687	85.169	105.248	-8191	255	
7217.982	1	1	0	0	0.28245	0.24074	0.08632	0.14769	0.020941	0.19425	0.16303	0.076228	0.097712	0.095343	0.21303	0.15668	0.20377	0.16215	0.13629	0.15464	-2.3438	-2.8167	-3.3792	-2.6083	-3.1521	-3.1562	-2.6708	-3.2938	-2.625	-2.8042	-3.3063	-2.4437	-3.0333	-2.9854	-2.3417	-3.2271	327.298	405.019	283.653	134.556	166.465	212.027	110.901	273.573	190.537	89.504	414.870	351.193	280.289	117.477	377.717	99.906	0.00048892	0.0017003	0.00041223	203.46	1.4535e-05	7.3613e-06	371.78	90.251	1.2233e-05	2.1782e-05	169.22	70.841	38.337	20.256	1.2589e-05	38.107	0.0042375	0.0042848	0.0011784	606.65	4.7722e-05	4.7205e-05	686.22	197.6	4.7967e-05	4.7128e-05	397.39	129.43	99.042	40.229	4.6069e-05	64.718	253.910	334.384	205.716	94.312	329.605	252.957	93.339	100.675	180.143	134.669	97.419	101.848	104.530	107.856	180.915	105.060	-8191	255	
7218.079	1	1	0	0	0.16952	0.03154	0.078447	0.093042	0.13686	0.31171	0.068756	0.025227	0.11314	0.099942	0.055493	0.20227	0.30103	0.28778	0.16839	0.26171	-2.2	-2.5687	-3.2104	-2.4188	-3.0417	-3.1375	-2.4854	-3.3354	-2.9562	-2.3812	-3.4792	-2.7875	-2.7083	-3.5	-2.5375	-3.1958	344.088	294.014	349.898	223.491	297.642	423.847	396.754	196.652	152.115	413.539	230.370	425.286	432.057	85.599	416.825	395.736	0.00061524	0.0017311	0.00019147	204.65	1.1893e-05	1.4729e-05	366.06	88.462	3.3009e-06	8.2238e-06	162.2	70.323	38.233	20.029	1.4592e-05	37.827	0.0042572	0.0042891	0.0011769	616.66	4.7698e-05	4.7343e-05	681.43	199.07	4.7928e-05	4.7441e-05	396.9	129.96	99.053	40.092	4.6804e-05	65.348	255.368	358.955	354.403	94.146	101.811	340.612	93.333	99.957	379.227	307.304	98.276	102.285	104.793	108.590	228.818	105.085	-8191	255	
7218.175	1	1	0	0	0.13428	0.10513	0.075303	0.094946	0.07575	0.16068	0.30018	0.26052	0.15794	0.10319	0.089151	0.30828	0.069317	0.21074	0.17415	0.042876	-2.6396	-2.5938	-3.1333	-2.7292	-2.8333	-3.1583	-2.5687	-3.2062	-2.8833	-2.4354	-3.3479	-2.7542	-2.6562	-3.5208	-2.25	-3.2	377.379	224.306	147.939	437.265	183.209	240.176	393.762	370.883	417.716	154.571	125.472	113.810	352.377	396.468	417.291	405.739	0.00028864	0.00063242	0.00022034	199.8	2.1399e-05	1.0142e-05	367.99	89.425	6.0639e-06	8.3367e-06	167.25	69.426	37.548	20.092	6.7011e-06	38.357	0.0043065	0.0043249	0.0011959	628.73	4.8085e-05	4.7463e-05	689.28	201.76	4.7827e-05	4.7168e-05	401.03	130.82	98.369	39.92	4.7294e-05	65.595	214.647	422.470	135.525	93.920	231.836	232.521	93.578	100.511	220.526	332.411	97.209	101.907	103.962	107.667	394.759	105.258	-8191	255	
7218.271	1	1	0	0	0.18926	0.15088	0.1943	0.28983	0.10687	0.023222	0.042055	0.1608	0.049092	0.2443	0.074212	0.24674	0.17282	0.13077	0.11129	0.30438	-2.6146	-2.5625	-3.4229	-2.7396	-2.7271	-3.2625	-2.6729	-2.85	-3.1792	-2.5646	-3.1667	-2.9604	-2.4271	-3.2479	-2.4875	-2.9479	373.042	201.740	345.566	253.903	119.298	322.639	388.829	300.579	358.233	175.081	235.532	405.548	397.244	121.941	293.493	309.008	0.00026565	0.00082928	0.00014005	198.32	2.0789e-05	1.5009e-05	367.89	89.241	1.0466e-05	1.1633e-05	168.61	70.232	38.09	20.294	9.697e-06	38.423	0.0042416	0.0042578	0.0012118	629.45	4.726e-05	4.646e-05	693.86	201.07	4.7007e-05	4.6316e-05	404.36	130.44	97.586	39.666	4.8091e-05	65.411	254.183	132.193	139.364	94.279	294.336	346.145	92.686	99.700	421.254	119.265	96.895	101.448	103.433	107.183	213.328	104.622	-8191	255	
7218.390	1	1	0	0	0.069029	0.22381	0.20259	0.096584	0.19294	0.23208	0.033877	0.22258	0.20475	0.15313	0.10087	0.35395	0.03856	0.25042	0.046131	0.13487	-2.8167	-2.2896	-3.3187	-2.9083	-2.4479	-3.5417	-2.6333	-2.7208	-3.2958	-2.3396	-3.2104	-2.9979	-2.6	-3.2625	-2.5417	-2.7479	85.172	273.837	115.758	184.252	329.352	86.090	129.038	404.059	433.054	218.822	401.041	388.802	190.700	418.830	407.936	120.635	0.00013087	0.00065824	0.00071967	199.44	5.6663e-06	2.4237e-05	369.83	88.774	2.0791e-06	2.1184e-05	166.98	70.395	37.837	20.264	5.9045e-06	37.997	0.0041803	0.0041859	0.0012156	617.75	4.639e-05	4.5819e-05	693.89	198.29	4.5847e-05	4.5458e-05	401.89	128.76	95.782	39.305	4.7269e-05	64.045	212.175	271.067	147.556	93.020	254.574	237.639	92.375	99.391	259.653	200.779	96.913	101.501	103.690	107.322	251.014	104.683	-8191	255	
7218.486	1	1	0	0	0.30887	0.047717	0.029743	0.23521	0.12843	0.23282	0.097989	0.19451	0.1335	0.18053	0.22324	0.16528	0.13468	0.11482	0.16571	0.037367	-2.8583	-2.325	-3.1688	-3.0896	-2.3875	-3.3396	-2.7625	-2.7396	-3.2875	-2.6146	-3.0833	-2.9833	-2.6333	-3.1875	-2.7042	-2.6646	357.400	85.642	392.277	251.992	105.903	422.106	421.718	137.622	290.059	99.666	302.811	436.586	120.726	426.966	155.661	221.179	0.00034799	0.0012621	0.00021431	200.39	1.1045e-05	1.5083e-05	369.86	88.349	1.5544e-05	9.6238e-06	166.14	69.22	37.985	20.1	1.9681e-05	37.806	0.004032	0.0041444	0.0011994	607.44	4.5011e-05	4.5565e-05	692.08	196.55	4.5256e-05	4.6252e-05	402.45	127.79	95.502	39.676	4.7682e-05	63.94	289.578	151.309	181.969	92.886	112.208	216.504	93.038	99.284	367.726	138.376	96.934	101.006	103.143	106.961	192.738	104.158	-8191	255	
7218.582	1	1	0	0	0.084367	0.083143	0.090994	0.08764	0.29998	0.1284	0.089656	0.33126	0.11656	0.15375	0.2645	0.25851	0.11394	0.21692	0.23868	0.075276	-2.8979	-2.4104	-2.9146	-3.0708	-2.3833	-3.2583	-2.9583	-2.5396	-3.2833	-2.7146	-2.8729	-3.2687	-2.4562	-3.2479	-2.8667	-2.5396	147.870	434.382	276.417	141.839	440.483	147.209	211.779	96.017	152.364	367.035	177.696	407.490	387.889	406.129	352.924	269.981	0.00023057	0.0022745	0.00031439	202.45	1.5068e-05	1.7868e-05	368.56	88.481	7.8642e-06	2.1625e-05	167.43	69.781	38.429	20.343	1.6944e-05	38.319	0.0040063	0.0042113	0.0011965	604.91	4.4785e-05	4.6413e-05	690.13	195.71	4.4897e-05	4.6951e-05	400.81	127.62	95.188	40.116	4.7244e-05	64.39	253.063	408.895	368.505	94.209	232.754	225.919	93.009	99.809	371.156	324.108	96.231	101.617	103.144	107.064	313.270	104.795	-8191	255	
7218.654	1	1	0	0	0.057659	0.13084	0.06461	0.29656	0.13422	0.13345	0.33903	0.31032	0.10396	0.28778	0.069678	0.22172	0.12311	0.24023	0.07431	0.12873	-2.9188	-2.7188	-2.8187	-3.2542	-2.5708	-3.025	-3.0187	-2.6021	-3.2875	-2.5667	-2.9188	-3.2958	-2.2396	-3.3083	-3.1021	-2.4875	355.233	232.340	431.478	169.646	138.337	330.215	408.881	369.131	403.112	127.461	387.925	82.166	176.427	331.071	206.407	385.041	0.00058634	0.00030911	0.00021875	202.35	2.2905e-05	1.7816e-05	371.29	88.256	4.2182e-06	2.6848e-05	168.02	69.553	38.555	20.318	1.0203e-05	38.123	0.0040369	0.0043415	0.0011984	608.58	4.5283e-05	4.7297e-05	693.47	195.72	4.5492e-05	4.73e-05	399.22	126.55	95.903	40.323	4.6607e-05	63.721	239.303	109.011	202.628	93.281	243.263	189.430	92.339	99.192	394.096	244.750	97.155	101.325	103.500	107.208	212.208	104.394	-8191	255	
7218.774	1	1	0	0	0.11567	0.13101	0.22769	0.1354	0.060383	0.077916	0.047999	0.15398	0.044948	0.15112	0.16109	0.057479	0.1322	0.14814	0.1495	0.061679	-2.9479	-2.6542	-2.6542	-3.3812	-2.5854	-3.1083	-3.1229	-2.7042	-3.2854	-2.5896	-2.6542	-3.4833	-2.2	-3.0396	-3.0917	-2.6146	314.679	232.851	371.191	155.134	321.302	316.789	259.238	214.186	84.790	94.740	280.830	276.001	282.257	419.758	396.125	111.326	0.00054774	0.0011058	0.00020788	203.39	1.0255e-05	1.2382e-05	370.75	89.694	5.944e-06	1.2528e-05	166.14	69.839	37.976	20.483	1.3387e-05	37.815	0.0040532	0.0042998	0.0011832	600.64	4.5649e-05	4.7061e-05	685.49	194.28	4.597e-05	4.7267e-05	395.09	125.51	96.029	39.994	4.5939e-05	63.003	234.865	425.838	431.475	94.264	336.021	280.525	92.960	99.583	156.688	441.505	97.345	101.575	103.991	107.514	176.845	104.545	-8191	255	
7218.870	1	1	0	0	0.086643	0.20352	0.071278	0.042397	0.074975	0.20121	0.065877	0.030465	0.16702	0.17101	0.23553	0.34045	0.012527	0.067137	0.25067	0.081541	-2.9417	-2.8187	-2.4771	-3.3312	-2.5729	-3.1	-3.45	-2.5083	-3.1104	-2.9896	-2.3833	-3.4104	-2.7188	-2.9271	-3.2812	-2.4771	219.966	137.122	181.161	351.659	166.834	100.452	320.094	166.596	346.262	114.674	431.479	390.047	198.159	351.434	242.521	361.508	0.00059798	0.0025153	0.00058332	206.07	2.4415e-05	1.1973e-05	366.02	89.563	2.892e-06	2.0081e-05	166.92	70.93	37.823	20.394	5.093e-06	37.952	0.0040759	0.004254	0.0011633	595.89	4.6374e-05	4.6675e-05	683.16	193.65	4.6517e-05	4.6729e-05	395.6	126.23	97.799	40.005	4.5882e-05	63.422	234.606	306.332	297.970	93.448	180.466	403.393	92.430	99.507	303.428	91.160	97.186	101.091	102.954	107.248	293.211	104.444	-8191	255	
7218.967	1	1	0	0	0.032666	0.086609	0.043705	0.25062	0.10649	0.18167	0.143	0.066909	0.23124	0.10519	0.026145	0.19433	0.10257	0.29578	0.33193	0.25161	-2.8896	-2.9458	-2.6188	-3.4	-2.7396	-2.8729	-3.3125	-2.1729	-3.0125	-3.1542	-2.4479	-3.4354	-2.8354	-2.6979	-3.3833	-2.4083	388.257	204.121	175.328	237.535	87.223	237.804	181.784	224.515	142.348	181.672	315.945	90.660	146.638	102.458	425.832	370.227	0.00042104	0.00096181	0.0001513	205.14	2.9644e-05	5.6474e-06	368.15	91.27	4.5303e-06	1.5302e-05	169.97	70.711	39.323	20.369	8.75e-06	38.175	0.0041636	0.0042469	0.0011677	602.47	4.6899e-05	4.6406e-05	681.76	196.42	4.669e-05	4.6456e-05	393.42	127.22	98.175	39.913	4.5593e-05	64.28	220.948	161.715	294.377	93.517	176.604	426.946	93.021	99.535	183.594	415.798	96.484	101.476	103.674	106.754	184.279	104.847	-8191	255	
7219.063	1	1	0	0	0.10824	0.114	0.25084	0.055272	0.23948	0.12254	0.17497	0.1449	0.23858	0.42601	0.1226	0.19833	0.22347	0.09925	0.27352	0.22421	-2.55	-3.1688	-2.55	-3.4437	-2.6188	-2.7396	-3.2875	-2.5708	-2.9875	-3.2396	-2.55	-3.1813	-2.6917	-2.7167	-3.2021	-2.7667	237.706	335.470	144.096	195.400	135.207	403.122	256.026	341.269	168.564	388.801	169.353	302.424	427.016	266.801	127.211	379.515	0.00032401	0.0012897	0.0001858	205.5	4.3411e-06	1.0438e-05	372.51	90.987	8.3838e-06	1.5084e-05	166.86	69.81	38.025	20.065	1.3647e-05	37.907	0.0041687	0.0042487	0.0011557	609.29	4.7096e-05	4.6216e-05	679.53	198.05	4.6462e-05	4.6038e-05	392.13	127.53	97.704	39.579	4.524e-05	64.137	221.877	187.140	181.869	93.759	140.066	239.020	92.977	99.763	117.982	310.047	97.063	101.830	104.278	106.897	179.955	104.934	-8191	255	
7219.182	1	1	0	0	0.21958	0.13288	0.28059	0.10393	0.14021	0.18428	0.15734	0.032947	0.069849	0.07799	0.084305	0.12214	0.16407	0.16604	0.15115	0.36711	-2.3438	-3.2292	-2.5062	-3.1875	-2.8396	-2.475	-3.4667	-2.6833	-2.7083	-3.1188	-2.4917	-3.1854	-3.0229	-2.5125	-3.1167	-2.6042	358.526	365.718	281.948	146.170	92.707	346.215	81.708	124.810	220.172	250.144	268.730	384.309	289.697	150.377	358.608	416.269	0.00033646	0.0015735	0.00014518	208.13	2.8478e-05	8.2464e-06	366.31	90.06	2.1892e-05	1.3821e-05	165.45	68.818	38.289	20.19	1.4206e-05	37.605	0.004125	0.004187	0.0011471	612.51	4.6122e-05	4.5447e-05	676.91	198.6	4.6009e-05	4.5554e-05	389.67	127.48	96.718	39.459	4.5642e-05	64.227	234.495	292.372	161.160	95.036	280.554	238.082	93.153	99.545	166.193	158.653	97.060	101.504	103.625	107.284	150.695	104.913	-8191	255	
7219.255	1	1	0	0	0.18643	0.07541	0.19471	0.24389	0.10545	0.21044	0.29303	0.12881	0.20607	0.30653	0.11492	0.33362	0.17518	0.25322	0.32486	0.19182	-2.2396	-3.2667	-2.3812	-3	-3.1208	-2.4729	-3.3042	-2.9604	-2.6083	-3.2375	-2.5646	-3.2083	-3.0854	-2.4938	-3.1333	-2.9354	121.775	148.808	122.070	408.780	130.435	280.593	278.229	412.772	94.893	408.380	367.855	121.936	299.080	96.156	100.905	107.182	0.00044691	0.0013778	0.0004961	208.9	2.1725e-05	1.1404e-05	375.87	88.995	5.9138e-06	1.0054e-05	166.74	69.197	38.15	20.148	5.2085e-06	37.667	0.0041078	0.0041583	0.0011718	618.01	4.6246e-05	4.5304e-05	685.1	199.58	4.5804e-05	4.5163e-05	396.55	127.68	96.768	39.201	4.662e-05	64.451	242.818	373.075	244.125	94.192	415.630	309.671	92.853	99.436	223.873	265.303	97.428	101.791	104.558	107.919	216.847	104.901	-8191	255	
7219.351	1	1	0	0	0.25681	0.3338	0.39137	0.098712	0.027054	0.12663	0.29866	0.13895	0.20513	0.21541	0.27051	0.21051	0.085352	0.31437	0.23875	0.27507	-2.2375	-3.225	-2.5938	-2.8729	-3.2625	-2.5792	-3.2104	-2.6813	-2.6562	-3.3667	-2.4979	-3.1667	-3.0479	-2.3417	-3.3271	-3.1083	86.301	202.431	223.293	347.905	155.821	127.762	414.487	390.820	284.012	437.490	104.868	255.897	294.650	89.244	94.877	401.576	0.00010344	0.00055982	0.00037806	200.15	1.4295e-05	1.9092e-05	373.4	89.321	2.5321e-05	7.1439e-06	169.44	69.35	38.68	20.289	1.3562e-05	37.522	0.0041204	0.0041727	0.0012032	620.88	4.6395e-05	4.5798e-05	696.79	201	4.6207e-05	4.5767e-05	405.87	129	97.333	39.661	4.8006e-05	64.533	258.356	335.883	185.094	94.892	292.539	267.583	92.963	99.999	326.057	232.052	96.863	101.900	103.532	107.165	327.880	105.109	-8191	255	
7219.470	1	1	0	0	0.32607	0.16141	0.29366	0.10767	0.20879	0.15244	0.31783	0.27534	0.31494	0.11916	0.18987	0.10854	0.078669	0.11703	0.22452	0.11464	-2.2062	-3.3625	-2.6937	-3.0187	-3.1292	-2.6833	-3.1375	-3.0625	-2.4958	-3.1437	-2.7146	-2.525	-3.3042	-2.5062	-3.0917	-2.9979	430.675	148.326	130.756	384.869	395.328	225.516	377.747	432.802	143.645	182.540	88.870	123.278	156.049	293.580	305.351	297.865	0.00034849	0.0017496	0.00033517	204.43	1.9926e-05	1.8012e-05	375.24	89.522	7.5356e-06	1.0893e-05	167.14	68.71	37.877	20.039	3.7197e-06	36.934	0.0041145	0.0042044	0.0012333	621.1	4.6474e-05	4.6388e-05	703.85	201.66	4.6669e-05	4.7217e-05	412.71	128.6	97.157	39.892	4.8829e-05	63.966	268.029	172.520	195.175	95.314	411.593	234.269	93.186	99.959	381.914	303.265	96.192	102.198	103.558	107.281	426.955	105.108	-8191	255	
7219.566	1	1	0	0	0.076903	0.13766	0.36507	0.18957	0.24085	0.052389	0.25175	0.23759	0.085999	0.2083	0.22239	0.13445	0.11191	0.30265	0.036563	0.080034	-2.1229	-3.2875	-2.7854	-2.6875	-3.3042	-2.4458	-2.9542	-3.1437	-2.4	-3.2062	-2.6833	-2.5771	-3.2167	-2.9813	-2.8229	-3.2917	143.301	297.775	427.689	368.773	431.653	83.150	300.712	297.866	88.710	340.787	91.313	329.956	168.513	230.051	213.211	99.224	0.00044915	0.0024061	0.00016247	205.19	2.2254e-05	2.1034e-05	368.4	90.458	1.4204e-05	2.0114e-05	166.34	68.505	37.205	19.964	1.3864e-05	37.018	0.0041215	0.0043258	0.0012432	623.31	4.6758e-05	4.8116e-05	705.76	202.13	4.6775e-05	4.8698e-05	414.44	129.09	97.253	40.571	4.9139e-05	64.506	268.810	256.667	210.532	94.055	231.152	189.342	92.830	99.002	271.720	414.784	97.601	101.599	104.662	107.336	173.368	105.238	-8191	255	
7219.662	1	1	0	0	0.38667	0.07184	0.26568	0.31015	0.13532	0.19258	0.084265	0.22455	0.27547	0.18057	0.22568	0.083701	0.20924	0.1298	0.14176	0.23226	-1.8667	-3.2479	-2.9521	-2.4958	-3.3667	-2.6125	-2.9146	-3.2667	-2.4479	-3.1146	-2.9292	-2.3812	-3.4042	-2.4062	-2.7271	-3.2854	116.928	275.239	173.916	372.898	267.070	361.681	242.239	372.153	412.152	182.058	431.218	128.109	277.136	396.649	270.753	317.633	0.00041671	0.002237	0.00027436	203.35	7.0019e-06	1.3541e-05	374.42	89.007	1.7025e-05	1.9649e-05	168.1	69.377	37.744	20.01	1.0977e-05	37.215	0.0041887	0.0044918	0.0012658	628.44	4.7636e-05	4.9734e-05	713.06	203.77	4.7794e-05	5.005e-05	417	129.58	99.071	41.361	4.9744e-05	64.967	225.143	342.359	268.821	93.352	389.853	248.308	93.755	100.330	266.818	218.322	97.305	102.230	104.107	108.274	196.721	104.722	-8191	255	
7219.783	1	1	0	0	0.12286	0.12605	0.20659	0.020777	0.23788	0.10772	0.067786	0.15315	0.30875	0.23786	0.039199	0.18491	0.10821	0.26169	0.24033	0.17331	-2.1917	-2.9062	-3.1521	-2.3458	-3.3396	-2.5979	-2.625	-3.2562	-2.4042	-3.0333	-2.975	-2.5375	-3.1417	-2.8667	-2.6521	-3.4896	325.452	338.817	430.271	85.715	222.625	213.902	85.097	434.009	163.494	199.301	124.583	393.204	319.361	101.994	190.846	190.770	0.00052145	0.0009595	0.00020237	205.56	6.6206e-06	5.2891e-06	376.37	90.013	7.1482e-06	3.5195e-05	170.67	69.611	38.121	20.221	9.9893e-06	37.685	0.0042965	0.0045901	0.0012689	629.51	4.8499e-05	5.0483e-05	713.45	202.85	4.8427e-05	5.0307e-05	416.27	129.18	99.534	41.078	4.8874e-05	64.171	227.394	164.073	127.422	94.442	320.609	364.360	93.435	99.714	94.711	204.191	97.114	101.827	104.426	107.403	302.768	105.247	-8191	255	
7219.855	1	1	0	0	0.062375	0.20665	0.28418	0.21277	0.090239	0.20291	0.074606	0.22083	0.08919	0.099389	0.074149	0.083137	0.075843	0.3324	0.09072	0.18269	-1.9354	-3.0312	-3.0062	-2.5354	-3.1667	-2.9646	-2.7875	-3.1646	-2.6792	-2.8146	-3.2438	-2.4146	-3.3354	-2.8625	-2.5062	-3.4313	406.989	270.847	217.281	303.928	208.457	437.409	199.308	123.090	440.519	99.857	101.150	197.141	294.833	315.141	233.406	112.982	6.7993e-05	0.00054296	0.00025306	204.35	1.655e-05	8.1353e-06	374.92	90.971	1.3144e-06	1.5601e-05	171.87	68.673	38.513	20.025	1.5039e-05	37.33	0.0043228	0.0045214	0.0012434	618.62	4.8899e-05	4.9543e-05	706.72	200.26	4.9006e-05	4.9181e-05	411.41	128.31	100.85	40.923	4.8891e-05	64.283	278.291	179.399	144.728	94.606	212.181	94.994	93.328	100.179	109.822	98.126	96.596	102.141	104.016	107.275	419.250	105.070	-8191	255	
7219.951	1	1	0	0	0.23359	0.26276	0.13202	0.2051	0.17391	0.15232	0.14227	0.051735	0.15898	0.12472	0.18014	0.17057	0.08912	0.15052	0.35723	0.070783	-2.0292	-2.9396	-3.0187	-2.5521	-3.2521	-2.7354	-2.5104	-3.2146	-2.6271	-2.7875	-3.5083	-2.5187	-3.1958	-3.0625	-2.5125	-3.2708	428.303	232.545	115.708	141.831	162.947	289.245	364.655	112.495	263.748	234.550	282.413	135.226	395.663	426.991	301.794	310.950	0.00037309	0.00021442	0.00013162	203.56	1.1298e-05	9.66e-06	369.36	90.686	1.7421e-05	1.5927e-05	168.98	68.828	37.769	19.891	3.1106e-06	37.169	0.0044586	0.0045722	0.0012651	631.45	5.0572e-05	5.042e-05	707.73	203.43	5.0574e-05	4.9982e-05	413.3	129.87	101.82	41.193	4.9275e-05	65.256	222.407	295.923	197.715	93.999	191.168	151.794	93.088	100.300	224.695	354.812	97.012	101.344	103.301	107.498	160.720	104.494	-8191	255	
7220.071	1	1	0	0	0.1294	0.13069	0.10253	0.17397	0.36622	0.23132	0.14179	0.21671	0.17737	0.24735	0.12191	0.25906	0.24893	0.31111	0.098361	0.058801	-2.2812	-2.5354	-3.2375	-2.6083	-3.1208	-3.1771	-2.4896	-3.1521	-2.8583	-2.6729	-3.2833	-2.7375	-2.9833	-3.0854	-2.55	-3.1188	238.817	358.877	266.240	297.270	133.505	413.874	337.456	133.894	258.221	287.678	439.255	203.589	153.569	407.750	288.401	192.902	0.0006378	0.00035296	7.618e-05	204.85	2.0968e-05	2.6814e-05	372.56	90.06	8.4505e-06	1.1622e-05	170.59	69.186	38.02	20.057	8.1621e-06	37.426	0.0045347	0.004585	0.0012555	642.55	5.1067e-05	5.0268e-05	708.22	206.69	5.0763e-05	5.0013e-05	414.07	131.79	101.8	40.99	4.8207e-05	65.418	183.974	266.504	404.803	93.427	259.155	259.550	93.612	100.383	260.745	84.813	97.256	102.198	104.222	107.534	124.299	104.997	-8191	255	
7220.168	1	1	0	0	0.24945	0.1439	0.16685	0.16075	0.24483	0.16698	0.17157	0.22538	0.069502	0.08385	0.17994	0.087103	0.15273	0.10014	0.13896	0.16861	-2.5146	-2.5521	-3.1667	-2.5896	-3.0708	-3.4583	-2.4333	-3.2667	-2.95	-2.4875	-3.2792	-2.6354	-2.8167	-3.1896	-2.3063	-3.2854	302.812	373.235	144.502	147.503	310.854	352.921	395.559	167.738	413.541	295.916	260.634	131.671	82.274	434.628	112.683	345.453	0.00036965	0.0005236	0.00024105	204.98	1.1435e-05	1.1223e-05	376.87	89.926	1.2139e-05	2.1694e-05	171.55	68.784	37.577	19.884	7.4819e-06	37.273	0.0044052	0.0044272	0.0012078	633.84	4.8318e-05	4.8054e-05	696.96	204.26	4.8745e-05	4.8131e-05	404.73	130.37	99.439	40.146	4.7405e-05	65.007	260.814	433.577	436.457	93.659	424.480	226.888	93.052	99.569	322.198	249.907	97.838	101.665	103.943	107.406	299.009	104.429	-8191	255	
7220.262	1	1	0	0	0.15685	0.070878	0.15852	0.080355	0.096021	0.23882	0.15572	0.14583	0.19601	0.23408	0.15427	0.085859	0.050294	0.24096	0.29026	0.10226	-2.5917	-2.3563	-3.3896	-2.6271	-2.7562	-3.3937	-2.5521	-3.1583	-3.075	-2.6604	-3.2812	-2.7167	-2.7479	-3.2375	-2.5438	-3.0771	201.558	239.627	188.011	243.176	259.501	251.097	351.831	428.634	120.138	394.855	422.679	134.157	232.271	134.463	389.906	374.042	0.00014796	0.00088447	0.00026599	206.88	1.9667e-06	1.5407e-05	373.12	89.339	1.1237e-05	2.2516e-05	169.17	68.304	37.813	19.931	4.8197e-06	37.307	0.0042907	0.0043249	0.0012127	636.16	4.8283e-05	4.7524e-05	699.23	204.26	4.8409e-05	4.7485e-05	408.28	130.25	98.693	39.811	4.8136e-05	64.98	235.613	251.147	271.698	94.731	300.042	342.049	93.900	100.257	369.656	352.855	97.318	101.876	104.280	107.320	221.756	105.546	-8191	255	
7220.383	1	1	0	0	0.063409	0.028535	0.27526	0.23775	0.16837	0.17874	0.21978	0.17988	0.22826	0.12898	0.17917	0.15481	0.211	0.12367	0.20156	0.13523	-2.825	-2.4354	-3.2333	-2.7208	-2.725	-3.325	-2.7083	-2.9792	-3.3625	-2.3312	-3.1854	-3.0583	-2.4271	-3.4208	-2.5438	-3.0708	347.300	116.896	357.609	324.301	183.413	213.478	333.173	279.979	126.293	434.889	254.490	332.814	292.844	245.323	421.981	355.396	0.00026722	0.0011644	0.00031455	202.58	4.2171e-06	6.266e-06	374.34	88.439	1.379e-05	9.6659e-06	169.42	68.816	37.484	19.961	1.5017e-05	37.433	0.0042733	0.004291	0.0012322	633.98	4.7738e-05	4.7249e-05	706.96	203.85	4.7957e-05	4.7044e-05	411.81	130.29	98.416	39.887	4.9226e-05	65.136	236.798	231.347	114.505	93.994	370.390	420.556	93.872	99.816	433.385	427.430	98.118	102.071	104.880	107.500	389.844	105.772	-8191	255	
7220.479	1	1	0	0	0.008122	0.04613	0.086396	0.14975	0.10787	0.36758	0.29572	0.19704	0.077686	0.12707	0.18867	0.051574	0.43221	0.0062232	0.013367	0.33965	-2.9125	-2.325	-3.2646	-3.1958	-2.3125	-3.5312	-2.5396	-2.7167	-3.2917	-2.5833	-3.2271	-3.0563	-2.6208	-3.2958	-2.8333	-2.7896	381.192	92.443	149.191	368.064	185.609	432.278	395.858	94.186	324.588	110.443	432.635	411.000	360.636	180.647	230.759	381.799	0.00031733	0.0015528	0.00035667	206.16	1.8056e-06	2.9696e-05	375.3	90.072	1.648e-05	1.1812e-05	170.82	68.835	37.534	19.986	1.3535e-05	37.325	0.0042518	0.0043051	0.0012602	634.46	4.7951e-05	4.7835e-05	720.27	205.97	4.8778e-05	4.8917e-05	426.22	132.27	100.35	40.764	5.1396e-05	65.69	236.785	248.838	201.026	94.358	426.719	267.711	93.719	100.080	270.895	142.664	98.048	101.976	104.919	107.713	158.082	105.353	-8191	255	
7220.550	1	1	0	0	0.13315	0.2638	0.1649	0.15707	0.34122	0.25712	0.025597	0.10535	0.084937	0.026547	0.19164	0.13318	0.1035	0.20777	0.092515	0.085159	-3	-2.4271	-3.0917	-3.1458	-2.5854	-3.3354	-2.9271	-2.6646	-3.4583	-2.6292	-3.1771	-3.1854	-2.4542	-3.4167	-2.9354	-2.7104	337.396	170.897	410.276	138.195	135.013	125.507	389.147	190.230	343.383	245.662	373.964	119.295	115.280	284.319	429.165	291.189	0.00065129	0.00024733	0.0006787	205.87	8.3012e-06	2.4138e-05	380.97	89.853	2.348e-06	7.6932e-06	168.69	68.976	37.615	19.924	8.6387e-06	36.768	0.0043559	0.0045213	0.001304	644.28	4.879e-05	5.0113e-05	730.27	207.1	4.8678e-05	5.0213e-05	425.28	131.73	99.291	40.944	5.0814e-05	65.094	278.719	436.875	286.741	93.602	345.480	265.186	94.172	100.869	95.453	89.692	97.991	102.422	104.526	107.752	317.430	105.736	-8191	255	
7220.647	1	1	0	0	0.29186	0.20119	0.24944	0.085166	0.21548	0.097278	0.26351	0.16289	0.21306	0.2365	0.23951	0.052014	0.36012	0.034383	0.1394	0.099639	-2.9854	-2.5375	-2.9271	-3.2313	-2.525	-3.3146	-2.9	-2.6104	-3.2938	-2.8208	-2.8083	-3.3417	-2.4313	-3.0729	-3.0854	-2.5604	255.670	391.526	409.670	313.396	284.924	258.695	116.387	330.663	248.196	202.185	304.205	224.250	307.474	178.593	347.924	428.622	0.00037795	0.0016498	0.00055399	204.75	1.0875e-05	1.8601e-06	374.26	89.953	1.197e-05	1.4554e-05	169.47	68.468	37.975	19.964	4.1863e-06	37.002	0.0042933	0.0045957	0.0012922	640.79	4.8183e-05	5.0277e-05	720.81	204.14	4.8051e-05	5.0559e-05	419.28	130.04	98.614	41.165	5.0271e-05	64.725	304.597	441.933	319.268	94.985	260.598	390.544	94.333	100.691	274.272	302.232	97.563	102.226	104.253	107.343	183.326	105.125	-8191	255	
7220.743	1	1	0	0	0.22264	0.1452	0.043741	0.062052	0.090202	0.24972	0.13891	0.1445	0.22884	0.21172	0.19406	0.39975	0.34917	0.11165	0.30243	0.12017	-2.9667	-2.6708	-2.85	-3.2792	-2.5542	-3.0375	-3.2146	-2.45	-3.2812	-2.8875	-2.4875	-3.4458	-2.65	-3.2604	-3.2271	-2.2854	422.262	251.419	116.648	223.267	201.853	95.797	337.173	367.616	389.605	296.512	259.253	90.562	362.604	262.404	109.732	297.248	0.00040961	0.0010373	0.00010703	201.85	1.3872e-05	1.7475e-06	374.36	90.538	5.4927e-06	6.1581e-06	171.25	68.687	37.574	19.921	8.6234e-06	36.973	0.004285	0.0046331	0.0012751	634.1	4.8617e-05	5.0728e-05	716.11	203.06	4.8767e-05	5.0933e-05	418.41	129.63	100.02	41.308	5.0012e-05	64.595	263.518	369.832	240.981	94.368	213.622	428.486	93.470	100.047	265.613	99.652	96.932	101.782	104.594	107.414	207.432	105.084	-8191	255	
7220.863	1	1	0	0	0.03011	0.10166	0.066448	0.03884	0.43557	0.011913	0.12718	0.23296	0.11324	0.1892	0.26215	0.010956	0.13617	0.14335	0.13718	0.25539	-3.1083	-2.5604	-2.7375	-3.3708	-2.4417	-3.0479	-3.1729	-2.3167	-3.3104	-2.7	-2.4562	-3.5333	-2.4292	-2.7542	-3.2417	-2.4292	102.615	360.238	234.531	164.386	116.734	277.939	356.926	112.511	255.511	383.774	423.513	189.394	128.533	293.559	418.743	84.570	0.00068179	0.0018223	0.00075927	201.59	4.8687e-06	7.2083e-06	376.52	89.676	1.8197e-05	2.6344e-05	170.38	68.771	38.04	19.898	8.4729e-06	36.963	0.0043881	0.0046468	0.0012663	625.64	4.9363e-05	5.0092e-05	712.46	200.5	4.9054e-05	4.9688e-05	411.9	127.78	100.03	40.696	4.8588e-05	63.753	225.114	410.657	175.803	93.885	193.189	102.057	93.691	100.305	177.049	420.241	97.757	101.702	104.892	107.852	193.118	104.815	-8191	255	
7220.960	1	1	0	0	0.11461	0.13338	0.26588	0.14807	0.2017	0.2049	0.045631	0.13978	0.17099	0.1221	0.23907	0.23737	0.031023	0.2519	0.13246	0.084441	-2.6396	-2.8667	-2.5312	-3.2375	-2.5563	-2.8354	-3.2458	-2.5229	-3.15	-2.9646	-2.5167	-3.3187	-2.5312	-2.7	-3.4021	-2.4083	191.562	212.224	365.994	177.596	250.446	87.244	433.391	96.714	280.502	198.370	281.828	396.150	441.742	408.590	204.675	391.654	0.00045808	0.00091975	0.00062131	209.84	8.2836e-06	2.1259e-05	373.65	89.239	7.5956e-06	1.1602e-05	166.77	68.024	37.641	19.695	1.3912e-05	37.004	0.0043449	0.0044991	0.0012288	618.33	4.8924e-05	4.8788e-05	698.55	198.91	4.8661e-05	4.872e-05	404.07	127.17	99.738	40.235	4.7456e-05	63.795	249.176	121.930	380.780	93.652	183.667	297.990	93.310	100.417	313.188	125.205	98.063	101.680	104.661	107.631	266.956	105.234	-8191	255	
7221.056	1	1	0	0	0.13342	0.32057	0.042412	0.029971	0.023756	0.33279	0.13083	0.083712	0.21603	0.34062	0.11857	0.10581	0.14284	0.078944	0.20127	0.14278	-2.6271	-3.1312	-2.55	-3.2375	-2.6917	-2.4646	-3.3083	-2.6021	-2.8875	-3.1312	-2.6875	-3.2875	-2.8917	-2.7667	-3.125	-2.7375	136.651	149.608	364.140	328.154	201.007	143.739	320.633	379.411	120.796	263.894	437.649	409.511	272.095	394.316	338.192	265.485	0.00046794	0.0019326	0.00017991	204.82	4.0889e-06	6.7527e-06	372.22	91.036	7.997e-06	8.4735e-06	170.53	69.339	37.778	20.171	1.4307e-05	37.504	0.0043413	0.004402	0.0011989	617.56	4.9042e-05	4.804e-05	694.32	200.35	4.8683e-05	4.819e-05	402.98	128.88	100.15	40.279	4.7112e-05	64.689	235.620	191.338	274.767	94.570	238.875	291.323	93.513	100.171	348.544	230.072	98.001	102.135	103.870	108.437	345.786	105.250	-8191	255	
7221.152	1	1	0	0	0.061851	0.071667	0.13932	0.26965	0.049118	0.14093	0.038314	0.018619	0.09046	0.1672	0.2151	0.13763	0.069949	0.32775	0.13973	0.24605	-2.4146	-3.15	-2.4833	-2.9771	-2.8354	-2.7687	-3.2083	-2.5708	-3.1042	-3.2625	-2.7104	-3.075	-2.85	-2.6125	-3.1021	-2.8375	357.681	437.856	98.561	313.585	171.210	265.745	421.935	404.259	352.540	342.434	416.783	343.492	136.420	196.827	184.727	429.804	0.00024077	0.0012248	0.00032876	202.67	1.2439e-05	2.0037e-05	373.41	90.14	1.2509e-06	1.2534e-05	171.04	69.348	37.707	19.9	1.4685e-05	37.634	0.0043221	0.004413	0.001196	627.65	4.8463e-05	4.7998e-05	694.08	203.49	4.8448e-05	4.803e-05	404.16	130.45	99.902	40.218	4.7236e-05	65.157	253.640	255.882	235.644	94.792	194.938	113.863	93.311	100.170	243.057	384.514	97.703	102.600	105.605	107.327	273.933	105.316	-8191	255	
7221.248	1	1	0	0	0.066798	0.21291	0.36824	0.076999	0.075568	0.11862	0.28711	0.090627	0.16905	0.13991	0.26132	0.19416	0.22885	0.23546	0.24533	0.055796	-2.2125	-3.4042	-2.4271	-3.2146	-3.0417	-2.4437	-3.1917	-2.8375	-2.7604	-3.3292	-2.5833	-2.9458	-2.9917	-2.5542	-3.1292	-2.5479	315.653	186.824	412.086	309.670	211.768	136.098	383.111	154.921	293.742	259.588	183.354	204.165	309.832	386.489	214.330	309.747	0.0001738	0.0017175	0.00055423	204.05	1.2807e-05	2.3052e-05	377.69	91.409	1.5464e-06	1.9207e-05	169.04	68.656	37.402	19.93	1.9679e-05	36.881	0.004275	0.0043168	0.0011966	631.55	4.8045e-05	4.692e-05	695.11	203.92	4.7394e-05	4.6997e-05	403.86	129.74	98.285	39.615	4.719e-05	64.586	224.797	316.133	142.128	94.741	425.945	156.736	93.925	100.747	372.159	103.345	97.160	101.768	104.852	108.161	230.866	105.537	-8191	255	
7221.344	1	1	0	0	0.031066	0.16771	0.093112	0.2282	0.13851	0.16602	0.087178	0.22696	0.10887	0.068313	0.22374	0.14243	0.084615	0.23477	0.33467	0.13253	-2.2458	-3.0646	-2.4333	-3.1292	-3.05	-2.4333	-3.1542	-2.8292	-2.5979	-3.1417	-2.5312	-3.0312	-3.1417	-2.3396	-3.2313	-2.9021	135.465	346.186	159.056	81.843	374.207	104.192	389.528	284.977	149.803	359.013	427.054	218.923	367.869	360.157	290.790	93.437	0.00038703	0.0010855	0.00028623	203.82	1.0446e-05	1.6516e-05	371.99	89.461	5.322e-06	5.908e-06	170.77	69.121	37.78	20.004	2.3601e-05	37.135	0.0042104	0.0042637	0.0012097	627.48	4.7495e-05	4.6474e-05	698.41	202.99	4.7108e-05	4.6367e-05	407.59	129.51	97.719	39.473	4.8174e-05	64.578	238.655	342.652	237.404	94.476	394.723	164.935	93.913	99.301	210.215	274.566	98.081	102.347	103.977	108.555	232.524	104.887	-8191	255	
7221.463	1	1	0	0	0.18914	0.31467	0.30256	0.13638	0.12616	0.099265	0.18034	0.22239	0.18261	0.28468	0.16167	0.10497	0.37223	0.29326	0.20783	0.1511	-2.1625	-3.3521	-2.55	-2.8583	-3.1146	-2.5583	-3.1979	-2.9792	-2.5479	-3.475	-2.6	-3.0167	-3.1688	-2.4708	-3.2167	-3.0146	85.986	118.123	245.630	110.916	121.944	157.854	97.528	423.830	253.312	208.371	100.730	186.069	265.706	94.141	131.043	252.534	0.00048309	0.00092062	0.0002065	201.98	1.1928e-05	1.2565e-05	376.05	89.018	2.1784e-06	2.3865e-05	172.61	69.324	37.77	20.085	1.8524e-05	37.772	0.0041847	0.0042375	0.0012432	626.61	4.7548e-05	4.6723e-05	705.9	202.56	4.7076e-05	4.7013e-05	413.61	129.66	97.83	39.971	4.8932e-05	64.826	235.440	182.051	243.102	94.730	410.532	189.076	94.466	100.445	187.173	149.239	98.277	102.199	104.529	107.748	260.152	105.091	-8191	255	
7221.559	1	1	0	0	0.097032	0.11554	0.13717	0.23965	0.11689	0.10927	0.28588	0.094117	0.19379	0.12026	0.22054	0.11692	0.19224	0.1411	0.14713	0.25614	-2.1	-3.2958	-2.6625	-2.5667	-3.2542	-2.6917	-3.0854	-3.0896	-2.2687	-3.1333	-2.9167	-2.6562	-3.2458	-2.5375	-2.8042	-2.9875	298.468	89.708	256.469	134.691	273.760	147.721	427.260	427.543	401.012	418.111	411.416	298.615	87.680	86.471	410.048	294.337	0.0003092	0.00091482	0.000561	205.89	2.0014e-05	8.8799e-06	377.74	91.377	2.5013e-05	1.7836e-05	171.3	69.769	38.019	20.094	9.1995e-06	37.395	0.0041661	0.0043147	0.0012488	625.02	4.7095e-05	4.7696e-05	712.42	203.34	4.6676e-05	4.793e-05	415.81	129.26	97.205	40.223	4.8821e-05	64.204	217.911	199.878	87.357	94.528	297.769	202.813	93.126	99.805	362.281	200.655	97.361	102.342	104.114	107.788	192.847	105.331	-8191	255	
7221.655	1	1	0	0	0.047399	0.27816	0.29916	0.096409	0.035806	0.19151	0.18071	0.10196	0.20568	0.17868	0.071785	0.18986	0.10382	0.15855	0.064608	0.11895	-2.2	-3.2125	-2.6646	-2.7333	-3.4688	-2.3792	-3.1125	-3.1792	-2.4104	-3.425	-2.8583	-2.3958	-3.2562	-2.7542	-2.8083	-3.1604	229.010	139.781	421.245	89.670	292.288	275.481	353.002	104.544	430.214	295.272	386.820	107.366	303.843	87.277	157.860	204.146	0.00025524	0.0018777	0.00048793	201.77	1.5048e-05	1.1914e-05	369.5	90.866	1.2193e-05	1.3028e-05	169.32	69.6	37.703	20.11	6.6283e-06	37.006	0.0041221	0.0043798	0.0012465	622.76	4.6455e-05	4.8156e-05	702.52	201.1	4.6113e-05	4.8254e-05	408.81	127.82	96.15	40.415	4.7934e-05	63.745	234.774	196.481	136.736	94.524	375.403	276.933	93.700	100.384	317.031	171.299	97.484	102.444	104.753	107.367	349.774	105.216	-8191	255	
7221.751	1	1	0	0	0.1008	0.07922	0.10883	0.13688	0.10349	0.059922	0.1539	0.20921	0.10468	0.24433	0.073668	0.091652	0.12508	0.35377	0.18701	0.10299	-2.1167	-3	-2.9188	-2.65	-3.275	-2.65	-2.7875	-3.4062	-2.3167	-3.0563	-2.9583	-2.4188	-3.3375	-2.6167	-2.7083	-3.5062	268.732	420.928	161.266	269.873	394.570	427.466	361.645	339.909	284.956	349.686	390.038	278.770	290.276	412.358	415.718	335.769	0.00063736	0.00098696	0.00027186	203.56	1.034e-05	2.3043e-05	374.15	88.87	2.4595e-05	1.9471e-05	168.6	69.699	37.781	20.173	1.415e-05	37.315	0.0041059	0.0044076	0.0012256	617.39	4.6586e-05	4.8737e-05	700.37	199.36	4.656e-05	4.8769e-05	409.05	128.04	97.767	40.619	4.784e-05	63.684	225.265	228.746	419.103	94.995	274.202	238.302	94.171	100.413	208.910	87.208	97.891	102.612	104.471	108.124	175.388	105.608	-8191	255	
7221.848	1	1	0	0	0.14219	0.23613	0.079709	0.1357	0.16934	0.035297	0.17182	0.085764	0.11774	0.23469	0.08777	0.10115	0.11175	0.2731	0.19809	0.1436	-2.0208	-3.1083	-3.1021	-2.6125	-3.2771	-2.7208	-2.7625	-3.1729	-2.5708	-3.1	-3.2521	-2.4083	-3.1542	-2.8042	-2.5458	-3.4583	147.871	173.636	401.106	362.535	360.908	349.042	400.839	390.492	155.000	88.134	157.821	97.898	274.540	435.177	370.300	350.891	0.00033637	0.0022293	0.00045431	203.37	2.956e-06	6.1408e-06	376.02	90.801	6.9569e-06	1.7495e-05	167.92	70.184	38.235	20.078	7.386e-06	37.569	0.0041872	0.0044474	0.0012293	611.27	4.7472e-05	4.8971e-05	701.81	199.65	4.7889e-05	4.9032e-05	410.84	128.14	99.692	40.992	4.8505e-05	64.077	253.942	429.487	271.289	95.391	313.790	167.335	94.001	100.099	307.994	116.268	97.441	102.388	104.128	107.984	370.945	105.607	-8191	255	
7221.944	1	1	0	0	0.037746	0.221	0.093295	0.1679	0.2625	0.20376	0.12213	0.20504	0.068878	0.20233	0.16297	0.10064	0.32287	0.091955	0.16385	0.085686	-2.3042	-3.0438	-3.3271	-2.5	-3.1937	-2.85	-2.6542	-3.5208	-2.6792	-3.0604	-3.4479	-2.5479	-3.2917	-2.9437	-2.4875	-3.425	410.842	175.002	433.476	320.908	181.655	144.364	357.403	313.729	412.648	274.207	406.258	375.789	430.876	344.412	186.081	368.451	0.00022465	0.00083702	0.00034874	204.91	2.1076e-05	3.0615e-06	373.65	90.859	1.5433e-05	1.217e-05	169.61	69.118	38.096	19.986	1.3751e-05	37.211	0.004326	0.0044694	0.001228	616.31	4.8813e-05	4.9109e-05	701.72	199.86	4.9121e-05	4.912e-05	410.1	127.54	100.31	40.613	4.7988e-05	63.766	210.799	136.377	369.840	94.638	229.616	213.429	93.939	99.635	264.193	407.761	97.834	102.485	104.659	107.962	303.528	105.291	-8191	255	
7222.040	1	1	0	0	0.076507	0.063432	0.21563	0.092663	0.26616	0.042933	0.23112	0.23677	0.24169	0.20059	0.15832	0.11018	0.17182	0.2049	0.14104	0.095553	-2.15	-2.5854	-3.2458	-2.4792	-2.8708	-2.9854	-2.5271	-3.1437	-2.6125	-2.6583	-3.2938	-2.475	-2.975	-3.0083	-2.3833	-3.3563	230.484	197.850	152.083	293.215	196.338	215.548	356.861	321.496	208.601	129.842	307.287	436.912	173.936	408.139	333.023	187.890	0.00035137	0.0014419	0.00015566	198.06	1.723e-05	7.6634e-06	370.64	89.577	8.9071e-06	1.3397e-05	166.49	67.785	37.377	19.818	9.1874e-06	37.024	0.0044221	0.0044619	0.0012257	619.48	4.9447e-05	4.9159e-05	698.17	201.52	4.9814e-05	4.8971e-05	406.69	128.89	100.62	40.598	4.7843e-05	64.439	215.814	294.864	391.503	94.521	266.957	99.849	93.987	100.740	195.222	406.213	98.405	102.448	105.170	108.019	90.595	105.413	-8191	255	
7222.161	1	1	0	0	0.18896	0.14131	0.12276	0.21836	0.23015	0.05366	0.12482	0.33486	0.26114	0.079074	0.24301	0.048707	0.20352	0.034553	0.17619	0.064399	-2.2271	-2.4104	-3.125	-2.5042	-2.875	-3.3187	-2.6771	-3.3417	-2.7042	-2.4896	-3.5208	-2.5979	-2.7958	-3.3083	-2.375	-3.1188	428.439	282.473	293.402	330.277	360.740	255.517	374.255	211.636	170.201	109.990	407.031	359.915	427.326	381.069	415.813	295.469	0.00012204	0.00077464	0.000313	205.94	5.2622e-06	7.087e-06	371.91	88.381	2.2251e-05	2.1339e-06	167.15	67.419	37.014	19.681	1.9704e-05	36.975	0.004413	0.0044859	0.0012221	635.47	4.9561e-05	4.9234e-05	697.46	204.69	5.0202e-05	4.947e-05	409.07	130.57	100.81	40.546	4.852e-05	65.274	233.107	372.895	283.812	94.261	181.437	207.502	93.892	100.748	234.570	168.812	97.508	102.486	105.405	108.478	246.901	105.284	-8191	255	
7222.257	1	1	0	0	0.10721	0.20375	0.11986	0.10246	0.21226	0.28269	0.093768	0.044169	0.13595	0.24512	0.14904	0.084692	0.05172	0.10849	0.13682	0.057278	-2.5812	-2.4167	-3.2896	-2.4979	-2.9854	-3.3667	-2.6229	-3.2625	-2.9313	-2.5875	-3.3208	-2.8667	-2.6063	-3.3021	-2.4521	-3.1708	99.556	313.291	377.699	412.908	264.461	131.676	319.974	287.090	92.742	130.570	311.792	276.338	182.039	131.328	434.075	125.685	0.00093578	0.0018906	0.0002638	205.13	3.6452e-06	1.3977e-05	373.88	89.8	3.3561e-06	3.1506e-05	167.04	67.636	36.914	19.449	1.1476e-05	36.297	0.0044713	0.0044763	0.0012341	645.05	5.0033e-05	4.9548e-05	705.36	207.41	5.0493e-05	4.9663e-05	413.04	131.89	100.73	40.346	4.9184e-05	65.146	245.199	317.370	259.717	94.231	428.180	436.943	94.076	99.923	420.060	198.256	97.081	102.472	105.511	107.931	253.053	105.248	-8191	255	
7222.351	1	1	0	0	0.049817	0.17204	0.031664	0.22578	0.17454	0.088541	0.29787	0.24494	0.18972	0.1445	0.15074	0.18302	0.075276	0.16793	0.060279	0.096548	-2.5354	-2.3833	-3.3688	-2.7854	-2.4958	-3.2438	-2.3854	-3.0771	-3.275	-2.5646	-3.3458	-3.0438	-2.4896	-3.425	-2.5687	-3	422.742	190.436	406.700	296.927	391.621	421.901	293.343	233.997	379.249	273.591	270.934	155.541	268.500	407.996	184.753	128.104	0.00027984	0.0016119	0.00016173	201.52	7.4983e-06	8.5583e-06	369.5	88.944	1.2994e-05	4.6981e-06	164.09	65.662	36.754	19.582	1.0657e-05	36.274	0.0044009	0.0044146	0.0012493	644.67	4.9116e-05	4.8044e-05	703	204.93	4.9234e-05	4.7938e-05	410.82	129.48	99.276	39.871	4.9917e-05	64.703	288.754	360.363	261.688	94.386	139.103	369.623	94.292	100.395	132.583	184.770	97.807	102.362	104.632	108.470	196.950	105.758	-8191	255	
7222.425	1	1	0	0	0.13936	0.30452	0.16348	0.045501	0.16688	0.17807	0.020513	0.12863	0.42207	0.32901	0.020828	0.20425	0.29508	0.15564	0.28472	0.15115	-2.7812	-2.4062	-3.1312	-3.0417	-2.4958	-3.4417	-2.4188	-2.775	-3.2521	-2.2521	-3.1917	-2.8854	-2.3438	-3.2729	-2.65	-2.7646	271.620	145.248	196.756	103.940	279.033	230.523	413.935	358.810	199.803	248.580	289.493	375.756	402.855	389.393	207.031	305.179	0.00050152	0.0013088	8.0657e-05	201.96	1.2336e-05	9.3344e-06	365.91	89.165	2.861e-06	1.0835e-05	166.25	66.347	37.36	19.737	2.3498e-05	36.639	0.0043669	0.0043585	0.00127	642.37	4.8882e-05	4.8134e-05	709.73	204.19	4.8703e-05	4.8261e-05	416.83	129.54	98.875	40.044	5.067e-05	64.637	291.919	180.101	129.206	94.735	245.686	250.175	93.965	100.656	201.087	293.926	98.109	102.655	104.978	108.316	257.277	105.907	-8191	255	
7222.543	1	1	0	0	0.16134	0.11126	0.29146	0.25707	0.11247	0.085693	0.01516	0.059969	0.2217	0.15319	0.16851	0.11819	0.24655	0.13581	0.15219	0.23743	-2.7	-2.4021	-3.0104	-2.9229	-2.6083	-3.3625	-2.9333	-2.8063	-3.4396	-2.5	-3.1771	-3.1354	-2.3125	-3.3563	-2.7708	-2.5292	258.264	383.685	343.312	392.222	208.434	405.945	190.786	139.383	341.081	118.234	98.332	234.584	378.512	315.772	435.067	407.586	0.00027059	0.0021991	0.00012131	201.9	1.539e-05	1.2051e-05	371.08	88.241	8.9948e-06	4.3114e-06	168	67.99	37.132	19.997	1.4819e-05	36.89	0.0043327	0.0044328	0.0012898	639.28	4.8466e-05	4.89e-05	719.31	204.78	4.8574e-05	4.9197e-05	420.01	129.89	98.69	40.491	5.0867e-05	64.768	206.244	287.616	217.379	93.729	343.551	349.938	94.107	100.422	257.053	264.487	98.135	102.602	104.768	108.414	86.759	106.651	-8191	255	
7222.640	1	1	0	0	0.27411	0.093872	0.18152	0.22186	0.07824	0.071819	0.17493	0.26423	0.13772	0.24737	0.067913	0.22843	0.021571	0.060524	0.20974	0.32207	-3.1354	-2.4	-3.0708	-3.1521	-2.6042	-3.2479	-2.9417	-2.5083	-3.4167	-2.6667	-2.8438	-3.2271	-2.4875	-3.2812	-3.0167	-2.6688	158.875	110.997	114.806	337.595	348.123	380.288	268.661	408.628	385.810	265.200	335.576	398.229	327.032	357.827	137.792	353.188	0.00040334	0.00045313	0.00020725	203.15	5.5011e-06	1.3666e-05	371.36	90.122	1.1787e-05	5.6042e-06	167.91	67.995	37.168	19.811	2.7655e-05	36.752	0.004267	0.0044947	0.0012801	636.01	4.7958e-05	4.9589e-05	716.12	203.5	4.7614e-05	4.9837e-05	415.93	128.84	97.481	40.658	4.9937e-05	64.166	260.491	309.681	258.307	94.125	376.463	94.769	94.252	101.029	429.807	181.464	97.802	101.993	104.001	108.624	236.394	106.035	-8191	255	
7222.736	1	1	0	0	0.15601	0.1651	0.24657	0.21496	0.1916	0.15351	0.17857	0.27459	0.10744	0.093971	0.074666	0.27948	0.21451	0.26972	0.078873	0.24184	-3.0542	-2.6125	-3	-3.3604	-2.5917	-3.0646	-3.0646	-2.5479	-3.3812	-2.7396	-2.8125	-3.4208	-2.4896	-3.0792	-3.1312	-2.5396	317.493	308.523	271.722	270.555	428.070	230.388	432.716	356.799	90.376	307.985	201.811	403.079	163.923	301.561	311.360	333.665	0.00073	0.001559	0.00052229	207.14	8.432e-06	1.1491e-05	367.69	88.818	9.5173e-06	7.0495e-06	167.07	67.324	37.906	19.663	8.4883e-06	36.315	0.0042331	0.0045623	0.001265	631.48	4.7807e-05	5.0179e-05	712.97	202.12	4.7934e-05	5.0583e-05	415.86	128.5	99.199	41.194	5.069e-05	64.128	238.180	131.847	388.606	94.514	356.434	287.189	94.049	100.278	119.684	160.638	98.076	102.276	104.960	108.149	199.787	105.417	-8191	255	
7222.832	1	1	0	0	0.25858	0.13631	0.31842	0.1096	0.044778	0.30226	0.23711	0.22911	0.089781	0.1816	0.11981	0.17825	0.051356	0.11761	0.063882	0.084333	-3.0125	-2.6729	-2.7896	-3.3042	-2.3688	-3.0667	-3.0312	-2.675	-3.2833	-2.8042	-2.5312	-3.1833	-2.5375	-2.9042	-3.2354	-2.4688	394.119	158.530	128.904	300.652	111.764	275.210	166.526	87.673	215.656	249.981	321.054	137.280	311.554	129.062	428.952	393.644	0.00053744	0.00080022	0.00015405	203.07	5.6373e-06	2.7434e-05	369.97	89.14	6.9999e-06	1.484e-05	168.53	66.669	38.01	19.549	1.8014e-05	36.47	0.0043547	0.0046844	0.0012879	632	4.9338e-05	5.1024e-05	715.66	203.17	4.9796e-05	5.2047e-05	420.48	129.06	101.31	41.548	5.1441e-05	64.662	253.371	146.355	94.647	95.181	143.329	92.906	93.869	100.757	326.045	326.707	97.759	102.717	105.414	108.078	365.837	105.513	-8191	255	
7222.952	1	1	0	0	0.2522	0.068106	0.20286	0.10098	0.14314	0.048788	0.075199	0.22114	0.16792	0.14048	0.13504	0.035583	0.036579	0.24179	0.14779	0.10614	-2.8333	-2.5521	-2.7062	-3.1833	-2.6417	-2.8521	-3.2542	-2.4167	-3.1854	-2.8937	-2.65	-3.2896	-2.675	-3.0333	-3.2313	-2.6396	156.183	354.432	334.937	380.545	252.254	132.095	312.418	107.765	249.257	101.041	330.349	420.813	92.811	436.528	183.918	114.128	0.00050977	0.00012959	0.00029616	203.11	1.4283e-05	1.3643e-05	371.39	89.213	9.596e-06	2.713e-05	166.78	67.474	37.033	19.519	7.4221e-06	36.533	0.0045395	0.0047698	0.0013035	639.54	5.1807e-05	5.2185e-05	722.99	204.99	5.1929e-05	5.2492e-05	424.81	130.5	104.1	41.663	5.1575e-05	65.149	230.727	440.217	171.430	95.444	177.415	243.388	94.449	100.752	157.835	390.801	98.594	102.625	105.598	108.288	184.978	106.021	-8191	255	
7223.024	1	1	0	0	0.044401	0.070087	0.072801	0.21398	0.15672	0.13892	0.092191	0.043448	0.10364	0.19244	0.11402	0.020157	0.088788	0.15841	0.0061109	0.28344	-2.6771	-2.9417	-2.6437	-3.4542	-2.6354	-2.9583	-3.3396	-2.3375	-3.0458	-3.0458	-2.6146	-3.3729	-2.6375	-2.5521	-3.3063	-2.4437	225.971	357.190	382.097	100.267	303.476	106.788	363.992	132.134	108.999	204.500	407.323	275.881	373.647	96.357	98.249	429.541	0.00045941	0.00072788	0.00029771	204.16	8.4842e-06	4.8299e-06	369.1	89.151	1.2875e-05	9.9959e-06	166.23	66.711	36.111	19.422	5.235e-06	36.317	0.0046734	0.0048084	0.0013091	648.27	5.311e-05	5.2375e-05	723.16	207.93	5.2806e-05	5.2597e-05	421.33	131	104.66	41.552	5.1194e-05	65.349	240.392	239.953	303.325	94.149	157.747	266.674	94.434	101.483	205.984	439.823	97.984	102.706	105.016	109.280	92.613	106.190	-8191	255	
7223.145	1	1	0	0	0.078654	0.11493	0.15537	0.19726	0.093198	0.13027	0.20445	0.3132	0.25093	0.16948	0.24192	0.099543	0.11297	0.32428	0.1573	0.11239	-2.6396	-3.125	-2.3667	-3.1875	-2.5312	-2.5854	-3.3042	-2.5812	-2.95	-3.375	-2.4771	-3.2333	-2.8771	-2.5354	-3.4625	-2.5438	438.102	307.975	381.417	96.805	417.265	388.577	104.905	339.261	153.003	104.960	412.335	135.415	381.711	375.512	136.823	418.518	0.00038865	4.2436e-05	0.00040653	204.82	1.7851e-05	1.2485e-05	367.8	88.978	6.934e-06	1.8324e-05	165.94	66.892	36.318	19.379	2.5146e-05	36.263	0.0046758	0.004761	0.0012896	655.62	5.2797e-05	5.1822e-05	714.36	209.19	5.2503e-05	5.2119e-05	418.14	131.73	103.64	41.117	5.0345e-05	65.79	241.169	152.401	330.151	95.862	280.268	371.399	94.467	101.303	360.504	168.265	97.819	103.226	105.192	108.639	257.133	105.929	-8191	255	
7223.241	1	1	0	0	0.20862	0.17143	0.13906	0.099646	0.17088	0.10504	0.086739	0.27266	0.18899	0.14726	0.1482	0.11027	0.24848	0.17129	0.19175	0.20222	-2.7083	-3.1271	-2.4167	-3.0854	-3.05	-2.4688	-3.5521	-2.7625	-2.9417	-3.3146	-2.55	-3.2083	-3.1312	-2.6125	-3.3271	-2.75	291.181	116.746	351.746	119.086	228.285	290.063	295.391	377.127	273.422	277.112	199.503	263.648	83.486	242.816	427.710	194.598	0.00047653	0.00067781	0.00025259	203.54	1.0807e-05	1.1395e-05	367.55	89.8	7.2673e-06	1.6356e-05	166.75	67.256	36.771	19.345	1.3009e-05	36.732	0.0046154	0.0046798	0.0012771	659.27	5.2183e-05	5.1228e-05	714.89	212	5.1907e-05	5.1694e-05	420.22	133.46	103.41	41.064	5.1039e-05	66.789	257.707	183.488	136.536	96.140	178.639	109.979	94.645	100.459	217.049	216.868	98.696	103.195	104.955	108.797	252.325	106.123	-8191	255	
7223.337	1	1	0	0	0.18563	0.065618	0.2235	0.12964	0.22847	0.11914	0.33311	0.028559	0.12268	0.14022	0.072569	0.17763	0.058008	0.19367	0.084233	0.17239	-2.35	-3.3312	-2.3708	-3.0792	-3.1417	-2.3854	-3.5917	-2.8646	-2.5354	-3.275	-2.6479	-3.0708	-3.0958	-2.3979	-3.35	-2.7521	321.150	102.968	333.798	437.516	183.980	89.145	84.766	132.842	350.852	394.396	431.984	351.669	340.476	352.752	251.075	410.733	0.00018835	0.00048738	0.00080483	202.93	1.7313e-05	5.9827e-06	370.66	88.738	3.6576e-06	2.5919e-05	168.44	67.43	37.164	19.348	2.0407e-05	36.444	0.0046065	0.0046709	0.0013069	664.48	5.1906e-05	5.0417e-05	721.09	211.79	5.1444e-05	5.0244e-05	422.62	132.28	102.26	40.678	5.1458e-05	66.216	175.781	108.391	192.196	94.354	417.204	183.788	94.997	100.826	301.252	336.697	99.038	102.614	105.139	108.623	200.440	106.244	-8191	255	
7223.433	1	1	0	0	0.055771	0.089712	0.131	0.11219	0.1375	0.2065	0.18742	0.14896	0.22302	0.023674	0.084868	0.25407	0.076379	0.13326	0.17281	0.10534	-2.0146	-3.3625	-2.45	-2.9021	-3.1937	-2.5938	-3.1354	-2.8937	-2.3104	-3.3208	-2.6437	-2.8708	-3.1646	-2.4062	-3.2125	-2.9125	267.827	244.374	230.057	420.023	168.170	348.346	306.360	297.181	408.952	389.553	90.039	335.379	160.720	286.435	299.151	293.721	0.0004259	0.00091974	0.00016209	203.82	1.5142e-05	1.0263e-05	369.75	89.323	7.6988e-06	1.2749e-05	166.6	67.147	37.031	19.517	1.5507e-05	36.459	0.0045248	0.0045497	0.0013125	657.26	5.0742e-05	4.9327e-05	720.45	208.59	5.0102e-05	4.9567e-05	422.88	130.99	100.96	40.376	5.1464e-05	65.642	215.475	435.060	319.956	95.823	224.329	163.263	94.340	100.905	419.471	314.736	98.974	103.089	105.954	108.565	195.239	105.885	-8191	255	
7223.552	1	1	0	0	0.14737	0.25599	0.08416	0.18803	0.12381	0.064104	0.37566	0.32872	0.16544	0.20084	0.14051	0.30197	0.29463	0.27088	0.11152	0.051153	-1.9521	-3.5104	-2.5604	-2.9042	-3.35	-2.475	-3.1896	-3.0292	-2.4875	-3.3979	-2.8021	-2.8187	-3.2625	-2.5479	-3.2313	-3.0833	185.908	178.355	384.719	210.054	377.506	292.292	295.286	202.700	385.726	415.188	413.100	151.731	295.831	98.106	127.941	176.750	0.00034698	0.0012538	0.00029006	199.08	1.3219e-05	1.069e-05	372.28	89.175	1.0836e-05	1.6485e-05	168.01	66.992	37.197	19.619	1.8359e-05	36.293	0.0044455	0.0045194	0.0013206	648.94	5.0059e-05	4.9733e-05	726.03	208.11	4.9625e-05	4.9983e-05	428.28	131.36	100.42	40.82	5.2023e-05	65.486	283.953	88.819	216.401	95.491	379.085	337.907	94.770	99.955	398.288	250.790	98.897	103.016	104.883	108.749	388.745	105.888	-8191	255	
7223.648	1	1	0	0	0.073415	0.080923	0.090627	0.19723	0.13436	0.1044	0.23415	0.16956	0.035712	0.053077	0.37456	0.05449	0.21202	0.16457	0.147	0.17547	-2.1562	-3.1188	-2.8375	-2.4562	-3.4667	-2.5187	-2.9688	-3.0396	-2.3521	-3.3208	-2.7833	-2.8167	-3.4625	-2.6375	-2.8292	-3.2562	231.074	296.743	265.365	275.559	121.064	124.233	315.457	143.118	87.154	289.520	169.458	137.527	244.975	408.698	234.114	314.274	0.00027811	0.0022313	0.00017969	205.38	9.2639e-06	1.7283e-05	374.75	90.158	1.3491e-05	3.7833e-05	165.37	67.701	37.354	19.697	1.3848e-05	36.548	0.0043971	0.0046156	0.0013331	650.79	4.9867e-05	5.093e-05	728.07	208.91	4.9347e-05	5.1427e-05	430.18	131.58	100.78	41.66	5.214e-05	65.926	262.510	171.019	279.223	95.472	257.076	228.598	94.504	101.098	322.380	242.930	98.359	103.296	105.488	108.486	317.641	105.733	-8191	255	
7223.720	1	1	0	0	0.083401	0.16605	0.11126	0.19549	0.13319	0.26223	0.28978	0.02139	0.13732	0.23902	0.22962	0.055545	0.29748	0.0756	0.25167	0.43219	-2.0479	-3.1271	-2.8646	-2.6771	-3.1833	-2.6146	-2.9167	-3.3146	-2.35	-3.1875	-2.8396	-2.4583	-3.3083	-2.5896	-2.8312	-3.5646	300.776	205.473	123.248	429.907	189.084	435.461	370.273	180.942	381.104	103.557	421.112	269.506	426.605	316.063	118.735	233.419	0.00028425	0.0020895	0.00061592	201.37	2.5878e-05	2.6948e-05	371.27	87.902	7.8069e-06	2.5615e-05	168.47	67.577	37.169	19.608	6.4012e-06	36.223	0.0044206	0.004727	0.0013302	649.06	5.0003e-05	5.2216e-05	726.09	207.68	4.9722e-05	5.2217e-05	429.36	131.01	100.9	41.894	5.1745e-05	65.14	279.940	163.639	172.589	96.159	282.621	146.974	95.300	101.086	185.581	286.922	97.823	103.509	105.460	108.687	346.352	106.418	-8191	255	
7223.841	1	1	0	0	0.036252	0.38863	0.053675	0.057795	0.13224	0.23815	0.066665	0.20125	0.067982	0.20125	0.13726	0.18075	0.077855	0.18801	0.21022	0.14773	-1.8771	-3.0667	-2.9437	-2.5729	-3.1167	-2.8	-2.8125	-3.2979	-2.6917	-3.0542	-3.1417	-2.5021	-3.2625	-2.7542	-2.7667	-3.3438	420.631	144.113	391.411	421.942	182.185	216.903	194.992	98.445	91.838	373.549	415.059	309.851	172.694	115.241	419.343	116.894	0.00063662	0.0014499	0.00029074	201.99	1.1583e-05	1.3632e-05	374.9	88.051	1.4247e-05	8.8365e-06	166.7	66.798	37.556	19.597	1.45e-05	36.515	0.00445	0.0047792	0.0013179	640.71	5.0185e-05	5.249e-05	721.65	205.61	5.0396e-05	5.2394e-05	424.92	129.64	101.7	41.808	5.1478e-05	64.686	207.688	330.162	168.915	95.753	316.977	184.341	94.934	101.331	288.196	130.312	99.298	102.756	104.451	108.390	198.626	105.426	-8191	255	
7223.937	1	1	0	0	0.15198	0.1427	0.014733	0.16345	0.11539	0.060854	0.11271	0.035834	0.20188	0.14957	0.16858	0.2128	0.12937	0.26626	0.071831	0.16363	-2.1146	-2.6875	-3.0896	-2.5375	-3.0958	-2.75	-2.7812	-3.3312	-2.3708	-3.0208	-3.3229	-2.5271	-3.1813	-2.9104	-2.6021	-3.2896	183.971	123.793	374.441	258.743	330.316	389.247	351.350	283.793	174.595	331.263	262.961	359.756	140.260	402.094	315.954	307.384	0.00055074	0.00043348	0.000417	201.87	3.0565e-05	2.5666e-05	369.96	88.319	1.2295e-05	1.9868e-05	165.55	66.817	37.163	19.551	6.9772e-06	36.47	0.0045606	0.0047704	0.0013212	640.46	5.1606e-05	5.2727e-05	725.06	206.14	5.2397e-05	5.2852e-05	426.69	129.58	103.49	41.92	5.164e-05	65.013	252.011	97.240	374.627	94.421	169.031	293.368	94.149	100.409	314.763	232.967	98.783	103.275	105.205	108.459	378.288	105.496	-8191	255	
7224.033	1	1	0	0	0.1501	0.16177	0.23877	0.25628	0.18189	0.10377	0.21285	0.17918	0.14279	0.083717	0.11626	0.19988	0.029195	0.06042	0.19068	0.22364	-2.0979	-2.9688	-3.1396	-2.2292	-3.2167	-3.1688	-2.4958	-3.4375	-2.8	-2.7417	-3.1396	-2.3042	-3.1292	-2.9875	-2.6042	-3.3812	183.760	188.598	429.689	85.987	117.119	263.055	129.063	127.521	231.720	293.894	104.716	123.837	182.665	132.424	293.549	320.824	0.00064519	0.0005522	0.00040644	200.73	8.2084e-06	7.0186e-06	371.87	89.51	9.6031e-06	1.0077e-05	167.85	66.632	37.471	19.769	2.5066e-05	36.704	0.0046849	0.004782	0.0013145	646.13	5.2633e-05	5.2625e-05	722.19	207.41	5.2915e-05	5.2573e-05	424.58	131.26	104.46	41.824	5.0706e-05	65.197	236.436	239.627	407.517	95.012	405.949	263.682	94.105	100.416	247.195	161.293	97.569	102.885	105.247	108.724	384.755	106.247	-8191	255	
7224.129	1	1	0	0	0.22025	0.21392	0.10407	0.20293	0.18706	0.10801	0.15422	0.044238	0.17924	0.11621	0.15398	0.045727	0.21321	0.16668	0.099215	0.075018	-2.1167	-2.6104	-3.3729	-2.4021	-2.9833	-3.0833	-2.4437	-3.2854	-2.8646	-2.5167	-3.2792	-2.5458	-3.1188	-3.1375	-2.4437	-3.2542	204.256	339.702	232.016	246.872	214.475	133.693	220.857	272.431	148.679	283.407	430.362	213.767	433.111	361.238	345.571	280.742	0.00035542	0.00048402	7.7567e-05	200.98	9.8782e-06	2.721e-06	369.24	90.354	3.4028e-06	7.1082e-06	164.83	66.375	36.231	19.571	1.4173e-05	36.61	0.0046794	0.0047153	0.0012879	649.73	5.2244e-05	5.1629e-05	710.99	208.19	5.2402e-05	5.1597e-05	416.87	130.97	103.04	41.224	4.9999e-05	65.398	250.291	149.681	302.837	95.117	259.329	93.137	94.235	101.312	190.889	303.002	98.128	102.875	105.323	108.994	151.236	106.289	-8191	255	
7224.248	1	1	0	0	0.073196	0.15241	0.27864	0.23465	0.096343	0.12316	0.21417	0.10062	0.14066	0.15114	0.30537	0.14421	0.20195	0.23279	0.13018	0.18559	-2.5458	-2.4229	-3.4458	-2.7875	-2.7542	-3.1937	-2.6063	-3.4083	-2.7562	-2.5354	-3.2354	-2.6562	-2.7417	-3.4437	-2.5021	-3.2292	314.314	376.843	439.759	411.806	177.882	116.955	438.911	437.892	118.448	418.043	160.225	340.329	443.287	341.494	84.597	100.323	0.00058043	0.0021273	0.00046544	202.88	8.5089e-06	1.0093e-05	368.89	88.975	1.4901e-05	2.3287e-05	165.31	67.519	36.886	19.499	1.659e-05	36.174	0.0045999	0.0046484	0.0012715	655.71	5.1685e-05	5.1455e-05	709.85	209.42	5.1804e-05	5.1147e-05	416.66	132.3	102.27	41.032	5.037e-05	65.95	261.197	297.261	281.976	95.013	241.771	369.538	94.806	101.417	269.219	107.556	98.402	103.557	105.090	109.317	270.035	106.306	-8191	255	
7224.321	1	1	0	0	0.14901	0.14863	0.10835	0.19077	0.13333	0.19216	0.17343	0.18666	0.13098	0.13712	0.19937	0.13036	0.11395	0.16103	0.18432	0.18388	-2.4083	-2.3271	-3.3917	-2.9292	-2.5646	-3.4938	-2.675	-3.0792	-2.9479	-2.5917	-3.4271	-2.7479	-2.5854	-3.4625	-2.7167	-3.1771	278.419	242.100	207.102	343.884	165.241	342.678	404.540	331.445	102.778	293.168	321.553	413.476	83.810	312.224	295.761	345.494	0.000327	0.0030557	0.00034084	207.68	1.6672e-06	1.4412e-05	370.51	88.633	6.0227e-06	9.6814e-06	166.68	66.824	37.202	19.305	1.7028e-05	36.677	0.0045954	0.0046155	0.0012861	662.97	5.137e-05	5.0514e-05	717.58	210.18	5.1406e-05	5.0158e-05	421.15	132.52	102.33	40.895	5.1152e-05	66.144	229.150	336.017	148.858	95.934	125.324	242.283	94.671	100.775	435.271	180.838	98.686	103.042	105.846	108.728	282.314	106.269	-8191	255	
7224.417	1	1	0	0	0.056891	0.04725	0.1843	0.068887	0.19494	0.056632	0.10325	0.29225	0.20663	0.13447	0.089947	0.12374	0.10615	0.18389	0.2084	0.0020844	-2.9146	-2.4771	-3.2354	-2.8583	-2.8792	-3.3375	-2.7667	-3.0333	-3.2125	-2.6188	-3.1896	-2.8375	-2.6667	-3.2417	-2.5729	-2.9792	304.197	133.753	388.980	371.834	147.596	237.216	285.069	410.719	393.481	254.933	341.243	360.068	336.533	126.990	430.212	180.000	0.00039123	0.00097225	0.00033494	199.99	1.1284e-05	2.0262e-05	374.25	88.818	4.9747e-06	1.8017e-05	167.65	66.561	36.393	19.79	1.625e-05	36.324	0.0045578	0.0045649	0.0013096	661.7	5.0983e-05	4.9994e-05	724.77	209.8	5.1178e-05	5.0165e-05	426.55	132.45	101.61	40.708	5.2493e-05	65.87	234.080	134.489	263.083	95.549	232.983	377.638	95.186	100.833	146.059	96.721	98.658	102.958	104.813	108.711	236.232	106.023	-8191	255	
7224.514	1	1	0	0	0.18258	0.44117	0.13459	0.18427	0.2667	0.087866	0.39181	0.066398	0.29032	0.154	0.14728	0.019204	0.04286	0.058136	0.25753	0.1275	-2.9354	-2.6083	-3.0312	-2.8917	-2.5979	-3.4021	-2.8271	-2.6542	-3.1854	-2.4854	-3.2021	-2.9521	-2.5646	-3.5646	-2.7479	-2.9417	161.013	233.754	182.172	434.946	222.990	264.521	409.025	420.508	90.205	97.651	336.346	361.275	362.451	422.493	414.090	329.692	0.00024785	0.0017198	0.00029101	203.69	1.3386e-06	7.3176e-06	369.57	88.229	9.1453e-06	6.6896e-06	165.75	65.287	36.788	19.557	1.0203e-05	35.92	0.0045455	0.0045561	0.001331	657.93	5.0765e-05	5.0206e-05	729.48	208.34	5.0667e-05	5.0354e-05	426.89	131.05	100.93	40.787	5.2863e-05	65.233	240.891	219.562	108.526	96.182	244.963	299.796	94.588	101.471	148.016	342.679	99.387	103.316	105.938	109.184	252.783	105.886	-8191	255	
7224.632	1	1	0	0	0.12821	0.14466	0.073688	0.089214	0.28468	0.29443	0.11496	0.15278	0.19151	0.23684	0.036959	0.10963	0.19887	0.089482	0.17713	0.19582	-3.0458	-2.4562	-3.1833	-2.9479	-2.5292	-3.5021	-2.725	-2.5396	-3.3042	-2.5979	-3.1083	-3.1375	-2.4688	-3.3458	-2.7687	-2.6604	442.999	95.683	195.148	267.908	437.659	347.042	101.724	235.098	236.995	139.141	209.567	432.430	438.369	196.008	98.207	330.801	0.0002569	0.00090194	0.00028485	200.65	1.0619e-05	2.8478e-05	365.4	87.781	5.9835e-06	1.0802e-05	162.86	66.67	36.759	19.431	1.1011e-05	36.038	0.0044859	0.004657	0.0013451	656.96	5.0108e-05	5.1251e-05	728.33	208.48	5.0219e-05	5.1755e-05	428.22	131.49	100.61	41.456	5.3258e-05	65.587	327.178	292.323	281.447	95.836	311.673	211.313	93.939	101.003	127.990	424.151	99.459	103.106	105.307	109.105	425.745	106.369	-8191	255	
7224.729	1	1	0	0	0.25618	0.14573	0.23506	0.1134	0.1254	0.056736	0.25048	0.11997	0.17966	0.056242	0.20968	0.14451	0.11071	0.27621	0.12196	0.24206	-2.9167	-2.5417	-3.0396	-3.2354	-2.4313	-3.1354	-2.9542	-2.5375	-3.2833	-2.6208	-2.8042	-3.3438	-2.5083	-3.1729	-2.9188	-2.6125	326.140	294.236	254.552	408.088	128.965	434.827	121.036	270.406	244.260	142.322	94.768	418.660	133.787	154.217	149.941	441.467	0.00047714	0.0021218	0.00016701	200.18	1.332e-05	1.4068e-05	369.17	87.861	7.2525e-06	1.9983e-05	165.25	66.292	37.122	19.498	2.0116e-05	36.193	0.004489	0.0047812	0.0013465	656.33	5.027e-05	5.2344e-05	729.34	207.52	5.0135e-05	5.2754e-05	429.07	130.96	100.96	41.936	5.291e-05	65.406	322.342	93.335	138.922	95.446	275.766	268.211	95.102	101.358	171.510	204.010	98.550	103.040	106.103	108.728	252.992	106.131	-8191	255	
7224.825	1	1	0	0	0.18897	0.10266	0.28779	0.16847	0.11358	0.12282	0.17427	0.0097692	0.082544	0.19172	0.069578	0.13532	0.15836	0.045983	0.16514	0.2127	-2.9646	-2.7396	-2.8792	-3.3229	-2.6396	-3.1917	-3.1354	-2.5062	-3.1562	-2.7687	-2.7938	-3.1542	-2.4167	-3.1354	-3.0646	-2.5687	188.841	301.381	189.317	153.198	284.697	158.073	113.997	340.663	313.426	166.728	397.481	109.822	348.525	171.667	420.235	333.920	0.00036034	0.002498	0.00022768	197.97	9.6263e-06	6.0585e-06	364.59	88.424	6.4403e-06	1.6709e-05	165.78	66.56	37.219	19.433	2.2896e-05	36.039	0.004495	0.0048676	0.0013381	651.38	5.0548e-05	5.2863e-05	727.67	206.64	5.0743e-05	5.3081e-05	425.37	129.79	101.72	41.827	5.2067e-05	64.379	277.063	146.881	110.102	96.449	195.146	231.109	95.207	101.661	368.366	140.227	98.132	103.938	106.378	109.284	106.760	106.394	-8191	255	
7224.945	1	1	0	0	0.13027	0.24222	0.20086	0.13871	0.12802	0.3035	0.10546	0.20639	0.17002	0.25702	0.17289	0.28152	0.06646	0.27593	0.19693	0.23507	-2.8646	-2.8479	-2.6875	-3.3104	-2.7083	-3.025	-3.1625	-2.7229	-3.3167	-2.9437	-2.75	-3.2646	-2.475	-2.9646	-3.05	-2.4396	358.202	230.503	362.770	175.663	391.694	436.092	237.317	103.604	115.043	142.560	373.553	360.228	371.255	259.061	260.220	273.197	0.00042949	0.0015048	0.00033365	198.6	1.8496e-05	6.472e-06	365.38	89.271	2.1107e-05	7.3838e-06	164.45	65.553	36.946	19.39	8.0515e-06	36.083	0.0045135	0.0047773	0.0013082	639.45	5.1092e-05	5.2179e-05	719.48	203.88	5.1162e-05	5.2581e-05	423.19	128.92	102.8	41.596	5.1681e-05	64.476	250.446	247.016	412.691	96.157	260.773	437.423	94.468	101.695	173.525	318.860	99.007	103.672	106.352	109.967	423.632	106.826	-8191	255	
7225.017	1	1	0	0	0.15471	0.13259	0.20681	0.048976	0.22452	0.15042	0.12405	0.23477	0.18827	0.11579	0.15222	0.11971	0.006693	0.15881	0.21702	0.30334	-2.9479	-2.8438	-2.3833	-3.4167	-2.6104	-2.7854	-3.2708	-2.4521	-3.1646	-3.0146	-2.3167	-3.5062	-2.4875	-2.5854	-3.4042	-2.6292	318.723	272.538	387.274	287.465	230.789	179.511	338.516	350.890	439.139	224.687	440.046	101.563	295.907	373.212	426.575	116.440	0.00033204	0.0028049	0.00023596	206.53	5.3235e-06	2.2834e-05	368.56	88.708	3.9816e-06	9.1208e-06	166.46	67.119	36.962	19.669	1.8115e-05	36.211	0.0046114	0.0047595	0.001298	637.21	5.1646e-05	5.1625e-05	716.03	204.36	5.1749e-05	5.1801e-05	419.53	129.74	103.85	41.552	5.1116e-05	65.04	272.234	273.715	185.120	96.799	287.838	310.374	95.127	102.097	314.813	185.348	99.639	103.610	104.962	108.666	400.583	105.624	-8191	255	
7225.113	1	1	0	0	0.043262	0.19215	0.10558	0.042856	0.10328	0.29039	0.18536	0.19893	0.30917	0.088937	0.085186	0.24785	0.021096	0.034589	0.035137	0.25057	-2.6688	-3.0979	-2.5354	-3.2125	-2.8104	-2.6813	-3.0917	-2.4167	-3.1083	-3.0708	-2.2625	-3.2812	-2.925	-2.775	-3.2458	-2.5375	440.902	414.809	205.889	277.945	247.852	128.213	368.388	440.089	397.987	179.574	157.544	391.336	378.674	114.917	268.260	337.767	0.0004037	0.00055181	0.00010497	204.43	2.2123e-05	4.1194e-06	367.6	88.794	5.1957e-06	1.7256e-05	166.28	67.414	36.785	19.413	1.5096e-05	36.7	0.0046431	0.0047521	0.0012992	646.14	5.2468e-05	5.1578e-05	717.95	208.27	5.2663e-05	5.2418e-05	421.1	131.96	104.57	41.575	5.0645e-05	65.89	196.166	350.623	267.137	94.036	202.598	395.941	94.188	100.443	357.378	249.982	98.284	103.344	104.627	108.888	297.254	105.928	-8191	255	
7225.234	1	1	0	0	0.019188	0.13433	0.09244	0.28777	0.075104	0.26875	0.14141	0.12281	0.21938	0.18909	0.18195	0.050286	0.18281	0.34132	0.1046	0.18743	-2.5438	-2.9208	-2.4958	-3.2771	-2.6604	-2.5333	-3.2333	-2.4938	-2.9354	-3.4146	-2.3417	-3.2708	-2.9625	-2.5687	-3.3792	-2.7833	275.477	182.369	252.954	277.263	84.440	289.137	108.847	314.315	435.880	121.056	399.169	136.013	102.839	416.359	187.086	404.096	0.00035602	0.0013689	0.00016881	207.81	9.6362e-06	9.6795e-07	368.76	89.364	1.2308e-05	1.1774e-05	165.68	66.013	36.83	19.423	5.1608e-06	36.021	0.0046359	0.0047371	0.0012797	657.32	5.2406e-05	5.1597e-05	713.45	210	5.1891e-05	5.1631e-05	416.45	131.69	103.05	41.009	5.0229e-05	65.736	227.405	175.612	351.077	94.985	182.539	113.084	94.448	101.432	275.954	293.226	98.925	102.799	105.909	108.739	309.902	106.663	-8191	255	
7225.328	1	1	0	0	0.18718	0.16983	0.22391	0.084564	0.2067	0.14157	0.27456	0.07817	0.049778	0.083233	0.28276	0.17157	0.08726	0.25738	0.2177	0.29528	-2.4167	-3.5	-2.3438	-3.3833	-2.8042	-2.5458	-3.4062	-2.5812	-2.725	-3.2208	-2.5208	-3.0375	-3.0521	-2.5417	-3.3896	-2.9083	432.148	102.319	402.456	222.389	136.011	134.970	258.716	100.708	374.461	290.026	271.778	369.426	237.071	423.267	252.913	397.995	8.2415e-05	0.0014702	4.7998e-05	203.18	3.0992e-06	1.0225e-05	364.97	88.758	8.5103e-06	2.0538e-05	167.36	65.788	36.225	19.458	2.6423e-05	35.616	0.0045906	0.004652	0.001289	660.14	5.1978e-05	5.0763e-05	714.66	211.07	5.1514e-05	5.0754e-05	419.52	132.21	102.55	40.9	5.0962e-05	65.975	220.540	347.246	101.856	95.413	216.574	434.662	94.545	101.808	345.993	347.350	98.670	102.666	104.979	108.667	236.131	105.668	-8191	255	
7225.424	1	1	0	0	0.15996	0.094845	0.17262	0.095506	0.060814	0.28743	0.1827	0.44365	0.20279	0.18513	0.051844	0.063935	0.17218	0.26238	0.12094	0.077053	-2.3937	-3.4146	-2.5292	-3.0667	-3.2521	-2.4292	-3.4083	-2.7958	-2.8333	-3.2812	-2.6937	-2.8438	-3.1208	-2.2917	-3.1667	-2.9125	125.426	256.762	109.655	254.822	173.788	318.032	419.030	196.465	407.129	99.610	217.020	246.109	118.701	243.712	256.344	159.395	0.00054794	0.00072021	0.00061175	203.13	1.5422e-05	2.2479e-05	368.64	89.049	5.9159e-06	2.8268e-05	169.37	66.295	36.775	19.628	1.8109e-05	36.279	0.0045715	0.004634	0.0013189	664.78	5.1805e-05	5.0486e-05	723.44	212.59	5.182e-05	5.1058e-05	429.29	132.86	102.83	40.871	5.2485e-05	66.356	195.143	206.931	171.684	94.868	99.814	91.205	94.885	100.737	236.793	272.775	98.798	103.127	105.207	108.338	290.245	106.284	-8191	255	
7225.545	1	1	0	0	0.29035	0.10074	0.17256	0.29044	0.058949	0.06437	0.19518	0.018978	0.062732	0.15451	0.15663	0.15863	0.27917	0.32234	0.16766	0.027831	-2.2896	-3.2271	-2.5458	-3.0042	-3.1896	-2.3396	-3.3937	-2.9437	-2.5812	-3.4146	-2.725	-2.9062	-3.2229	-2.5312	-3.0917	-2.8521	361.903	230.986	261.651	304.886	128.065	143.122	98.413	152.744	368.952	330.524	247.511	381.030	340.002	341.654	151.398	343.250	0.00054871	0.00095324	0.00012302	201.07	1.8585e-05	8.1932e-06	374.96	88.716	9.7906e-06	1.2389e-05	166.99	67.006	36.35	19.601	4.3451e-06	36.098	0.0045937	0.0046165	0.0013506	666.62	5.208e-05	5.0989e-05	735.59	212	5.1473e-05	5.1146e-05	433.4	132.39	102.14	41.088	5.3251e-05	66.003	258.006	163.853	343.614	94.688	438.707	277.786	94.169	102.045	270.444	234.948	99.239	102.704	105.259	108.705	215.447	105.965	-8191	255	
7225.617	1	1	0	0	0.23143	0.24947	0.24091	0.12616	0.23492	0.13321	0.01977	0.12688	0.11031	0.2068	0.098664	0.085204	0.19738	0.1411	0.28856	0.25322	-1.8958	-3.3333	-2.7792	-2.8187	-3.475	-2.4625	-3.1479	-3.1479	-2.4292	-3.4229	-2.9396	-2.8167	-3.2083	-2.6	-3.1333	-3.1312	154.815	382.649	204.139	355.915	189.844	262.308	194.325	298.561	354.975	298.920	436.620	383.327	395.124	326.875	180.583	114.263	0.00041344	0.00089155	0.00030411	200.33	9.4084e-06	1.1759e-05	365.88	87.412	5.3274e-06	2.0311e-05	167.31	65.994	36.645	19.478	9.6385e-06	35.874	0.004539	0.00469	0.0013669	662.29	5.1363e-05	5.1964e-05	734.86	211.15	5.1164e-05	5.2078e-05	434.51	131.96	101.75	41.619	5.3657e-05	65.814	296.694	151.761	282.977	95.729	211.372	222.802	94.536	100.027	354.251	203.102	98.279	102.742	105.177	108.343	365.478	105.546	-8191	255	
7225.713	1	1	0	0	0.027893	0.1542	0.16403	0.086413	0.11439	0.17499	0.11689	0.13114	0.24695	0.1549	0.23665	0.27104	0.066966	0.17136	0.02501	0.22751	-2.0292	-3.1437	-2.6646	-2.7188	-3.4417	-2.1937	-2.9604	-3.3167	-2.5563	-3.2229	-2.9562	-2.55	-3.1875	-2.7104	-2.9458	-3.2333	362.212	441.204	157.973	343.537	228.494	297.952	149.740	216.563	150.897	182.322	323.634	254.325	219.841	438.076	124.081	431.433	0.00035884	0.0012766	0.00012764	202.39	1.6101e-05	1.3456e-05	369.1	88.845	1.5289e-05	1.4878e-05	166.41	66.002	36.783	19.399	1.7081e-05	35.882	0.0045085	0.0047728	0.0013652	658.82	5.0434e-05	5.2546e-05	732.12	209.53	5.0471e-05	5.2765e-05	432.81	131.38	101.4	42.118	5.3118e-05	65.852	279.603	137.642	341.184	96.593	192.858	185.727	94.941	100.973	160.385	225.820	97.953	103.176	105.525	109.408	181.660	106.442	-8191	255	
7225.809	1	1	0	0	0.17253	0.16511	0.23899	0.49623	0.31939	0.17985	0.27081	0.20496	0.099552	0.099712	0.058004	0.10593	0.040277	0.16243	0.16732	0.1735	-2.1458	-3.1604	-2.8625	-2.6312	-3.2875	-2.5062	-2.8042	-3.3229	-2.3	-3.325	-3.0729	-2.3292	-3.3042	-2.8063	-2.5187	-3.2833	437.952	192.573	142.367	359.515	401.352	383.338	363.404	290.280	332.053	146.416	114.895	307.362	202.517	407.983	216.226	116.245	0.00029584	0.0013472	0.00012576	200.31	5.0664e-06	8.3318e-06	370.27	88.796	1.5711e-05	7.8114e-06	169.64	66.389	36.802	19.711	1.5912e-05	36.303	0.0045158	0.0048541	0.0013509	656.27	5.0686e-05	5.3435e-05	731.5	209.1	5.0989e-05	5.3343e-05	431.69	131	102.54	42.293	5.2812e-05	65.43	214.232	256.422	177.913	95.741	154.848	218.407	94.216	101.675	257.947	368.104	98.826	103.863	105.327	109.317	173.869	106.307	-8191	255	
7225.905	1	1	0	0	0.13819	0.15147	0.26274	0.056545	0.11787	0.19985	0.26834	0.10625	0.079083	0.1244	0.23805	0.13406	0.26412	0.14839	0.18778	0.13205	-2.3583	-3.2125	-3.0875	-2.5125	-3.6208	-2.7083	-2.5521	-3.3937	-2.5479	-3.1021	-3.2687	-2.375	-3.2687	-2.8812	-2.6312	-3.3458	381.090	253.621	169.957	297.112	155.802	239.397	289.225	173.475	284.112	101.654	93.629	233.241	347.016	291.498	243.374	241.790	0.00054637	0.00094003	0.00022752	201.86	1.3331e-05	6.7088e-06	372.53	88.881	8.6915e-06	1.455e-05	167	65.813	37.069	19.632	1.5818e-05	35.791	0.0045964	0.0048807	0.0013514	651.86	5.1896e-05	5.3627e-05	731.01	208.18	5.2087e-05	5.3465e-05	428.95	129.86	103.12	42.107	5.2356e-05	64.958	266.467	372.141	333.297	96.035	283.787	281.081	94.686	100.915	173.671	135.118	98.905	103.080	105.452	109.127	201.300	106.310	-8191	255	
7226.026	1	1	0	0	0.21923	0.12314	0.11878	0.17515	0.39505	0.12501	0.26367	0.1791	0.19797	0.15204	0.19272	0.12385	0.008706	0.12591	0.10841	0.21792	-2.1229	-2.9458	-3.2083	-2.3854	-3.2687	-3.0187	-2.5187	-3.3604	-2.6708	-2.9833	-3.5729	-2.5438	-3.5646	-3.0708	-2.6854	-3.5729	425.690	406.411	333.424	347.701	345.218	242.771	309.054	380.768	374.649	206.530	422.088	295.591	203.025	101.760	205.383	323.025	0.0004724	0.0004959	0.00068909	203.67	2.4768e-05	2.7463e-05	367.99	89.39	1.2224e-05	1.2286e-05	168.3	66.737	37.054	19.773	5.3637e-06	35.975	0.0046674	0.0048475	0.0013325	647.18	5.2633e-05	5.3292e-05	724.77	206.99	5.2891e-05	5.292e-05	427.91	130.38	104.23	41.942	5.1877e-05	65.084	238.749	374.550	334.812	94.444	234.381	408.892	94.262	101.001	272.383	106.183	98.952	103.154	105.624	108.193	252.595	106.371	-8191	255	
7226.122	1	1	0	0	0.073402	0.10014	0.097413	0.232	0.097506	0.085724	0.05435	0.22324	0.14797	0.35694	0.16423	0.027673	0.045765	0.14631	0.13826	0.20884	-2.4917	-3.1292	-3.3896	-2.6188	-3.4375	-3.3979	-2.8583	-3.4708	-2.7812	-3.0646	-3.5	-2.9292	-3.5083	-3.3063	-2.6917	-3.5812	382.017	338.395	372.270	323.844	276.668	358.883	390.968	441.399	280.154	385.648	257.693	273.538	331.969	271.794	197.491	308.731	0.00043226	0.001296	0.00063409	203.12	3.2681e-06	2.0082e-05	370.16	90.359	7.7127e-06	3.8751e-05	166.7	66.421	37.254	19.428	5.8898e-06	36.552	0.0047458	0.0048213	0.0013244	653.42	5.3445e-05	5.3187e-05	726.33	210.17	5.4097e-05	5.3115e-05	427.95	132.32	105.46	42.179	5.1986e-05	66.176	273.212	155.294	322.448	96.011	142.265	113.130	94.502	101.677	416.878	389.918	98.593	103.528	105.621	109.182	395.907	106.177	-8191	255	
7226.194	1	1	0	0	0.18234	0.15468	0.16692	0.32701	0.099647	0.12041	0.1535	0.050283	0.1075	0.10525	0.053014	0.19322	0.17196	0.15234	0.36209	0.20434	-2.3854	-2.9271	-3.5104	-2.9854	-3.4	-3.3625	-2.7375	-3.4479	-3.05	-2.9437	-3.5458	-2.7417	-3.3167	-3.4792	-2.5917	-3.5125	281.256	221.149	397.228	274.825	412.171	167.220	373.247	94.299	113.143	250.767	313.899	365.405	438.834	241.510	274.419	102.987	0.00010751	0.0016918	0.00091581	206.35	4.0091e-06	4.8909e-06	372.02	89.185	7.5629e-06	2.1096e-06	169.34	66.624	37.037	19.413	1.9029e-05	36.301	0.0047919	0.0048385	0.0013209	670.31	5.4055e-05	5.3797e-05	729.85	214.92	5.4526e-05	5.3958e-05	431.49	135.09	106.17	42.265	5.2218e-05	67.234	331.182	260.883	205.979	95.994	286.337	290.216	94.678	101.357	140.686	341.719	99.480	103.596	105.700	109.272	211.241	106.825	-8191	255	
7226.314	1	1	0	0	0.052236	0.17114	0.24442	0.21507	0.32508	0.09084	0.31615	0.16944	0.32551	0.12315	0.058368	0.24435	0.2833	0.10383	0.19242	0.12159	-2.7917	-2.7854	-3.6708	-2.6979	-3.0167	-3.5833	-2.8375	-3.4146	-3.3958	-2.7729	-3.5625	-2.8583	-3.0812	-3.5583	-2.6583	-3.4729	157.122	405.487	315.100	254.384	237.192	333.047	370.589	348.731	433.204	331.911	351.677	427.969	383.477	144.346	412.158	442.806	0.00032593	0.00089797	0.00020364	205.81	2.5385e-05	1.4909e-05	374.26	88.744	9.1743e-06	5.9406e-06	166.41	67.081	36.778	19.756	1.761e-05	36.29	0.004832	0.004857	0.0013346	678.28	5.3557e-05	5.2896e-05	727.92	214.71	5.3287e-05	5.2307e-05	427.15	134.41	104.5	41.68	5.2018e-05	66.8	226.978	94.130	88.688	94.576	424.392	262.417	95.095	101.599	336.199	107.628	99.251	103.208	105.956	109.539	292.782	106.124	-8191	255	
7226.410	1	1	0	0	0.095551	0.2156	0.16823	0.082267	0.05612	0.074508	0.11597	0.0771	0.13351	0.23217	0.12237	0.060263	0.0991	0.070512	0.23354	0.14631	-2.675	-2.6562	-3.6583	-2.8937	-2.9917	-3.5125	-2.9167	-3.4125	-3.3	-2.6479	-3.7396	-3.0229	-2.8833	-3.5979	-2.5563	-3.2583	126.286	123.669	414.341	318.001	269.316	203.278	399.901	369.456	138.860	424.151	199.960	277.764	365.351	185.870	271.480	305.833	0.0001607	0.0010565	0.00029347	205.75	1.4888e-05	6.7351e-06	373.58	90.081	1.1588e-05	2.2574e-05	170.08	66.699	36.691	19.588	1.6657e-05	36.279	0.0046889	0.0047213	0.0013281	675.38	5.2517e-05	5.1706e-05	731.33	214.55	5.2663e-05	5.163e-05	432.8	134.59	104.44	41.371	5.3359e-05	66.852	255.405	427.182	234.924	95.839	165.544	393.590	94.896	101.568	103.894	182.652	99.410	103.754	105.374	109.565	244.874	106.937	-8191	255	
7226.507	1	1	0	0	0.11461	0.18102	0.16061	0.46965	0.22673	0.15663	0.23035	0.25407	0.060159	0.26489	0.26739	0.026174	0.25727	0.23366	0.15256	0.095282	-3.0771	-2.6542	-3.625	-3.225	-2.8604	-3.6396	-2.9354	-3.3417	-3.3438	-2.9333	-3.575	-3.2083	-2.9104	-3.5229	-2.9458	-3.1271	383.224	395.725	109.773	405.447	160.520	184.488	353.481	102.017	112.258	350.283	371.692	179.476	112.678	440.797	437.084	142.972	0.00038274	0.0013127	0.00019195	202.63	1.4992e-05	1.7155e-05	375.05	89.167	1.3503e-05	2.9702e-05	169.61	67.541	37.901	19.83	1.274e-05	36.763	0.0047314	0.0047097	0.0013674	677.95	5.281e-05	5.181e-05	743.81	215.66	5.2784e-05	5.1808e-05	439.62	135.67	104.56	41.688	5.4442e-05	67.286	244.669	270.068	341.467	96.477	202.470	121.782	95.448	101.522	441.685	283.530	98.892	103.807	105.223	108.980	89.847	106.610	-8191	255	
7226.625	1	1	0	0	0.14418	0.20811	0.23652	0.077615	0.31875	0.18722	0.23935	0.010062	0.086503	0.10917	0.083652	0.28483	0.15933	0.097555	0.27716	0.10729	-3.1521	-2.7146	-3.4938	-3.0271	-2.6562	-3.5271	-3	-3.0812	-3.2333	-2.55	-3.3375	-3.1583	-2.5958	-3.7083	-3.0938	-3.0062	247.290	371.411	330.264	407.092	433.915	322.191	432.922	359.379	102.578	273.477	263.864	439.765	287.503	104.396	205.062	97.281	0.0003077	0.0011124	0.0004093	202.25	2.4441e-05	7.9752e-06	375.79	90.359	1.1808e-05	3.0536e-05	171.42	67.245	36.978	19.633	1.1178e-05	36.33	0.0047033	0.0048008	0.0013993	682.87	5.3e-05	5.2715e-05	754.28	216.31	5.258e-05	5.2778e-05	443.62	134.96	103.53	41.842	5.4873e-05	66.595	264.134	153.134	129.357	95.766	299.650	118.820	94.673	101.979	176.084	257.935	99.124	103.175	106.635	108.984	135.685	106.827	-8191	255	
7226.722	1	1	0	0	0.14683	0.068969	0.10042	0.21596	0.1472	0.16968	0.056876	0.24587	0.053732	0.21634	0.071084	0.25628	0.22406	0.088561	0.088124	0.20245	-3.1708	-2.5625	-3.1521	-3.5417	-2.7396	-3.4896	-3.0854	-3.0812	-3.5979	-2.8021	-3.2625	-3.5083	-2.7438	-3.5354	-3.0625	-2.9458	405.332	416.523	353.769	347.623	231.542	235.105	284.870	436.061	389.007	116.630	210.029	132.150	109.006	377.930	388.301	373.748	0.00055718	0.0013892	0.00038072	206.15	1.3901e-05	1.9252e-05	373.76	89.131	4.3457e-06	1.8801e-05	167.53	66.926	37.251	19.584	2.5975e-05	36.169	0.0046132	0.0048483	0.0013855	674.4	5.1883e-05	5.3158e-05	747.5	214.17	5.184e-05	5.4123e-05	442.1	134.66	103.2	42.474	5.4612e-05	66.506	217.223	89.700	224.730	96.551	292.119	230.096	95.119	101.838	376.823	259.673	99.754	103.475	105.884	110.289	93.830	106.753	-8191	255	
7226.818	1	1	0	0	0.12083	0.15568	0.096291	0.23902	0.098492	0.15825	0.036642	0.19179	0.16998	0.094654	0.099683	0.21991	0.068717	0.32179	0.22718	0.23475	-3.1729	-2.9292	-3.0187	-3.6292	-2.7396	-3.2708	-3.2729	-2.6292	-3.5875	-3.0375	-3.2646	-3.6167	-2.5833	-3.6083	-3.0792	-2.6458	267.570	253.850	204.740	428.805	371.331	428.842	269.322	129.739	130.594	283.902	369.690	352.418	349.526	371.753	181.746	327.721	0.00033046	0.00032843	0.00032265	205.23	7.9882e-06	2.7876e-05	372.09	91.255	1.3599e-05	1.3085e-05	168.75	67.1	36.947	19.639	1.0585e-05	36.787	0.0046023	0.0049534	0.001375	667.68	5.1408e-05	5.3772e-05	744.78	213.27	5.1765e-05	5.4596e-05	438.76	133.63	104.2	42.8	5.4289e-05	66.225	227.006	244.654	212.988	96.644	228.253	261.407	95.548	102.085	201.827	205.095	99.907	104.335	106.306	109.953	249.301	106.701	-8191	255	
7226.914	1	1	0	0	0.13825	0.091082	0.20906	0.067349	0.09552	0.064869	0.20682	0.12949	0.14546	0.064903	0.098244	0.14698	0.16966	0.22772	0.179	0.10559	-3.3125	-2.9896	-3.0271	-3.4521	-2.8271	-3.2083	-3.3375	-2.7542	-3.6208	-2.8688	-3.1	-3.6333	-2.6979	-3.2979	-3.3521	-2.7458	341.823	343.634	276.671	348.417	147.554	109.867	142.801	308.822	352.572	422.328	342.915	383.639	256.953	349.462	195.488	239.162	9.9848e-05	0.00092531	0.00031052	199.79	1.5293e-05	9.2756e-06	375.58	90.442	1.5202e-05	6.0079e-06	170.68	67.048	37.74	19.645	1.2885e-05	36.489	0.0046523	0.0049946	0.0013668	662.66	5.2548e-05	5.4227e-05	743.47	212.08	5.2396e-05	5.4839e-05	438.66	132.94	104.98	42.685	5.3766e-05	65.905	324.763	411.760	385.546	96.169	203.131	417.483	95.414	101.974	392.467	306.431	99.166	103.993	106.402	109.278	302.600	107.027	-8191	255	
7227.010	1	1	0	0	0.09601	0.14767	0.21393	0.12555	0.26405	0.02456	0.44972	0.17368	0.13747	0.13423	0.026303	0.15769	0.18007	0.28255	0.10502	0.12388	-3.1646	-3.1562	-2.8146	-3.7729	-2.7271	-3.1354	-3.5521	-2.9521	-3.4604	-3.1542	-2.9562	-3.5854	-2.7917	-3.2375	-3.3937	-2.9396	317.788	173.119	152.553	427.712	166.279	401.869	429.022	413.446	92.989	270.352	126.829	370.956	396.630	367.371	155.841	326.189	0.0004374	0.00025525	0.00019134	203.3	3.2469e-06	1.2549e-05	372.8	89.102	2.2188e-05	1.1603e-05	170.34	66.956	37.399	19.588	1.5736e-05	36.106	0.0047298	0.004997	0.0013602	658.12	5.3417e-05	5.3861e-05	739.85	209.81	5.3396e-05	5.4417e-05	435.37	131.89	105.95	42.356	5.3298e-05	65.369	228.799	261.852	206.160	96.600	299.264	210.985	95.844	102.530	220.333	182.795	99.655	103.882	105.813	110.078	406.160	106.996	-8191	255	
#DATA ENDS
