BOXY.EXE: ISS Imagent and Oximeter Data Acquisition Program Version 0.80
Ascii Record File

#ACQ INFORMATION
2  Detector Channels 
16  External MUX Channels 
1  Auxiliary Channels 
5000  Waveform (CCF) Frequency (Hz)
1  Waveforms Skipped 
30  Waveforms Averaged 
1  Cycles Averaged 
16  Acquisitions per Waveform 
10.0806  Updata Rate (Hz) 

#FILE INFORMATION
TRUE -- External MUX Channel results are PARSED.
FALSE -- AC DC and Phase are NOT grouped.
TRUE -- Companion Program Settings File CREATED.
FALSE -- AC data not excluded
FALSE -- DC data not excluded
FALSE -- Phase data not excluded
FALSE -- Auxillary Chn. data not excluded
Tab delimiters

#CALIBRATION STATE
TRUE -- Waveform Calibration Values APPLIED.


#AUX CALIBRATION VALUES
Val Type	aux-1	

Term	1.0000e+00	
Factor	0.0000e+00	


#WF CALIBRATION VALUES
A = Detector Channel
Val Type	A-AC1	A-AC2	A-AC3	A-AC4	A-AC5	A-AC6	A-AC7	A-AC8	A-AC9	A-AC10	A-AC11	A-AC12	A-AC13	A-AC14	A-AC15	A-AC16	A-DC1	A-DC2	A-DC3	A-DC4	A-DC5	A-DC6	A-DC7	A-DC8	A-DC9	A-DC10	A-DC11	A-DC12	A-DC13	A-DC14	A-DC15	A-DC16	A-Ph1	A-Ph2	A-Ph3	A-Ph4	A-Ph5	A-Ph6	A-Ph7	A-Ph8	A-Ph9	A-Ph10	A-Ph11	A-Ph12	A-Ph13	A-Ph14	A-Ph15	A-Ph16	

Term	0.00000e+00	0.00000e+00	0.00000e+00	0.00000e+00	0.00000e+00	0.00000e+00	0.00000e+00	0.00000e+00	0.00000e+00	0.00000e+00	0.00000e+00	0.00000e+00	0.00000e+00	0.00000e+00	0.00000e+00	0.00000e+00	0.00000e+00	0.00000e+00	0.00000e+00	0.00000e+00	0.00000e+00	0.00000e+00	0.00000e+00	0.00000e+00	0.00000e+00	0.00000e+00	0.00000e+00	0.00000e+00	0.00000e+00	0.00000e+00	0.00000e+00	0.00000e+00	0.00000e+00	0.00000e+00	0.00000e+00	0.00000e+00	0.00000e+00	0.00000e+00	0.00000e+00	0.00000e+00	0.00000e+00	0.00000e+00	0.00000e+00	0.00000e+00	0.00000e+00	0.00000e+00	0.00000e+00	0.00000e+00	
Factor	1.00000e+00	1.00000e+00	1.00000e+00	1.00000e+00	1.00000e+00	1.00000e+00	1.00000e+00	1.00000e+00	1.00000e+00	1.00000e+00	1.00000e+00	1.00000e+00	1.00000e+00	1.00000e+00	1.00000e+00	1.00000e+00	1.00000e+00	1.00000e+00	1.00000e+00	1.00000e+00	1.00000e+00	1.00000e+00	1.00000e+00	1.00000e+00	1.00000e+00	1.00000e+00	1.00000e+00	1.00000e+00	1.00000e+00	1.00000e+00	1.00000e+00	1.00000e+00	X	X	X	X	X	X	X	X	X	X	X	X	X	X	X	X	

B = Detector Channel
Val Type	B-AC1	B-AC2	B-AC3	B-AC4	B-AC5	B-AC6	B-AC7	B-AC8	B-AC9	B-AC10	B-AC11	B-AC12	B-AC13	B-AC14	B-AC15	B-AC16	B-DC1	B-DC2	B-DC3	B-DC4	B-DC5	B-DC6	B-DC7	B-DC8	B-DC9	B-DC10	B-DC11	B-DC12	B-DC13	B-DC14	B-DC15	B-DC16	B-Ph1	B-Ph2	B-Ph3	B-Ph4	B-Ph5	B-Ph6	B-Ph7	B-Ph8	B-Ph9	B-Ph10	B-Ph11	B-Ph12	B-Ph13	B-Ph14	B-Ph15	B-Ph16	

Term	0.00000e+00	0.00000e+00	0.00000e+00	0.00000e+00	0.00000e+00	0.00000e+00	0.00000e+00	0.00000e+00	0.00000e+00	0.00000e+00	0.00000e+00	0.00000e+00	0.00000e+00	0.00000e+00	0.00000e+00	0.00000e+00	0.00000e+00	0.00000e+00	0.00000e+00	0.00000e+00	0.00000e+00	0.00000e+00	0.00000e+00	0.00000e+00	0.00000e+00	0.00000e+00	0.00000e+00	0.00000e+00	0.00000e+00	0.00000e+00	0.00000e+00	0.00000e+00	-2.80792e+01	-1.26731e+02	-1.22018e+02	-1.83776e+02	-5.40367e+01	-5.85387e+01	-1.56154e+02	-1.62015e+02	-3.33067e+01	-7.23125e+01	-1.69848e+02	-1.70119e+02	-1.79176e+02	-1.76608e+02	-5.86712e+01	-1.49440e+02	
Factor	2.52474e-05	1.47901e-04	3.78751e-05	1.73751e-01	1.70863e-06	1.59019e-06	1.53219e-01	4.81282e-02	1.39630e-06	1.50569e-06	8.24633e-02	2.87923e-02	2.45327e-02	8.81194e-03	1.71434e-06	1.25282e-02	7.24671e-06	9.23466e-06	2.57945e-06	9.15544e-02	9.73687e-08	1.02327e-07	7.57850e-02	2.54859e-02	9.67483e-08	1.02096e-07	4.23445e-02	1.47771e-02	1.31307e-02	4.71386e-03	9.89239e-08	6.47113e-03	X	X	X	X	X	X	X	X	X	X	X	X	X	X	X	X	



#DISTANCE SETTINGS
A = Detector Channel
A-1	A-2	A-3	A-4	A-5	A-6	A-7	A-8	A-9	A-10	A-11	A-12	A-13	A-14	A-15	A-16	

2.5000e+00	3.0000e+00	2.5000e+00	3.0000e+00	2.0000e+00	3.0000e+00	1.5000e+00	3.0000e+00	3.0000e+00	3.0000e+00	3.0000e+00	3.0000e+00	3.0000e+00	3.0000e+00	1.5000e+00	3.0000e+00	

B = Detector Channel
B-1	B-2	B-3	B-4	B-5	B-6	B-7	B-8	B-9	B-10	B-11	B-12	B-13	B-14	B-15	B-16	

1.0000e+01	1.0000e+01	1.0000e+01	1.4400e+00	1.0000e+01	1.0000e+01	1.5100e+00	1.9400e+00	1.0000e+01	1.0000e+01	1.9900e+00	2.4900e+00	2.4100e+00	2.9000e+00	1.0000e+01	2.9800e+00	




#DATA BEGINS
time	group	step	mark	flag	A-AC1	A-AC2	A-AC3	A-AC4	A-AC5	A-AC6	A-AC7	A-AC8	A-AC9	A-AC10	A-AC11	A-AC12	A-AC13	A-AC14	A-AC15	A-AC16	A-DC1	A-DC2	A-DC3	A-DC4	A-DC5	A-DC6	A-DC7	A-DC8	A-DC9	A-DC10	A-DC11	A-DC12	A-DC13	A-DC14	A-DC15	A-DC16	A-Ph1	A-Ph2	A-Ph3	A-Ph4	A-Ph5	A-Ph6	A-Ph7	A-Ph8	A-Ph9	A-Ph10	A-Ph11	A-Ph12	A-Ph13	A-Ph14	A-Ph15	A-Ph16	B-AC1	B-AC2	B-AC3	B-AC4	B-AC5	B-AC6	B-AC7	B-AC8	B-AC9	B-AC10	B-AC11	B-AC12	B-AC13	B-AC14	B-AC15	B-AC16	B-DC1	B-DC2	B-DC3	B-DC4	B-DC5	B-DC6	B-DC7	B-DC8	B-DC9	B-DC10	B-DC11	B-DC12	B-DC13	B-DC14	B-DC15	B-DC16	B-Ph1	B-Ph2	B-Ph3	B-Ph4	B-Ph5	B-Ph6	B-Ph7	B-Ph8	B-Ph9	B-Ph10	B-Ph11	B-Ph12	B-Ph13	B-Ph14	B-Ph15	B-Ph16	aux-1	digaux	

25390.316	1	1	0	512	0.22574	0.2191	0.063585	0.22638	0.21542	0.32847	0.18585	0.0951	0.12574	0.18991	0.36255	0.13241	0.229	0.27534	0.22044	0.14731	-3.2062	-2.8812	-3.3458	-3.5875	-2.8875	-3.5625	-3.4333	-3.0438	-3.5583	-3	-3.4875	-3.5333	-3.0167	-3.5354	-3.325	-3.2354	230.290	277.879	238.083	460.925	439.496	317.916	144.823	483.625	158.016	442.606	397.515	404.302	157.066	425.015	258.757	449.436	0.0012642	0.0022498	0.00057915	1107.3	4.9404e-05	1.4252e-05	1448.5	341.83	3.4144e-05	7.3367e-06	535.72	229.15	144.04	52.655	4.5728e-05	98.277	0.011305	0.014278	0.0039664	1016.1	0.00014936	0.00015856	1269.5	313.46	0.00014705	0.00015476	493.55	206.28	134.34	49.812	0.00015081	89.498	293.851	337.273	431.268	144.577	225.616	266.385	144.392	149.253	491.076	444.933	148.201	151.565	152.167	156.478	326.025	153.999	-8191	255	
25390.412	1	1	0	0	0.29719	0.20429	0.27612	0.14481	0.22343	0.11414	0.31632	0.17081	0.23431	0.12914	0.13247	0.20195	0.28604	0.24127	0.17416	0.23475	-3.2375	-3.1396	-3.0708	-3.7667	-2.9021	-3.4	-3.5208	-3.0438	-3.7896	-3.2167	-3.2229	-3.8125	-3.0979	-3.4729	-3.3208	-3.2	382.553	258.528	316.643	359.544	338.791	139.486	449.211	466.120	165.680	378.022	455.015	366.747	453.083	487.437	246.805	391.283	0.0010179	0.0035965	0.00058625	1093.6	3.2905e-05	1.1522e-05	1439.6	343.29	1.0629e-05	1.047e-05	532.87	227.95	142.83	53.384	1.0881e-05	97.959	0.011435	0.01416	0.0040259	1013.4	0.00014885	0.00015744	1267.8	313.23	0.00014749	0.00015692	493.49	206.51	134.02	50.125	0.0001534	89.216	258.101	299.238	466.463	143.860	242.874	209.004	144.101	148.891	347.828	444.394	147.601	151.917	152.340	156.476	303.205	154.119	-8191	255	
25390.508	1	1	0	0	0.089206	0.21193	0.14819	0.11301	0.23314	0.11643	0.21399	0.34198	0.10649	0.04213	0.24167	0.41704	0.13101	0.081042	0.095251	0.17206	-3.2125	-3.0042	-2.9313	-4.0271	-2.9667	-3.2687	-3.6813	-3.0687	-3.5438	-3.2229	-3.2417	-3.8021	-3.2562	-3.2417	-3.4292	-3.0333	392.857	360.158	148.480	442.420	409.241	260.983	379.750	443.987	361.303	276.349	432.563	419.421	445.835	427.371	252.358	410.372	0.0013104	0.0021793	0.00024889	1097.6	2.7684e-05	1.6245e-05	1448	344.2	4.1079e-05	1.4766e-05	538.89	228.87	141.45	52.937	3.9798e-05	98.34	0.011327	0.014317	0.0040406	1013.8	0.00015112	0.0001576	1271.2	314.33	0.00015014	0.00015871	495.49	206.52	133.9	50.041	0.00015559	89.619	299.364	217.698	247.825	144.255	477.154	252.123	144.462	148.937	275.526	373.637	147.732	151.137	151.656	156.013	225.796	154.094	-8191	255	
25390.604	1	1	0	0	0.1301	0.097569	0.20788	0.26025	0.11127	0.18256	0.1062	0.17351	0.15804	0.047125	0.15565	0.098284	0.065771	0.30639	0.11137	0.12964	-3.1417	-3.0938	-2.85	-3.5479	-2.9292	-3.2667	-3.7271	-2.9979	-3.6417	-3.325	-3.1479	-3.7167	-3.2542	-3.1625	-3.5417	-3.2708	151.783	412.068	305.295	449.621	259.428	242.465	273.716	165.918	373.326	298.669	150.524	484.230	421.527	438.746	194.217	307.061	0.0015833	0.0031233	0.00044499	1083.4	1.6712e-05	1.7543e-05	1439.4	342	1.6496e-05	2.3195e-05	535.94	231.73	142.1	53.262	1.7507e-05	98.891	0.011537	0.014504	0.0040749	1015.1	0.00015119	0.00016045	1274.8	315.08	0.00014986	0.0001602	498.34	207.99	134.3	50.45	0.00015364	89.813	300.989	475.066	215.902	144.368	199.610	219.976	144.487	149.103	307.523	300.297	147.580	151.769	152.294	155.708	287.910	154.612	-8191	255	
25390.699	1	1	0	0	0.14414	0.12755	0.16378	0.069204	0.23616	0.22678	0.077168	0.12705	0.3136	0.034024	0.22376	0.13989	0.10305	0.29324	0.23524	0.086566	-3.2458	-3.3917	-3.0187	-3.8021	-3.1937	-3.0042	-3.7583	-3.0646	-3.5646	-3.5062	-3.1896	-3.8771	-3.2313	-3.2208	-3.7292	-3.1917	394.685	395.643	347.426	350.894	184.250	346.439	355.682	165.541	183.607	147.818	454.885	142.270	176.589	206.023	410.882	483.284	0.00098219	0.00048961	0.0011875	1089.1	2.8954e-05	2.2249e-05	1442.9	343.26	2.2029e-05	1.6964e-05	535.63	231.52	142.49	52.587	2.6626e-05	98.334	0.011625	0.014346	0.0040853	1015.3	0.00015206	0.00015962	1272.4	314.74	0.00015069	0.00016044	495.22	207.87	134.59	49.974	0.00015348	89.675	292.558	479.738	220.475	144.272	242.496	255.221	144.626	149.082	310.510	420.898	147.760	151.891	152.417	155.929	337.824	154.521	-8191	255	
25390.797	1	1	0	0	0.16597	0.36622	0.070878	0.21822	0.21497	0.20693	0.26997	0.11156	0.20364	0.18403	0.23675	0.26228	0.080791	0.29375	0.037339	0.23033	-3.1875	-3.35	-2.9604	-3.9833	-3.05	-3.1458	-3.9062	-3.3542	-3.3375	-3.4417	-3.0125	-3.6104	-3.5208	-3.1375	-3.8083	-3.3542	340.678	462.271	228.558	167.029	218.888	399.340	426.588	477.322	198.875	218.198	181.013	477.210	220.360	389.379	484.467	485.803	0.0013292	0.0011576	0.00079135	1091.6	2.5133e-05	2.2063e-05	1441.4	342.68	2.3131e-05	2.3086e-05	536.32	231.38	143.59	53.399	4.4716e-05	98.483	0.011517	0.014325	0.0039921	1019	0.00015035	0.00015952	1275.5	315.21	0.00015013	0.0001589	497.21	208.21	135	50.393	0.00015198	89.962	275.772	403.445	150.447	145.143	394.427	136.928	144.202	149.048	246.872	199.695	147.564	151.729	152.143	156.228	183.314	154.279	-8191	255	
25390.914	1	1	0	0	0.23744	0.10043	0.14568	0.28948	0.26297	0.051393	0.11342	0.043761	0.089955	0.11123	0.16166	0.32912	0.093216	0.14757	0.11326	0.19598	-2.9333	-3.5312	-2.8479	-3.5625	-3.2292	-2.9417	-3.7979	-3.3521	-3.1833	-3.7104	-3.1104	-3.6625	-3.4229	-2.9333	-3.5021	-3.3729	207.157	361.366	320.098	133.921	451.531	344.513	442.460	304.845	133.424	333.517	478.316	442.472	165.450	479.030	453.919	453.529	0.0017068	0.0047686	0.00087645	1101.9	9.055e-06	1.6733e-05	1442.3	343.99	1.4206e-05	4.5451e-05	536.75	230.48	142.97	53.29	1.8211e-05	98.994	0.01151	0.014285	0.0039882	1017.6	0.00015146	0.00015759	1274.3	313.96	0.00015084	0.00015725	496.54	206.88	134.62	50.208	0.00015275	89.688	288.399	213.435	282.857	144.221	244.344	312.702	144.447	148.836	347.834	343.646	147.873	151.372	151.812	155.783	138.841	154.026	-8191	255	
25391.012	1	1	0	0	0.0047291	0.091738	0.21083	0.19403	0.16578	0.13788	0.15638	0.22733	0.15484	0.23079	0.12251	0.20161	0.34366	0.066049	0.18273	0.23711	-2.9875	-3.5542	-3.1958	-3.6771	-3.4292	-3.0208	-3.8875	-3.5354	-3.0792	-3.7708	-3.1688	-3.4479	-3.6354	-3.1271	-3.6792	-3.5187	261.336	137.298	348.856	453.226	132.009	430.047	440.745	428.871	238.311	162.723	451.893	448.109	431.403	411.633	283.400	422.556	0.0013428	0.0041617	0.00066267	1109.3	1.9252e-05	2.3926e-05	1443.4	343.96	1.6591e-06	1.6871e-06	540.59	232.47	144.29	53.685	2.336e-05	99.709	0.011515	0.014269	0.0039409	1021.6	0.00015251	0.00015723	1273.2	314.5	0.0001504	0.0001571	497.88	208.22	135.17	50.458	0.0001531	90.151	291.149	268.567	320.163	144.559	172.042	449.746	144.598	149.251	177.366	304.831	148.043	151.750	152.008	156.054	148.710	154.309	-8191	255	
25391.107	1	1	0	0	0.01602	0.046045	0.20486	0.23204	0.056445	0.18523	0.398	0.1019	0.32411	0.025949	0.11536	0.10923	0.12577	0.30442	0.21155	0.26618	-2.6208	-3.8229	-3.0354	-3.4354	-3.4854	-3.0896	-3.6958	-3.3417	-2.9354	-3.6458	-3.3417	-3.4437	-3.7229	-3.0875	-3.5958	-3.3937	240.985	369.476	170.065	441.135	242.339	320.346	363.534	471.358	339.237	416.168	372.909	412.622	154.844	440.720	149.589	468.245	0.0018314	0.0026643	0.00041958	1089.4	3.8026e-05	4.0949e-05	1450.1	344.4	2.4375e-06	1.0777e-05	536.31	230.15	143.56	53.943	5.1902e-05	98.897	0.011496	0.014206	0.0040066	1015.2	0.0001503	0.00015954	1278.9	314.48	0.00015138	0.00015537	495.72	208	134.85	50.309	0.0001535	89.922	293.160	490.292	397.737	144.298	223.968	216.473	144.478	148.914	308.686	438.635	147.894	151.451	152.405	155.778	265.958	153.676	-8191	255	
25391.180	1	1	0	0	0.11857	0.17394	0.05163	0.075995	0.23897	0.14591	0.22993	0.10015	0.12698	0.24612	0.39102	0.19824	0.16135	0.28485	0.29464	0.21372	-2.5479	-3.7417	-2.8708	-3.2583	-3.6125	-3.0417	-3.5958	-3.6292	-3.1625	-3.625	-3.2167	-3.3958	-3.725	-3.1604	-3.6792	-3.8438	458.136	419.631	257.215	267.345	301.811	171.003	388.308	314.857	167.598	167.082	433.705	372.952	411.192	166.319	176.869	453.177	0.0013963	0.0026983	0.00028377	1097.5	5.6955e-05	3.9983e-05	1459.8	344.31	2.4185e-05	3.8408e-05	537.59	230.39	143.22	52.935	2.2594e-05	98.688	0.01131	0.014034	0.0039585	1018.3	0.00014998	0.00015577	1274.6	313.78	0.00014863	0.00015667	496.16	207.6	134.74	50.08	0.00015194	89.969	273.498	209.447	255.968	144.200	286.993	166.566	144.233	149.401	269.050	282.052	147.640	151.985	152.472	155.914	250.297	154.463	-8191	255	
25391.275	1	1	0	0	0.25229	0.1986	0.061525	0.084665	0.027999	0.10567	0.17446	0.33878	0.23031	0.12911	0.34085	0.14049	0.20582	0.13895	0.091366	0.35987	-2.6292	-3.6854	-3.1958	-2.9562	-3.9	-3.0208	-3.6083	-3.6312	-3.0021	-3.5187	-3.3667	-3.1479	-3.8354	-3.1208	-3.4062	-3.7458	399.028	255.046	400.245	176.013	288.589	176.309	446.340	132.486	166.896	384.123	452.154	409.420	444.688	421.898	297.088	428.430	0.0013721	0.0052059	0.00037584	1094	4.0983e-05	5.6677e-05	1456.7	343.25	2.4957e-05	9.5172e-06	538.42	233.99	144.36	54.006	2.8136e-05	99.537	0.01135	0.014246	0.0039723	1013.2	0.00014942	0.00015675	1275.3	312.92	0.00014888	0.00015561	495.79	208.49	134.97	50.354	0.00015224	89.983	301.919	142.728	246.441	144.070	315.375	272.880	144.299	149.052	408.788	319.035	147.616	151.474	152.262	155.792	369.273	154.051	-8191	255	
25391.396	1	1	0	0	0.12248	0.12253	0.10502	0.19891	0.049182	0.21558	0.47674	0.2309	0.073362	0.16678	0.13432	0.19848	0.20606	0.26951	0.086347	0.18495	-2.5687	-3.6188	-3.325	-3.0938	-3.825	-3.1458	-3.4229	-3.6771	-2.9062	-3.4458	-3.5062	-3.2542	-3.8417	-3.1229	-3.2542	-3.8958	228.896	240.830	491.318	145.576	474.983	163.860	448.466	398.496	195.030	263.902	415.085	469.519	184.651	447.655	143.033	480.022	0.0013536	0.0012227	0.00069326	1101	2.346e-05	2.8477e-05	1454.1	343.98	3.0066e-06	3.1422e-05	539.29	231.24	142.63	53.988	3.9507e-05	99.607	0.011353	0.014222	0.0039948	1020.2	0.00015049	0.00015834	1275.2	314.57	0.00014824	0.00015852	496.37	208.01	135.14	50.373	0.00015318	90.093	284.956	314.199	416.294	144.705	171.703	289.679	143.847	149.324	332.693	225.145	147.250	151.725	152.593	156.221	335.654	153.922	-8191	255	
25391.492	1	1	0	0	0.23496	0.10423	0.14919	0.41172	0.024973	0.17163	0.31228	0.14938	0.078762	0.094909	0.24147	0.20623	0.018052	0.36782	0.12132	0.11904	-2.5792	-3.4479	-3.4146	-3.1937	-3.6063	-3.1937	-3.3812	-3.7958	-3.0333	-3.5438	-3.5042	-3.1937	-3.7625	-3.2229	-3.1688	-3.8479	171.032	257.444	287.922	473.587	352.174	182.227	425.041	197.937	293.897	198.341	485.298	448.901	424.948	165.520	184.244	399.468	0.0012416	0.0023154	0.00061584	1091.8	2.4692e-05	2.1795e-05	1448.9	345.6	2.8489e-05	1.6622e-05	538.67	231.08	143.69	53.179	4.8919e-05	98.735	0.011321	0.014309	0.0039904	1016.5	0.00014834	0.00015857	1274.2	313.72	0.00014846	0.00015843	496.22	207.33	134.33	50.189	0.00015329	89.671	268.910	274.422	271.227	144.204	136.343	202.377	144.563	149.126	350.268	407.892	147.293	151.819	152.149	156.128	337.449	153.812	-8191	255	
25391.588	1	1	0	0	0.091577	0.12459	0.13494	0.24523	0.051643	0.11212	0.14967	0.19224	0.038642	0.13773	0.16445	0.2322	0.17046	0.22824	0.2369	0.098909	-2.6271	-3.3479	-3.3896	-2.9667	-3.7021	-3.3708	-3.1479	-3.8042	-3.0917	-3.3833	-3.7417	-3.0646	-3.5687	-3.4083	-3.0312	-3.7938	383.598	153.878	448.135	413.047	162.811	313.580	481.069	408.404	352.650	418.546	337.271	414.263	151.382	408.708	292.177	480.594	0.0013134	0.0036833	0.00050011	1092.1	4.1406e-05	2.4798e-05	1437.4	345.03	3.2187e-05	2.1693e-05	533.48	231.35	142.73	53.275	1.2945e-05	98.524	0.011449	0.014256	0.0039733	1015.7	0.00014902	0.00015774	1269.7	313.9	0.00014903	0.00015733	493.51	207.65	134.7	50.222	0.00015266	89.615	293.057	253.858	225.265	144.128	400.097	345.763	144.314	148.844	349.265	439.344	147.854	151.856	152.312	155.743	331.291	154.508	-8191	255	
25391.709	1	1	0	0	0.091887	0.09005	0.16006	0.05732	0.096872	0.13924	0.25677	0.28337	0.14487	0.077554	0.23014	0.30088	0.17833	0.2627	0.17143	0.24035	-2.7583	-3.2167	-3.6146	-3.075	-3.6583	-3.4646	-3.1521	-3.7979	-3.0875	-3.1625	-3.8563	-3.1063	-3.6792	-3.5021	-2.8583	-3.9667	482.544	364.033	311.503	148.540	187.917	143.018	452.747	459.847	234.167	236.533	219.136	154.308	449.168	396.432	157.013	363.656	0.0015507	0.00077178	0.0011559	1096.5	1.6967e-05	2.6917e-05	1440.6	344.95	1.5074e-05	2.0859e-05	536.12	231.68	144.66	53.505	2.6026e-05	98.745	0.011426	0.014535	0.0040475	1017.3	0.00014931	0.0001596	1275.8	314.68	0.0001498	0.00015797	496.73	208.85	135.88	50.483	0.00015372	90.294	285.624	226.433	213.755	144.527	176.319	331.201	144.171	149.516	318.663	174.756	148.239	151.723	152.379	155.785	251.174	154.379	-8191	255	
25391.781	1	1	0	0	0.12239	0.089507	0.11601	0.12969	0.13333	0.11594	0.33642	0.39717	0.22003	0.10215	0.18279	0.25933	0.18038	0.11237	0.049175	0.24764	-2.7917	-3.1625	-3.3958	-3.15	-3.3812	-3.6354	-3.275	-3.7125	-3.1708	-3.0563	-3.9854	-3.2	-3.4437	-3.6208	-2.9646	-3.7104	349.119	468.218	155.323	446.400	242.488	205.312	425.356	392.619	312.503	439.895	426.916	160.076	309.378	280.511	449.749	462.380	0.0015826	0.0029935	0.00037219	1082.1	1.8726e-05	2.3765e-05	1454.4	343.11	1.7418e-06	1.6202e-05	536.83	232.12	143.7	53.245	3.3419e-05	98.99	0.011535	0.014369	0.0040027	1016.9	0.00015078	0.00015939	1277.5	314.8	0.00015006	0.00015902	497.14	209.34	135.86	50.558	0.00015425	90.163	285.435	226.273	452.299	144.346	300.552	290.446	144.685	149.196	297.498	485.066	147.784	151.743	152.239	156.076	246.753	154.729	-8191	255	
25391.877	1	1	0	0	0.23014	0.26388	0.24861	0.16182	0.19243	0.043667	0.33749	0.16529	0.16102	0.10007	0.25152	0.26053	0.063289	0.17051	0.1637	0.057003	-3.0521	-2.8396	-3.7458	-3.0896	-3.3771	-3.7146	-3.1521	-3.5729	-3.3167	-2.8438	-3.85	-3.1229	-3.3125	-3.8438	-2.9188	-3.5792	157.950	413.340	343.517	176.267	164.967	325.921	459.738	456.453	426.662	132.346	461.538	151.189	413.038	383.799	301.639	455.195	0.0017474	0.001824	0.00076751	1082.4	4.1012e-05	3.775e-05	1436	346.96	2.1626e-05	2.1028e-05	541.29	230.26	142.69	53.49	3.5997e-05	99.123	0.011589	0.014497	0.0040496	1014.4	0.00015154	0.00015836	1268.6	315.18	0.00015139	0.00015953	497.87	207.24	135.3	50.502	0.00015505	90.076	281.755	274.706	149.469	144.162	196.062	413.928	144.142	149.340	290.834	363.434	147.632	151.877	151.908	155.468	329.609	154.675	-8191	255	
25391.996	1	1	0	0	0.096274	0.094007	0.30924	0.14012	0.25036	0.045552	0.25718	0.16484	0.03491	0.1067	0.27774	0.065102	0.28237	0.47323	0.26461	0.15392	-2.9021	-2.8688	-3.5854	-3.3292	-3.1688	-3.8208	-2.9396	-3.4396	-3.4521	-2.8625	-3.6813	-3.3771	-3.1083	-3.6063	-2.8896	-3.4333	394.818	403.497	377.164	462.813	289.236	332.231	462.767	455.674	169.895	165.280	155.801	465.404	399.723	450.771	402.592	133.283	0.001742	0.0011217	0.00040927	1086.8	3.0731e-05	2.1019e-05	1442	343.54	2.0201e-05	6.8119e-06	533.11	230.7	143.01	53.276	3.5311e-05	98.564	0.011545	0.014528	0.0039948	1017.5	0.00015232	0.00016233	1273.7	315.52	0.00015078	0.0001605	496.2	207.74	135.34	50.454	0.00015543	90.078	296.303	223.222	298.750	144.245	263.568	490.405	144.511	149.137	338.719	455.624	147.457	151.626	152.377	155.664	166.840	154.489	-8191	255	
25392.092	1	1	0	0	0.066935	0.14331	0.094774	0.3569	0.23473	0.15115	0.31948	0.20951	0.098768	0.21778	0.18768	0.35534	0.18126	0.18605	0.08384	0.21586	-3.1146	-2.8333	-3.5083	-3.4375	-3.1354	-3.6833	-3.1688	-3.3937	-3.5771	-2.8021	-3.7396	-3.5583	-2.9021	-3.6375	-3.0938	-3.4271	177.370	377.946	400.243	465.356	436.820	396.413	445.697	442.074	239.156	375.176	440.384	451.555	481.059	449.024	398.271	158.451	0.0012023	0.0029227	0.00038516	1080.2	3.6076e-05	1.3899e-05	1439.5	346.46	3.5183e-05	1.6736e-05	543.54	230.41	143.29	53.271	3.221e-05	98.279	0.011687	0.014696	0.0040783	1015.5	0.00015364	0.00016024	1280.7	315.69	0.00015295	0.00016145	501.08	208.28	135.93	50.506	0.00015655	90.203	305.762	217.940	268.593	144.371	233.072	142.969	144.605	149.772	231.070	231.539	148.294	151.549	152.728	156.212	375.376	154.465	-8191	255	
25392.188	1	1	0	0	0.15562	0.2736	0.096299	0.23989	0.10273	0.031914	0.3233	0.25685	0.10888	0.097496	0.12283	0.30215	0.27048	0.197	0.23848	0.11594	-3.1396	-2.875	-3.5104	-3.4292	-2.8208	-3.7938	-3.2188	-3.1188	-3.5167	-2.95	-3.5333	-3.5042	-3.125	-3.6146	-3.2667	-3.2479	177.099	158.703	413.876	465.983	395.348	256.061	409.197	445.722	350.425	338.255	441.185	428.837	474.064	481.774	215.369	327.852	0.001284	0.0023785	0.00091946	1092.8	1.6687e-05	4.5186e-05	1446	347.55	2.2922e-05	2.4058e-05	542.89	232.63	145.9	53.722	3.4203e-05	99.327	0.011586	0.014475	0.00403	1016.8	0.00015461	0.00016096	1275.3	316.6	0.00015167	0.00016002	499.64	208.5	135.82	50.656	0.00015583	90.174	287.672	404.424	180.655	144.165	174.040	303.046	144.344	149.205	304.722	161.888	147.784	151.512	151.969	155.794	226.976	154.135	-8191	255	
25392.309	1	1	0	0	0.099233	0.25601	0.15629	0.067735	0.17133	0.017905	0.16996	0.23855	0.22574	0.16977	0.37119	0.28251	0.27802	0.10243	0.15507	0.22479	-3.3187	-2.9958	-3.3271	-3.6312	-2.75	-3.5375	-3.1792	-3.1979	-3.6562	-3.05	-3.5563	-3.6479	-2.975	-3.4979	-3.4042	-3.1229	480.526	132.781	200.075	378.844	203.974	374.738	437.004	433.645	324.860	261.571	420.628	447.069	490.233	415.668	483.561	440.288	0.0013346	0.0042946	0.00028722	1097.5	2.5214e-05	3.5305e-05	1448.6	344.84	3.212e-05	2.0036e-05	539.67	231.77	142.84	53.715	3.5445e-05	98.66	0.011657	0.01437	0.004055	1018.6	0.00015342	0.00015917	1273.6	314.26	0.00015107	0.0001588	497.65	207.51	134.79	50.451	0.00015433	90.007	287.059	246.442	261.124	143.886	139.534	220.322	144.276	149.126	248.792	235.535	148.107	151.720	152.301	155.797	147.436	154.587	-8191	255	
25392.381	1	1	0	0	0.13411	0.060451	0.1234	0.26639	0.15609	0.12997	0.36747	0.092234	0.11461	0.27514	0.16995	0.24743	0.07557	0.29772	0.34456	0.16196	-3.0229	-2.9375	-3.2667	-3.6875	-2.7917	-3.6021	-3.3688	-3.2333	-3.5646	-3.3104	-3.3292	-3.8563	-3.0479	-3.6979	-3.425	-3.1729	264.148	375.091	197.928	138.665	218.042	225.603	381.913	376.663	338.483	159.580	478.144	392.963	364.426	438.391	228.508	398.550	0.0013791	0.0031977	0.00029023	1089.5	2.9723e-05	1.0475e-05	1432	341.18	1.34e-05	2.3326e-05	540.59	230.99	143.17	53.298	2.7329e-05	98.754	0.011534	0.014414	0.0040671	1014.8	0.00015266	0.00016076	1270	314.26	0.00015118	0.00016018	497.09	208.23	134.62	50.359	0.00015588	90.252	297.861	319.497	247.245	144.970	312.370	304.364	144.171	149.215	323.665	397.612	148.008	151.850	151.912	155.862	455.011	154.421	-8191	255	
25392.477	1	1	0	0	0.17384	0.18347	0.15725	0.15833	0.31977	0.09507	0.34951	0.059865	0.33441	0.20945	0.17008	0.14722	0.44142	0.16639	0.29667	0.11963	-3.3833	-2.9688	-3.0563	-3.8104	-2.8979	-3.5229	-3.6771	-3.0729	-3.7396	-3.1146	-3.2333	-3.7229	-3.0625	-3.325	-3.5646	-3.0104	417.508	467.074	167.597	442.265	140.346	183.093	470.581	439.522	170.769	357.441	413.696	464.721	460.611	457.288	325.511	434.286	0.0013135	0.0011176	0.00049777	1094	3.7513e-05	3.9363e-05	1449.9	344.89	5.8553e-06	1.0937e-05	535.83	231.23	144.51	53.252	3.4752e-05	99.259	0.01157	0.014593	0.0040504	1018.4	0.00015282	0.00015971	1275.2	314.26	0.00015266	0.0001602	495.64	208.08	135.05	50.312	0.00015547	90.276	285.781	141.932	465.422	144.234	292.094	386.156	144.086	148.867	471.593	234.745	147.991	151.487	151.914	156.012	270.986	153.986	-8191	255	
25392.572	1	1	0	0	0.19436	0.29151	0.058769	0.18481	0.13796	0.32082	0.39373	0.14154	0.13327	0.051163	0.12598	0.15635	0.083908	0.17542	0.046275	0.14641	-3.2667	-3.1896	-3.125	-3.75	-2.9667	-3.2917	-3.8229	-2.9562	-3.5854	-3.2833	-3.0042	-3.7021	-3.0896	-3.4625	-3.4708	-3.0167	407.912	171.571	486.400	392.726	470.621	428.489	439.904	454.085	386.759	320.348	148.701	461.488	303.825	392.828	229.958	274.212	0.0014702	0.0034563	0.00059177	1101.4	3.0838e-05	9.0058e-06	1437.5	342.07	1.5953e-06	2.5045e-05	539.84	231.61	143.87	52.898	3.9192e-05	98.934	0.011496	0.014482	0.0039884	1020.5	0.00015171	0.00015931	1273	314.16	0.0001489	0.00015858	497.76	207.85	134.8	50.003	0.00015419	89.832	287.773	313.315	343.348	144.706	317.846	454.952	144.420	149.260	137.793	363.895	147.600	151.866	152.132	155.991	315.808	154.241	-8191	255	
25392.691	1	1	0	0	0.25692	0.25918	0.24718	0.27456	0.1241	0.12987	0.37534	0.31361	0.10893	0.27895	0.077243	0.11538	0.22867	0.17678	0.18531	0.094178	-3.2708	-3.2479	-2.8208	-3.7146	-3.0833	-3.2146	-3.75	-3.2083	-3.625	-3.475	-3.2062	-3.7562	-3.1771	-3.3312	-3.6146	-3.0312	333.770	183.932	456.469	412.681	369.057	303.657	463.359	452.760	162.811	330.503	410.062	466.402	411.883	150.635	450.683	440.642	0.0015738	0.00026935	0.0011237	1092.3	2.3311e-05	5.3129e-05	1450.8	343.61	1.8273e-05	3.7944e-05	537.16	230.53	143.81	53.303	2.1396e-05	98.205	0.011494	0.014298	0.0040015	1014.2	0.00015066	0.00015764	1270.7	312.8	0.00014876	0.00015497	495.33	207.02	134.55	50.338	0.00015193	89.45	302.179	447.577	274.195	144.918	255.368	341.533	144.100	149.082	252.245	252.702	147.534	151.945	152.116	155.945	415.236	154.183	-8191	255	
25392.787	1	1	0	0	0.24602	0.067365	0.14242	0.16922	0.32377	0.19417	0.20471	0.16398	0.021581	0.098992	0.18125	0.079377	0.30679	0.16845	0.057096	0.10934	-3.1771	-3.4437	-2.8458	-3.6729	-3.0729	-2.9979	-3.8292	-3.1833	-3.3917	-3.5458	-2.9354	-3.8792	-3.1771	-3.15	-3.7333	-3.1625	436.542	201.938	242.921	453.553	377.369	373.627	393.948	141.278	275.720	335.341	453.101	411.043	395.398	413.329	411.362	345.593	0.0011222	0.0014962	0.00019136	1083	2.0184e-05	3.3965e-06	1455.2	342.29	9.6631e-06	1.1368e-05	541.33	231.01	143.49	53.014	3.2265e-05	98.986	0.011376	0.014239	0.0039697	1008.9	0.00014786	0.00015605	1270.5	312.47	0.0001469	0.00015816	493.89	206.78	133.87	50.002	0.00015149	89.235	297.098	439.864	280.539	144.559	414.886	273.982	144.151	149.295	417.961	386.765	147.008	151.415	152.331	155.734	275.574	153.851	-8191	255	
25392.885	1	1	0	0	0.10278	0.093056	0.13536	0.17139	0.071302	0.12803	0.1121	0.23929	0.086911	0.28062	0.27054	0.31545	0.045583	0.084422	0.25164	0.12886	-2.9667	-3.6	-2.9313	-3.675	-3.3708	-3.2229	-4.0104	-3.1542	-3.4833	-3.6896	-3.2771	-3.8083	-3.5667	-3.1813	-3.8187	-3.3187	235.573	238.229	329.217	455.951	288.400	278.916	433.248	472.469	250.270	180.102	478.959	414.643	327.459	416.855	396.489	158.418	0.0015671	0.0032266	0.00053069	1100.7	2.5937e-05	6.3641e-06	1458.1	340.62	2.3704e-05	7.0804e-06	543.79	231.59	143.36	53.309	6.5546e-06	100.16	0.011351	0.014028	0.0039202	1009.8	0.00014793	0.00015581	1272.1	311.1	0.00014681	0.00015602	494.94	206.67	133.53	49.759	0.00014803	89.769	288.045	287.877	321.560	144.199	189.130	332.640	144.009	148.368	381.062	460.540	147.690	151.391	152.046	155.244	187.364	154.011	-8191	255	
25392.980	1	1	0	0	0.084943	0.19165	0.12824	0.30193	0.15569	0.29479	0.31815	0.17842	0.26807	0.079445	0.19303	0.11738	0.2571	0.14766	0.10159	0.17816	-2.8042	-3.6354	-3.0229	-3.4437	-3.4188	-3.075	-4.0417	-3.2229	-3.3187	-3.6354	-3.1063	-3.5604	-3.5708	-3.0062	-3.6937	-3.3042	391.551	301.445	154.106	399.117	287.579	478.730	421.073	392.694	296.263	260.431	412.526	482.713	165.469	483.533	194.716	470.576	0.0011075	0.0018878	0.00027212	1107.1	3.0749e-05	2.4018e-05	1457.3	343.5	3.0083e-05	1.5996e-05	538.29	229.75	143.16	52.917	4.4749e-05	98.098	0.011333	0.013989	0.0039397	1012.8	0.00014643	0.00015483	1269.6	310.76	0.0001474	0.00015421	493.44	205.58	133.31	49.679	0.00015056	88.63	277.625	366.056	313.315	144.739	248.960	460.433	144.238	148.575	349.176	254.308	147.654	151.509	151.490	155.941	267.403	154.316	-8191	255	
25393.076	1	1	0	0	0.1336	0.16948	0.24624	0.072622	0.21466	0.30211	0.15561	0.29374	0.19336	0.0061185	0.23989	0.28864	0.10141	0.16042	0.17578	0.40348	-2.6521	-3.6729	-2.9667	-3.4854	-3.4437	-2.9	-3.8792	-3.2687	-3.1917	-3.7313	-3.2521	-3.35	-3.5333	-3.0583	-3.6354	-3.4917	226.391	397.737	466.805	425.383	143.416	449.267	428.838	164.061	403.639	481.935	467.272	453.981	487.793	169.125	326.022	464.543	0.0014107	0.0013654	0.00077509	1090	9.5283e-06	4.9287e-05	1437.3	343.14	5.6768e-06	1.7738e-05	535.46	231.53	142.71	52.985	2.6329e-05	98.246	0.011368	0.014018	0.0038833	1004.2	0.00014704	0.00015533	1257.9	310.81	0.00014839	0.0001553	491.42	205.81	133.3	49.639	0.00015088	88.358	301.147	382.388	215.001	144.500	322.931	200.985	143.657	148.154	361.931	211.599	147.126	151.326	151.896	155.871	479.780	153.747	-8191	255	
25393.172	1	1	0	0	0.11763	0.25823	0.12832	0.27876	0.15551	0.14139	0.17685	0.21929	0.22465	0.061507	0.3354	0.23245	0.19401	0.080824	0.068789	0.29559	-2.7833	-3.6396	-3.1792	-3.175	-3.6583	-3.1729	-3.6854	-3.475	-3.0333	-3.7438	-3.1979	-3.5167	-3.6625	-3.0042	-3.7313	-3.675	402.117	177.386	446.938	474.887	220.737	476.914	132.423	458.261	170.200	136.897	454.819	415.778	416.479	259.763	211.909	354.057	0.0014992	0.0042261	0.0005758	1100.6	4.8063e-05	1.9264e-05	1449.1	340.06	2.7294e-05	1.2433e-05	535.5	229.73	142.17	52.784	3.6641e-05	98.018	0.0113	0.014081	0.0039107	1012.6	0.00014919	0.00015805	1266.2	310.92	0.00014756	0.0001535	491.72	206.34	132.96	49.543	0.00015308	88.878	293.123	244.549	256.885	144.424	398.997	330.385	144.374	148.636	398.514	146.201	147.472	151.803	152.404	155.403	460.640	153.873	-8191	255	
25393.268	1	1	0	0	0.14307	0.091061	0.031473	0.26942	0.22751	0.051371	0.17716	0.14465	0.13965	0.13829	0.22282	0.4288	0.17742	0.27543	0.027752	0.1877	-2.3979	-3.6104	-3.0292	-3.1896	-3.7271	-2.9792	-3.7562	-3.6396	-3.2208	-3.6271	-3.2625	-3.1208	-3.825	-3.0958	-3.3583	-3.8563	403.681	432.519	372.181	480.374	478.388	444.165	422.995	223.659	487.530	395.590	436.576	437.085	408.266	226.024	248.029	173.256	0.00095882	0.0016779	0.00055845	1092.8	1.342e-05	2.2399e-05	1447.3	340.99	2.2418e-05	1.8643e-05	540.24	231.14	143.43	53.094	2.1592e-05	98.425	0.011361	0.01421	0.0039368	1011.6	0.00015053	0.00015766	1269.3	310.94	0.00015076	0.00015745	495.08	206.58	133.5	49.697	0.00015281	89.404	274.617	315.065	355.449	144.885	329.761	169.685	144.322	149.117	210.257	247.866	147.500	151.373	151.941	155.725	231.648	154.010	-8191	255	
25393.389	1	1	0	0	0.18407	0.12944	0.16427	0.10174	0.14745	0.085001	0.13093	0.21382	0.15777	0.062514	0.042763	0.17348	0.12463	0.23428	0.24124	0.42931	-2.4875	-3.5146	-3.3417	-3.1771	-3.6083	-3.1146	-3.4833	-3.7167	-2.9125	-3.5208	-3.4646	-3.1312	-3.7521	-3.1813	-3.1646	-3.6083	388.437	259.313	409.833	479.842	354.032	251.940	412.875	487.802	306.875	193.230	414.375	407.005	378.034	375.011	260.702	433.115	0.0014348	0.0043206	0.00011731	1091.9	3.6206e-05	4.2326e-05	1440.5	345.41	2.8387e-05	1.3942e-05	537.08	230.44	143.92	53.124	5.6481e-05	98.236	0.011439	0.014282	0.0039622	1010.6	0.00014909	0.00015668	1262.2	312.01	0.00014698	0.00015743	493.58	205.95	133.6	49.825	0.00015388	89.207	290.886	167.712	379.750	144.126	367.396	343.240	143.649	148.866	306.328	433.865	147.681	151.835	152.340	155.804	228.417	153.952	-8191	255	
25393.482	1	1	0	0	0.29293	0.19198	0.23302	0.081533	0.14875	0.19109	0.24466	0.32195	0.11187	0.12658	0.14598	0.13362	0.1124	0.09469	0.10029	0.28624	-2.475	-3.5625	-3.2417	-3.0167	-3.7042	-3.1854	-3.1833	-3.8271	-2.875	-3.5687	-3.4813	-3.0958	-3.7521	-3.3667	-3.2125	-3.8229	306.305	373.637	433.597	308.192	201.590	230.499	449.805	454.810	286.747	271.096	460.480	310.985	148.828	150.008	252.323	478.040	0.001778	0.0016834	0.0001096	1085.2	3.2316e-05	3.3508e-05	1442.2	342.09	2.1623e-05	4.3816e-06	535.91	229.98	141.85	52.767	4.3389e-05	97.867	0.011418	0.014383	0.0039978	1008.6	0.00014886	0.0001555	1266.1	311.42	0.00014844	0.00015649	492.17	206.06	133.24	49.816	0.00015487	88.568	303.336	465.465	385.354	144.568	272.742	304.204	144.153	148.518	357.811	242.863	147.728	151.733	152.031	155.952	437.185	154.145	-8191	255	
25393.578	1	1	0	0	0.24369	0.15643	0.19032	0.25137	0.11057	0.133	0.26735	0.2818	0.2031	0.046424	0.090133	0.19521	0.19221	0.30815	0.07474	0.023887	-2.6021	-3.6208	-3.4354	-3.1437	-3.5792	-3.3458	-3.1125	-3.8208	-2.9479	-3.3375	-3.5542	-3.0979	-3.8125	-3.3937	-3.0917	-3.8604	360.666	361.246	391.194	165.307	171.317	176.600	391.395	446.873	459.546	359.334	276.867	418.405	465.567	397.104	376.616	137.983	0.0011336	0.0024271	0.00093664	1080.7	5.7597e-06	2.4316e-05	1444.6	342.86	3.1763e-05	1.1508e-05	539.45	231.16	143.17	53.062	5.3137e-05	98.364	0.011464	0.014333	0.0040341	1005.6	0.00015091	0.00015973	1265	312.2	0.00015002	0.000159	493.45	206.08	133.88	49.722	0.0001544	88.979	282.592	200.586	307.194	144.781	275.468	424.844	144.216	148.973	228.132	195.108	147.385	151.584	151.345	155.568	280.131	153.584	-8191	255	
25393.676	1	1	0	0	0.13341	0.15909	0.1364	0.2076	0.12757	0.21322	0.30749	0.12151	0.28681	0.11699	0.18994	0.09985	0.14669	0.24624	0.02228	0.25702	-2.5062	-3.4146	-3.6437	-2.9208	-3.5021	-3.325	-3.2417	-3.8625	-2.9354	-3.4313	-3.8354	-3.225	-3.6104	-3.5	-2.9979	-3.8354	203.501	217.140	439.786	448.236	468.839	276.787	408.554	426.479	171.740	171.632	450.119	332.973	400.902	416.473	460.246	140.764	0.0016866	0.00088226	0.00071738	1104.4	3.2011e-05	2.6979e-05	1463.5	345.97	1.1486e-05	5.899e-05	536.98	233.39	145.11	53.403	3.5905e-05	98.846	0.011546	0.014433	0.0039857	1013.6	0.0001503	0.00015959	1272.1	312.14	0.00014926	0.00015687	494.83	206.93	134.29	49.735	0.00015245	89.164	269.229	435.220	296.699	143.840	138.540	266.400	143.692	148.300	281.427	391.509	146.963	151.564	151.452	155.299	331.830	154.033	-8191	255	
25393.771	1	1	0	0	0.079674	0.057248	0.16328	0.094353	0.10792	0.092434	0.30298	0.1284	0.20345	0.10215	0.1179	0.064037	0.25276	0.14577	0.070799	0.12866	-2.7479	-3.1792	-3.6896	-2.9875	-3.4604	-3.5438	-3.2042	-3.7646	-3.2583	-3.2083	-3.8208	-3.0479	-3.4708	-3.7375	-2.9771	-3.9167	194.802	297.359	291.493	381.974	258.414	471.383	428.979	456.311	369.120	280.312	211.111	297.941	485.685	148.139	359.155	480.882	0.0016291	0.0026762	0.00023195	1096.7	1.4717e-05	3.2678e-05	1450.5	346.48	2.0882e-05	1.946e-05	541.79	230.43	142.87	53.464	1.2339e-05	98.941	0.011555	0.014317	0.0039948	1008.5	0.00014977	0.00015787	1264.7	312.68	0.00014748	0.00015909	493.38	205.69	133.45	49.63	0.00015401	88.891	310.344	188.427	475.209	143.926	220.909	261.134	143.521	148.793	234.097	323.225	147.408	151.849	151.894	155.294	174.756	153.884	-8191	255	
25393.867	1	1	0	0	0.35148	0.16054	0.20476	0.34903	0.17672	0.29486	0.31551	0.33986	0.18969	0.17896	0.33065	0.23103	0.38858	0.10874	0.1115	0.31872	-2.7646	-3.0083	-3.5583	-3.2042	-3.3854	-3.525	-3.1	-3.7917	-3.3479	-2.9771	-3.8167	-3.25	-3.425	-3.6896	-2.9917	-3.7333	172.936	407.646	150.577	482.074	461.677	163.356	445.853	436.026	248.336	197.172	482.036	457.109	479.090	464.346	428.493	451.272	0.0017981	0.0028073	0.00024016	1114	1.7656e-05	2.365e-05	1453.7	346.2	9.9941e-06	2.4264e-05	535.37	231.39	142.37	53.498	2.0178e-05	99.058	0.011471	0.01423	0.0039762	1010.1	0.00014913	0.00015961	1269.1	312.35	0.00014813	0.00015621	493.4	206.04	133.31	49.912	0.00015132	88.983	284.091	427.037	375.871	143.792	456.089	197.680	143.791	148.395	443.107	344.690	147.188	151.102	152.129	155.386	276.440	153.921	-8191	255	
25393.988	1	1	0	0	0.19296	0.22346	0.18809	0.23455	0.21799	0.19106	0.23729	0.20136	0.22673	0.22592	0.26484	0.24085	0.06783	0.31082	0.065381	0.52965	-2.9813	-3.0375	-3.6125	-3.2083	-3.2479	-3.6229	-3.2417	-3.4938	-3.5646	-3.0167	-3.7896	-3.0604	-3.2333	-3.7625	-2.9854	-3.7375	271.089	326.190	201.121	459.369	376.030	157.818	459.845	478.659	435.261	220.290	411.886	466.022	299.294	431.034	420.478	415.013	0.0011978	0.0010601	0.0003887	1095.5	3.8116e-05	3.0575e-05	1450.6	343.94	1.7401e-05	2.6752e-05	539.14	230.37	143.65	53.304	2.9646e-05	99.24	0.011362	0.014334	0.0039898	1009.2	0.00014921	0.00015932	1269.2	312.14	0.00014884	0.00015905	494.16	206.34	133.55	50.029	0.00015386	89.489	266.766	209.482	142.999	144.227	221.515	295.293	144.050	148.729	437.226	308.769	147.870	151.440	152.307	156.107	182.745	154.131	-8191	255	
25394.086	1	1	0	0	0.063771	0.10188	0.14642	0.29681	0.32715	0.27191	0.50129	0.46572	0.16036	0.33501	0.32771	0.20987	0.16893	0.22114	0.20129	0.27794	-3.0917	-2.9125	-3.6292	-3.2917	-2.9833	-3.7979	-3.0625	-3.6896	-3.5833	-2.9604	-3.7708	-3.5229	-3.3833	-3.8604	-2.9875	-3.4396	190.193	212.164	236.640	470.963	171.484	276.995	409.624	441.728	350.844	408.500	460.584	442.557	408.145	486.533	411.539	374.345	0.0013143	0.0054131	0.00045478	1094.9	1.3313e-05	4.2948e-05	1458.6	346.49	5.1722e-05	1.9042e-05	541.29	233.32	144.18	53.341	1.6265e-05	98.822	0.011463	0.014285	0.0040093	1012.9	0.00015147	0.00015923	1272.5	313.09	0.00015029	0.00015816	496.44	206.7	134.1	49.868	0.00015436	88.912	272.272	416.186	220.648	144.005	456.858	198.087	143.903	148.487	270.866	376.115	147.664	151.427	151.765	155.400	346.646	154.008	-8191	255	
25394.182	1	1	0	0	0.09177	0.1906	0.082365	0.29761	0.31545	0.22698	0.17962	0.22528	0.11928	0.050711	0.12784	0.15402	0.24138	0.13791	0.079046	0.28392	-3.2917	-2.9083	-3.7562	-3.4771	-2.9979	-3.7604	-3.1063	-3.4542	-3.5854	-2.95	-3.7021	-3.5125	-3.1042	-3.7958	-3.2292	-3.4333	442.341	477.514	379.722	470.473	172.977	159.732	483.219	418.669	428.013	183.227	145.954	206.613	462.038	155.431	400.451	419.147	0.0015887	0.0022183	0.00036991	1106	9.1949e-06	1.5277e-05	1446	344.6	1.8058e-05	2.0423e-05	546.79	229.64	141.82	52.924	3.7892e-05	97.722	0.011601	0.014486	0.0040209	1017.5	0.00015378	0.00016065	1271.4	313.18	0.0001492	0.00015804	497.42	205.67	133.65	49.8	0.00015309	88.896	274.411	190.932	250.018	144.175	147.396	163.844	144.210	148.565	371.008	199.734	147.895	151.469	152.290	155.776	337.206	154.286	-8191	255	
25394.275	1	1	0	0	0.25063	0.040516	0.061615	0.18679	0.053962	0.14679	0.36838	0.095992	0.029432	0.055002	0.22907	0.22437	0.17345	0.18144	0.31062	0.12813	-3.3063	-2.9437	-3.4625	-3.7042	-3.175	-3.8271	-3.3812	-3.3833	-3.8563	-3.0896	-3.4896	-3.6312	-3.2104	-3.8063	-3.2458	-3.2771	231.372	477.408	312.532	449.093	301.991	157.797	445.065	366.083	418.955	490.163	416.119	443.315	154.512	436.652	234.842	468.954	0.0013969	0.0027766	0.00059176	1092.7	3.9284e-05	3.0358e-05	1436	342.5	1.9233e-05	1.0252e-05	537.94	229.18	143.41	52.695	4.8812e-05	97.838	0.011624	0.01446	0.0039877	1014.1	0.00015338	0.000161	1265.3	312.49	0.00015062	0.00015901	494.81	205.74	133.77	49.636	0.00015354	88.958	281.122	228.411	250.101	144.469	336.487	209.624	144.098	148.993	232.962	270.319	148.082	151.408	152.189	155.856	395.181	154.370	-8191	255	
25394.371	1	1	0	0	0.1414	0.19093	0.22222	0.27559	0.17561	0.26298	0.32362	0.39691	0.15364	0.17904	0.21	0.31448	0.15081	0.22874	0.11734	0.24227	-3.5312	-2.9458	-3.5479	-3.5542	-3.0938	-3.7396	-3.4833	-3.3167	-3.8458	-3.2417	-3.5	-3.7833	-3.1354	-3.75	-3.4813	-3.3583	408.008	364.403	366.437	168.791	299.335	485.100	438.681	136.027	249.124	424.133	443.564	483.807	393.438	423.330	415.818	134.071	0.001003	0.00082468	0.00082503	1095.4	1.8974e-05	3.2922e-05	1451.4	341.91	1.2606e-05	2.6472e-05	536.1	230.02	143.39	53.075	7.9335e-06	97.743	0.011626	0.0143	0.0040568	1013.4	0.00015351	0.00015951	1271	313.42	0.00015216	0.0001594	495.54	207.07	134.67	50.113	0.000154	89.529	286.603	199.818	164.339	144.159	385.999	313.215	143.897	149.053	456.006	143.163	147.913	151.753	152.815	156.257	153.712	154.309	-8191	255	
25394.469	1	1	0	0	0.064454	0.25777	0.1056	0.28131	0.21727	0.13223	0.2431	0.21938	0.1432	0.21836	0.23584	0.26584	0.073296	0.27064	0.07354	0.27987	-3.3583	-3.2313	-3.3542	-3.6104	-3.0083	-3.4958	-3.7812	-3.2188	-3.7667	-3.2208	-3.4708	-3.8979	-3.0917	-3.7313	-3.525	-3.1167	358.810	438.614	345.494	471.975	377.021	164.518	393.229	413.164	298.375	475.686	479.112	434.161	343.681	479.442	192.461	472.000	0.0014817	0.0044826	0.00068566	1081.3	8.4801e-06	5.8241e-06	1440.8	343.36	2.4299e-05	3.0295e-05	535.72	229.33	140.89	52.726	3.1073e-05	97.489	0.011526	0.014244	0.0040336	1013.3	0.00015021	0.00015724	1274.8	314.16	0.00014835	0.00015779	496.89	206.37	133.87	49.924	0.00015413	89.119	299.482	257.928	258.933	144.190	147.798	249.328	144.370	149.452	455.912	270.811	148.509	151.730	152.780	156.121	249.092	154.534	-8191	255	
25394.564	1	1	0	0	0.15661	0.12591	0.13244	0.11665	0.072485	0.12226	0.11518	0.19653	0.10533	0.14276	0.15584	0.2642	0.19386	0.15414	0.053868	0.23291	-3.325	-3.1917	-3.0875	-3.8458	-2.9313	-3.675	-3.6875	-3.0333	-3.6417	-3.2625	-3.2833	-3.8021	-3.0604	-3.5438	-3.4125	-3.2625	316.419	421.146	349.753	451.639	183.768	383.365	429.792	406.014	320.388	143.617	344.706	446.781	471.812	423.206	165.098	404.787	0.0018387	0.00080422	0.00063401	1078.4	2.1432e-05	1.4565e-05	1430.2	338.52	1.2577e-05	1.3085e-05	527.32	226.53	140.95	52.592	5.3928e-05	97.557	0.011417	0.014225	0.0039975	1012.9	0.00015095	0.00015664	1270	312.77	0.00014793	0.00015642	494.47	206.45	133.91	50.198	0.00015246	89.522	284.185	142.867	261.810	144.647	315.170	440.258	144.194	149.520	375.036	261.463	148.789	152.130	152.907	156.830	225.651	155.239	-8191	255	
25394.660	1	1	0	0	0.20563	0.10362	0.18374	0.29173	0.22402	0.14514	0.29537	0.35432	0.2008	0.07301	0.26115	0.20498	0.17195	0.099277	0.087106	0.10306	-3.3292	-3.325	-3.1708	-4.0083	-3.1792	-3.2812	-3.8625	-3.2479	-3.5958	-3.3958	-3.0083	-3.8708	-3.2104	-3.375	-3.6979	-3.2917	383.775	274.774	255.485	478.034	463.848	287.159	465.349	447.201	163.458	174.213	460.843	136.311	469.426	428.602	275.797	426.262	0.0015515	0.0037133	0.00073482	1086.2	1.4138e-05	1.4905e-05	1438.5	339.7	2.4059e-05	1.238e-05	528.44	227.12	141.6	52.888	3.176e-05	96.989	0.011472	0.014139	0.0040205	1013	0.00014966	0.00015637	1273.7	313.17	0.0001495	0.00015647	497.48	207.65	134.25	50.244	0.00015284	89.32	298.082	303.523	264.757	144.881	466.798	263.645	144.345	149.099	485.516	386.653	148.338	152.344	153.080	156.522	159.036	154.555	-8191	255	
25394.779	1	1	0	0	0.19967	0.18336	0.12741	0.10654	0.1837	0.079192	0.20218	0.17766	0.095448	0.23463	0.058192	0.26357	0.19563	0.056305	0.15612	0.18776	-3.1312	-3.5208	-2.9833	-3.5438	-3.0917	-3.2875	-3.8229	-3.1521	-3.5417	-3.5792	-3.1292	-3.8604	-3.2729	-3.1937	-3.8146	-3.1083	183.384	382.369	405.798	440.734	271.467	226.532	473.261	444.875	183.556	451.117	138.663	472.876	138.070	284.302	266.845	144.564	0.0014757	0.00083428	0.0004775	1070.3	1.3304e-05	1.2498e-05	1433	341.1	4.5375e-06	3.2962e-05	532.02	227.99	142.79	52.756	2.0682e-05	98.209	0.011404	0.014308	0.0040388	1011	0.00014891	0.00015875	1273.5	313.57	0.00014857	0.00015927	496.39	207.6	135.22	50.209	0.00015328	89.813	279.031	193.018	186.953	145.066	294.991	154.326	145.265	149.374	220.736	243.533	148.499	152.621	152.120	156.242	297.507	154.789	-8191	255	
25394.877	1	1	0	0	0.26809	0.20212	0.27386	0.2124	0.11998	0.13209	0.42932	0.22354	0.11349	0.13909	0.24116	0.43892	0.18477	0.13809	0.087773	0.27357	-3.1417	-3.625	-2.8604	-3.6875	-3.3417	-2.9917	-3.7875	-3.0875	-3.4854	-3.4354	-3.2167	-3.7396	-3.3542	-3.0729	-3.725	-3.3438	139.559	262.475	132.212	182.035	394.704	462.778	450.740	456.522	168.610	146.078	422.290	451.743	152.565	133.027	287.281	378.462	0.0018026	0.0013019	0.0003944	1081.2	2.5843e-05	5.0545e-05	1435.4	339.62	3.759e-06	2.1638e-05	532.4	230.76	142.57	52.58	1.5214e-05	96.701	0.011431	0.014199	0.0040076	1016	0.0001493	0.00015845	1273.5	312.52	0.00015031	0.00015638	496.12	207.87	134.79	50.086	0.00015189	89.066	286.541	134.883	144.376	145.294	149.888	274.322	144.864	149.376	196.409	456.676	148.543	151.817	152.269	156.336	349.868	154.719	-8191	255	
25394.947	1	1	0	0	0.20613	0.12927	0.19717	0.14253	0.029125	0.12191	0.28049	0.22914	0.22852	0.051229	0.23126	0.094809	0.29517	0.064134	0.10865	0.27771	-3.0333	-3.6292	-3.1437	-3.6625	-3.5521	-3.3021	-3.9396	-3.2875	-3.3479	-3.6458	-3.0062	-3.6708	-3.5979	-3.3438	-3.6937	-3.2917	305.266	263.304	390.070	152.578	211.578	461.511	402.029	387.645	244.323	309.940	474.051	136.316	145.428	461.268	164.146	438.626	0.0021562	0.0026166	0.00047637	1092.4	1.6288e-05	2.3656e-05	1428	341.26	2.6965e-05	2.4965e-05	523.49	229.06	141.72	52.362	3.66e-05	96.749	0.011338	0.014079	0.0039297	1018	0.00014907	0.00015853	1273.4	312.37	0.00014831	0.00015532	492.61	207.55	134.82	50.26	0.00015163	89.321	296.248	137.082	285.562	144.896	221.370	313.129	144.559	148.932	318.693	336.162	148.456	152.298	152.475	157.277	272.130	154.876	-8191	255	
25395.068	1	1	0	0	0.085205	0.23954	0.3721	0.13126	0.12303	0.12756	0.43395	0.28771	0.13625	0.014008	0.17918	0.1201	0.093403	0.202	0.078811	0.18712	-2.75	-3.8146	-3.0271	-3.5708	-3.5792	-3.0875	-3.9771	-3.1437	-3.1104	-3.7958	-3.1771	-3.4896	-3.7083	-3.0583	-3.7188	-3.4271	162.830	159.849	226.200	285.269	171.267	302.554	484.913	412.189	281.121	453.057	152.397	441.268	399.699	434.985	328.845	419.769	0.00093816	0.00043049	0.0002639	1079.1	1.2896e-05	6.7508e-05	1434.9	337.28	2.1269e-05	2.1606e-05	531.53	226.94	142.66	52.752	3.0944e-05	97.285	0.011488	0.014172	0.0038986	1015.4	0.00014707	0.00015696	1274.9	312.4	0.00014913	0.00015607	495.41	207.27	134.7	50.119	0.00015067	89.208	281.275	238.843	406.918	144.806	150.719	152.400	145.116	149.248	480.825	255.567	148.100	152.524	151.989	156.176	262.829	155.133	-8191	255	
25395.164	1	1	0	0	0.046857	0.18835	0.10704	0.10831	0.21538	0.09754	0.19421	0.15047	0.20974	0.084923	0.14702	0.14755	0.42888	0.22682	0.13621	0.058803	-2.8021	-3.8125	-2.9104	-3.3521	-3.575	-3.0938	-3.6125	-3.4521	-3.1792	-3.9167	-3.2042	-3.525	-3.8479	-3.0312	-3.8583	-3.6188	475.579	352.528	271.474	214.522	316.981	145.625	371.074	426.715	247.358	475.500	467.956	142.334	137.351	421.590	422.695	373.982	0.0017328	0.0011773	0.00081768	1089.9	3.6641e-05	2.5665e-05	1422.5	342.12	1.3357e-05	2.1859e-05	532.57	229.4	143.75	52.518	2.5903e-05	97.432	0.011376	0.014106	0.0039354	1018.1	0.00015057	0.00015676	1271.6	312.91	0.00014987	0.00015766	494.56	207.36	134.95	49.942	0.00015044	89.014	284.065	447.464	390.160	145.121	244.455	293.331	145.271	149.336	360.615	215.267	148.297	151.792	152.328	155.824	201.718	154.609	-8191	255	
25395.262	1	1	0	0	0.045551	0.13506	0.15567	0.073678	0.16704	0.090227	0.26572	0.13894	0.27544	0.046833	0.24015	0.33801	0.082132	0.12036	0.19066	0.34081	-2.7417	-3.8104	-3.0875	-3.5771	-3.55	-3.0896	-3.7438	-3.6625	-3.0854	-3.8229	-3.3438	-3.2438	-3.825	-3.0271	-3.6792	-3.5917	281.639	171.854	369.444	455.157	240.586	203.486	447.671	490.362	412.953	278.229	480.565	426.814	238.086	453.880	264.140	408.311	0.0014748	0.0034237	6.7782e-05	1103.1	4.017e-05	1.4987e-05	1452.2	343.29	2.5232e-05	1.3591e-05	531.71	228.01	142.02	53.102	3.3319e-05	97.357	0.011456	0.014121	0.0039253	1018	0.00014807	0.00015624	1273.7	313.2	0.0001461	0.00015504	492.84	206.3	134.44	49.969	0.0001502	88.598	289.479	334.749	401.333	144.545	396.020	289.348	144.538	149.265	356.315	188.320	148.331	152.125	152.528	155.653	319.400	154.413	-8191	255	
25395.383	1	1	0	0	0.055611	0.11787	0.15593	0.22403	0.19747	0.27444	0.30749	0.29727	0.12794	0.12937	0.25237	0.17345	0.29671	0.11835	0.15398	0.10266	-2.5583	-3.5208	-3.2167	-3.1604	-3.8021	-3.0104	-3.7438	-3.7979	-2.7812	-3.6167	-3.4938	-3.2771	-3.8833	-3.1396	-3.3521	-3.6479	214.585	147.756	223.805	449.671	349.115	483.235	459.858	171.529	235.600	487.630	458.909	475.229	474.337	469.020	463.611	462.468	0.0016152	0.0017553	0.00013747	1087.8	1.2616e-05	2.9081e-05	1434.5	340.45	3.0618e-05	2.1874e-05	536.24	228.92	144.11	52.849	2.1184e-05	97.748	0.011239	0.013876	0.0039206	1014.4	0.00014777	0.000155	1266.4	311.45	0.00014636	0.00015334	491.74	206.36	134.37	49.687	0.0001505	88.777	310.104	202.225	335.319	144.338	485.631	311.111	143.968	148.782	312.401	255.902	148.241	151.159	151.756	156.037	306.558	154.284	-8191	255	
25395.477	1	1	0	0	0.095728	0.18961	0.33511	0.1781	0.24916	0.090526	0.23677	0.49212	0.021025	0.19682	0.33432	0.17607	0.16888	0.44459	0.10603	0.36147	-2.5	-3.7375	-3.3021	-3.0729	-3.6792	-2.9708	-3.6167	-3.6562	-3.0875	-3.5521	-3.4167	-3.1437	-3.8042	-3.2708	-3.2979	-3.8771	362.993	162.579	270.093	451.055	301.238	196.797	439.720	397.824	373.225	467.018	446.273	346.717	436.963	445.227	474.855	408.055	0.0016468	0.0019894	0.00074445	1085	1.1812e-05	3.5378e-05	1440.1	342.73	2.9495e-05	1.3943e-05	534.66	228.32	142	52.74	1.0108e-05	96.765	0.011343	0.013861	0.0039222	1012.7	0.00014866	0.00015639	1269.4	312.07	0.00014868	0.00015594	492.6	205.49	133.56	49.604	0.00015149	88.232	268.540	228.534	440.150	144.342	309.702	317.508	144.158	148.535	345.230	246.052	147.365	151.790	152.222	155.801	255.931	154.503	-8191	255	
25395.549	1	1	0	0	0.15723	0.079653	0.14353	0.15324	0.1664	0.13389	0.27014	0.13671	0.25101	0.3056	0.24755	0.30841	0.08507	0.28917	0.16934	0.21993	-2.6667	-3.5417	-3.5062	-3.0438	-3.825	-3.2833	-3.3375	-3.8417	-2.9979	-3.5187	-3.625	-3.2771	-3.8979	-3.2938	-3.3271	-3.8083	303.581	406.698	274.324	149.951	204.351	224.528	444.285	428.139	374.108	304.412	457.153	409.827	302.902	402.646	132.700	474.157	0.0014744	0.0022875	0.00051093	1091.6	4.0033e-05	1.0248e-05	1441.8	342.69	2.2166e-05	1.5738e-05	534.89	229.28	142.09	52.899	2.5643e-05	97.437	0.011311	0.014	0.0039609	1016.5	0.00014862	0.00015697	1269.9	311.95	0.00014801	0.00015694	493.54	205.65	133.4	49.723	0.00015326	88.441	276.413	148.479	335.161	144.202	315.583	260.557	144.371	148.964	328.991	252.040	147.589	151.487	152.351	156.030	320.298	154.125	-8191	255	
25395.670	1	1	0	0	0.061285	0.090277	0.28171	0.28164	0.17699	0.034947	0.23493	0.22705	0.2587	0.085168	0.042938	0.40955	0.16995	0.2085	0.080412	0.19706	-2.6979	-3.4667	-3.575	-3.2396	-3.6937	-3.4542	-3.2771	-3.8292	-3.0083	-3.2292	-3.7479	-3.0292	-3.7708	-3.4875	-3.0917	-3.8688	206.825	373.249	281.733	486.239	471.587	204.646	462.850	401.295	180.936	223.357	299.421	401.001	237.932	434.247	153.593	429.259	0.0014043	0.00062495	0.00040222	1094.3	3.0585e-05	4.1813e-05	1439	342.17	3.3024e-05	3.0833e-05	530.28	228.62	142.52	52.318	2.2913e-05	96.316	0.011279	0.01411	0.0039882	1014.1	0.00014604	0.00015618	1266.4	311.46	0.00014674	0.00015503	490.71	205.37	134.04	49.602	0.00015209	87.947	299.963	185.742	469.353	144.443	250.470	228.965	144.242	149.302	397.373	260.262	147.434	151.514	152.147	155.505	341.216	153.973	-8191	255	
25395.766	1	1	0	0	0.23776	0.099229	0.20233	0.31413	0.14412	0.07112	0.17294	0.27769	0.16418	0.16361	0.21815	0.3491	0.3847	0.14839	0.20065	0.17084	-2.8042	-3.2687	-3.7958	-3.0542	-3.5521	-3.5021	-3.2042	-3.9292	-3.1042	-3.4396	-3.9354	-3.1708	-3.6354	-3.5479	-3.0458	-3.9208	438.706	297.526	483.218	413.749	394.802	388.135	481.002	469.429	133.966	390.268	466.773	179.071	440.435	139.468	202.706	415.043	0.0009589	0.0025224	0.00099792	1087.3	1.7023e-05	1.444e-05	1432.1	340.26	1.6545e-05	1.9048e-05	533.14	227.79	141.68	52.832	1.1774e-05	97.15	0.011204	0.014185	0.003931	1014.6	0.00014731	0.00015859	1262.5	311.63	0.00014752	0.00015819	490.3	205.29	133.59	49.745	0.00015222	88.295	298.060	378.111	307.675	144.053	465.794	235.680	144.388	149.472	342.232	315.757	147.660	151.333	152.477	155.154	370.342	154.591	-8191	255	
25395.861	1	1	0	0	0.23697	0.022623	0.036101	0.1989	0.14791	0.062001	0.022174	0.19855	0.15188	0.09229	0.42483	0.26219	0.31023	0.3434	0.11529	0.32363	-2.8708	-3.0646	-3.7021	-3.1125	-3.3833	-3.7812	-3.2125	-3.8083	-3.2875	-3.0292	-3.9125	-3.225	-3.4271	-3.6813	-2.9417	-3.95	366.450	222.320	350.505	485.957	446.653	320.924	207.993	334.191	229.991	469.142	443.851	132.747	421.138	483.873	144.798	473.859	0.0014416	0.00083462	0.00023797	1081.6	1.3503e-05	1.6775e-05	1439.5	340.61	3.0742e-05	1.3129e-05	531.13	227.07	141.94	52.118	6.4003e-06	96.264	0.011266	0.014024	0.003941	1010	0.00014763	0.00015619	1266.8	311.36	0.00014657	0.00015825	490.22	205.3	133.46	49.452	0.00015024	87.852	298.271	209.237	373.805	144.455	459.526	275.271	144.409	149.435	370.158	253.883	147.803	151.797	152.368	156.166	203.298	154.033	-8191	255	
25395.957	1	1	0	0	0.1957	0.17134	0.19771	0.29596	0.076867	0.12309	0.15057	0.20238	0.1683	0.078834	0.3617	0.015387	0.13791	0.13345	0.13731	0.055834	-2.8208	-2.9479	-3.6958	-3.2208	-3.5021	-3.7062	-3.1375	-3.7313	-3.4646	-3.0833	-3.9521	-3.2521	-3.3792	-3.8937	-3.0833	-3.7229	173.634	457.994	141.388	466.525	147.575	289.928	422.225	160.908	215.445	182.521	429.005	439.480	460.310	157.691	314.234	477.413	0.0011813	0.0055416	0.00032595	1088	1.4331e-05	9.5815e-06	1435.3	341.48	2.171e-05	3.3191e-05	529.04	228.25	142.62	51.759	4.4836e-05	95.969	0.011362	0.014208	0.003961	1011.6	0.00014906	0.0001571	1265.6	311.68	0.00015024	0.00015709	490.93	204.66	133.4	49.394	0.0001499	87.783	282.278	234.846	416.170	144.125	216.213	292.935	144.326	149.458	309.280	355.880	147.951	151.553	151.784	155.438	289.154	154.421	-8191	255	
25396.078	1	1	0	0	0.10264	0.1438	0.17567	0.28197	0.22475	0.1776	0.2082	0.56751	0.26791	0.26855	0.16942	0.22062	0.072897	0.085611	0.12383	0.28498	-2.9208	-2.8896	-3.5833	-3.1833	-3.1646	-3.5792	-3.1708	-3.6646	-3.6604	-2.9292	-3.6771	-3.2208	-2.975	-3.8854	-3.0229	-3.5667	435.051	384.734	488.519	465.904	356.541	477.899	441.662	427.423	470.782	367.719	169.021	454.076	333.678	482.748	145.284	372.175	0.0014624	0.0037665	0.0007551	1086	1.0766e-05	2.2041e-05	1430.4	341.19	1.6961e-05	3.2774e-05	524.8	224.91	141.14	51.973	2.6892e-05	95.642	0.011462	0.014311	0.0039186	1011.1	0.00014934	0.00015654	1260.3	311.06	0.00015027	0.0001574	486.25	203.98	133.58	49.327	0.00014947	87.574	277.531	481.399	167.656	144.641	260.017	232.174	143.736	149.039	294.287	325.506	148.278	151.819	151.968	156.034	221.590	155.007	-8191	255	
25396.172	1	1	0	0	0.23511	0.2548	0.060016	0.13952	0.22882	0.23715	0.42173	0.36079	0.089368	0.23656	0.27228	0.26641	0.17934	0.24916	0.045028	0.24977	-3.1292	-2.8667	-3.7438	-3.3042	-3.0625	-3.7812	-3.0083	-3.5875	-3.6958	-3.1646	-3.7812	-3.5292	-3.0479	-3.6542	-3.0875	-3.5771	463.159	146.456	352.189	462.629	241.374	264.059	446.815	460.149	200.850	467.273	385.915	413.555	388.962	134.549	397.242	407.683	0.0015013	0.00098012	0.00046994	1079.8	4.4626e-05	2.6962e-05	1421.9	340.4	1.4137e-05	1.6508e-05	525.44	225.93	142.42	51.683	2.6242e-05	94.737	0.011153	0.014148	0.0038789	1010	0.0001502	0.00015662	1256.9	311.84	0.00014589	0.00015573	487.97	204.24	134.46	49.173	0.00015054	87.084	293.622	158.432	312.321	144.409	298.831	299.544	144.294	149.357	283.617	203.250	148.525	152.061	153.074	156.021	437.572	154.100	-8191	255	
25396.244	1	1	0	0	0.090593	0.14527	0.27395	0.14934	0.17299	0.32116	0.31155	0.1772	0.037314	0.07173	0.32004	0.22894	0.34482	0.17682	0.13118	0.17927	-3.2438	-3.0167	-3.6104	-3.4792	-3.0021	-3.8854	-3.2771	-3.3167	-3.7083	-2.9292	-3.5917	-3.6521	-3.1729	-3.6271	-3.2792	-3.3	201.253	431.108	416.041	360.019	266.060	137.862	414.107	436.387	490.244	137.427	463.888	467.695	471.094	441.302	374.844	405.141	0.0008614	0.0018889	0.00042616	1084.3	2.6858e-05	5.7443e-05	1421.5	338.74	1.8464e-05	1.9436e-05	526.02	224.04	141.14	52.332	2.9719e-05	94.983	0.011323	0.014162	0.003909	1011.6	0.00014935	0.00015676	1259.4	311.01	0.00014888	0.00015682	488.42	204.02	133.32	49.498	0.00014981	87.664	262.917	195.477	333.529	144.305	138.908	282.962	144.428	149.101	481.554	133.740	148.051	151.907	152.088	156.192	209.047	154.637	-8191	255	
25396.342	1	1	0	0	0.15298	0.43336	0.060086	0.089465	0.089106	0.19846	0.22714	0.05182	0.050314	0.23766	0.37737	0.24145	0.23208	0.024067	0.31775	0.11559	-3.2667	-2.9083	-3.3688	-3.5458	-2.8438	-3.6937	-3.4646	-3.2771	-3.6583	-3.0187	-3.7062	-3.6542	-3.0333	-3.6333	-3.3292	-3.1396	289.308	397.851	279.347	424.497	394.784	186.601	430.088	418.173	284.439	214.588	374.811	132.128	133.817	263.475	132.517	335.099	0.0011213	0.0031079	0.00045523	1073.8	1.0312e-05	1.1733e-05	1429.7	342.18	3.1864e-05	3.152e-06	518.52	224.71	140.45	51.674	5.6662e-05	95.156	0.011331	0.014152	0.003963	1010.4	0.00014902	0.00015648	1263.4	310.98	0.00014763	0.00015649	487.03	204.08	133.46	49.32	0.00015101	87.444	282.497	471.037	339.086	144.644	250.879	170.214	144.352	149.407	237.368	140.708	148.213	151.890	152.062	156.144	357.072	154.728	-8191	255	
25396.461	1	1	0	0	0.20549	0.086723	0.17538	0.3098	0.1285	0.055034	0.41102	0.17656	0.13761	0.11419	0.24101	0.091722	0.1374	0.1004	0.095893	0.2083	-3.3375	-2.9354	-3.3542	-3.8042	-2.7833	-3.6813	-3.5833	-3.1125	-3.8021	-3.0583	-3.5479	-3.8958	-3.0563	-3.8854	-3.4042	-3.2	373.885	192.138	133.985	470.246	443.549	287.470	400.706	458.431	232.756	448.005	165.962	385.381	149.200	484.716	407.566	485.751	0.0013016	0.0039405	0.00016149	1084.2	1.0735e-05	1.1678e-05	1421.8	334.96	6.1063e-06	2.3988e-05	523.86	221.57	140.42	51.774	1.9293e-05	94.823	0.011406	0.014211	0.0039738	1014.1	0.00014904	0.00015711	1259.7	310.59	0.00014842	0.00015634	488.51	203.11	133.06	49.23	0.0001501	87.4	281.882	236.262	162.624	144.907	150.801	430.312	144.089	149.593	146.815	484.600	147.777	152.022	152.543	156.187	173.682	154.601	-8191	255	
25396.557	1	1	0	0	0.12147	0.19385	0.092973	0.026057	0.11452	0.13293	0.24291	0.21165	0.04177	0.27651	0.18171	0.4831	0.11038	0.22612	0.15083	0.21964	-3.2583	-3.2812	-3.1417	-3.6521	-3.1813	-3.6458	-3.7375	-3.0708	-3.7292	-3.2833	-3.3521	-3.9979	-3.1083	-3.8458	-3.5458	-3.1375	153.154	438.660	364.318	286.262	339.591	251.809	467.687	445.419	203.095	490.977	134.434	463.058	170.022	355.249	461.758	421.362	0.00097578	0.0021243	0.00075426	1081.5	5.7092e-05	1.1241e-05	1410.7	337.93	2.4101e-05	5.2235e-06	525.56	224.67	139.95	51.766	1.6729e-05	94.704	0.011321	0.014203	0.0039526	1012.6	0.00014874	0.00015884	1258.1	311.16	0.00014728	0.00015605	489.24	204.15	133.01	49.489	0.00015329	87.201	284.279	208.273	342.775	145.363	263.655	381.344	144.976	149.645	445.051	402.739	148.124	151.458	152.645	156.308	454.387	154.828	-8191	255	
25396.652	1	1	0	0	0.1946	0.071727	0.19042	0.16341	0.082621	0.036494	0.13623	0.52178	0.13115	0.086136	0.12916	0.20552	0.23095	0.15266	0.25887	0.22086	-3.4167	-3.2104	-3.1583	-3.8312	-3.0312	-3.4313	-3.7042	-3.1292	-3.5833	-3.2104	-3.1083	-3.7333	-3.1646	-3.3458	-3.5	-3.1625	407.392	438.761	163.778	192.483	383.306	221.250	369.289	434.213	232.156	305.510	214.954	468.226	488.510	148.306	319.820	394.702	0.0012755	0.001382	0.00074173	1074.9	3.695e-05	5.1407e-05	1413.3	336.55	3.108e-05	2.149e-05	522.71	225.43	142.1	52.017	1.4248e-05	95.021	0.011362	0.014287	0.0039825	1013.3	0.00015056	0.00015987	1261	310.38	0.00014962	0.00016118	490.66	204.83	133.97	49.667	0.00015451	87.733	300.462	434.890	161.380	144.769	262.740	283.039	144.694	149.452	382.894	455.407	148.404	152.393	152.751	156.238	489.639	154.886	-8191	255	
25396.748	1	1	0	0	0.11771	0.092991	0.057774	0.37263	0.058928	0.078178	0.091995	0.16918	0.14511	0.22285	0.15012	0.16715	0.16904	0.23794	0.078386	0.25438	-3.2313	-3.4167	-2.95	-3.8854	-3.1021	-3.1312	-3.7771	-2.9771	-3.4813	-3.4417	-3.0833	-3.6937	-3.1708	-3.2771	-3.5604	-3.0812	296.335	224.096	242.050	464.631	218.394	173.458	269.161	458.573	417.419	146.133	132.513	448.667	366.385	455.364	358.067	403.523	0.0016842	0.0014992	0.00033872	1102.2	7.2575e-06	3.5619e-05	1417.4	337.91	1.0331e-05	2.539e-05	530.02	224.66	139.7	51.889	2.5953e-05	96	0.011617	0.014478	0.00407	1020.7	0.00014954	0.00015955	1261.2	310.52	0.00015067	0.00016144	491.08	203.87	132.45	49.452	0.00015421	87.761	291.770	400.474	306.784	144.349	234.399	230.930	144.307	148.951	407.236	401.521	148.061	151.516	152.594	156.232	280.179	154.879	-8191	255	
25396.846	1	1	0	0	0.16223	0.1089	0.14276	0.40081	0.19978	0.1123	0.087119	0.14556	0.097099	0.11261	0.1774	0.3222	0.095454	0.1897	0.16897	0.2447	-3.1708	-3.4146	-3.0333	-3.7042	-3.25	-2.9771	-3.8708	-3.1875	-3.5208	-3.5187	-3.2646	-3.5896	-3.3396	-3.2938	-3.7729	-3.0792	432.352	174.819	395.251	490.210	367.672	300.667	263.779	460.834	165.332	232.948	470.104	457.061	143.311	413.688	271.486	394.437	0.0012856	0.0039967	0.00057601	1080.7	1.5718e-05	8.1926e-06	1429.4	339.28	2.3248e-05	1.7125e-05	522.14	224.28	139.45	51.764	2.8591e-05	95.603	0.011627	0.014592	0.0041125	1011.4	0.00015362	0.0001619	1264.5	311.21	0.0001517	0.00016102	488.46	203.25	133.17	49.417	0.00015598	87.393	288.137	449.531	307.377	144.183	259.275	241.451	144.199	148.600	224.938	286.918	147.807	151.920	151.794	155.937	393.303	154.342	-8191	255	
25396.941	1	1	0	0	0.085638	0.16285	0.21687	0.16697	0.23658	0.096519	0.36334	0.15625	0.10929	0.0048125	0.23981	0.2257	0.059432	0.11458	0.10122	0.19791	-2.8958	-3.6083	-2.8438	-3.8833	-3.3187	-3.0104	-3.7708	-3.15	-3.3354	-3.6937	-3.0979	-3.6792	-3.5208	-3.2167	-3.6562	-3.2146	219.348	389.221	299.368	479.627	386.720	344.409	446.665	407.370	232.141	383.953	426.063	426.924	272.633	167.391	417.098	391.189	0.0012187	0.0015966	0.00072497	1088.2	1.6952e-05	8.6338e-06	1422.7	338.16	2.687e-05	2.4711e-05	524.95	224.34	140.59	51.829	4.9026e-05	95.377	0.011625	0.014585	0.0040701	1019.2	0.00015166	0.0001612	1261.5	310.79	0.00015386	0.0001613	489.08	203.12	133.5	49.385	0.00015458	87.273	301.064	401.056	334.108	144.061	310.682	452.743	144.104	148.871	239.747	134.645	148.010	152.017	151.784	155.635	489.136	153.786	-8191	255	
25397.062	1	1	0	0	0.11212	0.2029	0.096893	0.25386	0.068386	0.14624	0.48377	0.42716	0.1608	0.079177	0.19447	0.21153	0.073453	0.3317	0.13401	0.047542	-3.1354	-3.5917	-2.8521	-3.6354	-3.5312	-3.1417	-3.9062	-3.2958	-3.2458	-3.7292	-3.2646	-3.6188	-3.9208	-3.075	-3.6625	-3.425	407.294	294.774	138.252	153.192	479.243	197.272	420.359	380.140	304.807	169.566	343.946	413.919	302.917	132.602	217.051	343.432	0.0019103	0.0017089	0.0012511	1083.3	6.9986e-06	4.2885e-05	1432.6	337.06	1.4371e-05	3.2508e-05	518.88	226.01	140.04	51.924	3.1382e-06	95.236	0.011658	0.014873	0.0040847	1013.8	0.00015549	0.00016234	1267.9	310.98	0.00015408	0.0001636	489	204.67	133.59	49.546	0.00015654	87.65	289.107	190.374	168.815	144.937	330.993	168.177	144.553	148.540	413.451	313.205	148.218	151.600	152.270	156.221	307.391	154.240	-8191	255	
25397.158	1	1	0	0	0.16888	0.068176	0.15371	0.22868	0.21588	0.055262	0.11989	0.3077	0.16461	0.14994	0.2886	0.072442	0.42399	0.18712	0.059093	0.28872	-2.7896	-3.6458	-3.0375	-3.7354	-3.5354	-2.9917	-3.7958	-3.4396	-3.1021	-3.8	-3.2729	-3.425	-3.825	-3.0229	-3.4313	-3.5771	318.600	440.461	468.417	434.048	192.124	298.449	410.395	468.814	415.190	154.865	146.837	331.864	184.333	455.884	241.633	427.734	0.0015461	0.0052318	0.00077103	1092.8	3.1626e-05	2.9626e-05	1435.9	341.22	9.8796e-06	3.314e-05	525.25	225.01	140.01	52.091	4.9072e-06	95.043	0.011861	0.014664	0.0041045	1021.5	0.00015495	0.00016435	1268.5	312.72	0.00015501	0.00016239	489.77	203.65	133.09	49.633	0.00015796	87.318	285.401	195.459	434.346	144.959	256.616	294.663	144.346	149.071	256.297	469.668	147.909	151.776	152.529	156.383	411.643	154.280	-8191	255	
25397.254	1	1	0	0	0.10086	0.12383	0.10188	0.20731	0.15774	0.14179	0.22156	0.064672	0.21015	0.18815	0.11466	0.18771	0.12158	0.095458	0.24653	0.10931	-2.5125	-3.7271	-2.8396	-3.4333	-3.6167	-2.8979	-3.6479	-3.3937	-2.9062	-3.7812	-3.1333	-3.4333	-3.5979	-2.8958	-3.4833	-3.6083	410.098	322.773	204.393	436.177	490.864	440.242	440.531	351.372	267.908	409.893	164.099	467.730	241.938	215.320	139.560	405.539	0.0010964	2.7821e-05	0.00026431	1089.9	2.7197e-05	1.4336e-05	1416.6	335.44	1.1417e-05	1.5199e-05	519.63	225.21	140.89	51.381	1.7209e-05	94.937	0.011894	0.014723	0.0040836	1020.7	0.00015525	0.00016359	1263.3	310.99	0.00015506	0.00016194	486.47	203.6	134.01	49.396	0.00015967	86.992	296.356	343.055	240.160	144.354	329.021	364.177	144.593	149.366	353.475	222.992	147.985	151.695	151.899	156.002	222.112	154.109	-8191	255	
25397.350	1	1	0	0	0.14336	0.13858	0.1161	0.12346	0.063901	0.37919	0.20722	0.20277	0.065304	0.27184	0.26858	0.084977	0.12652	0.15618	0.30357	0.4858	-2.6104	-3.5583	-3.0854	-3.3708	-3.5812	-2.8187	-3.5646	-3.8083	-3.075	-3.6771	-3.1917	-3.2417	-3.7062	-3.1146	-3.4146	-3.7271	146.359	373.371	372.315	386.318	138.430	167.528	421.322	396.445	206.300	319.760	472.881	400.867	407.509	407.463	322.877	434.569	0.0019911	0.004255	0.0011059	1087.8	3.6168e-06	1.2086e-05	1418.9	338.23	2.0668e-05	3.59e-05	525.61	223.97	140.29	52.195	1.9625e-05	94.8	0.011981	0.014866	0.0041642	1017.9	0.00015575	0.00016491	1263.4	312.85	0.00015654	0.00016252	490.83	203.64	133.38	49.419	0.0001592	87.212	280.552	164.458	161.037	144.671	233.530	431.113	144.633	148.978	416.711	243.600	147.846	151.422	152.087	155.832	280.379	154.385	-8191	255	
25397.469	1	1	0	0	0.11675	0.1624	0.1642	0.23084	0.19086	0.040349	0.16215	0.1395	0.061833	0.08618	0.31658	0.24538	0.22205	0.35545	0.18496	0.31299	-2.45	-3.6125	-3.3833	-3.1875	-3.7292	-3.2438	-3.4792	-3.5521	-2.8937	-3.6625	-3.4854	-3.2021	-3.7896	-3.1646	-3.3083	-3.6583	184.083	396.517	472.687	481.067	310.523	478.078	412.321	437.173	303.154	318.701	402.481	142.328	139.080	443.168	294.116	407.987	0.0012475	0.0015042	0.00067788	1090.9	2.1124e-05	1.553e-05	1426.3	338.45	1.2939e-05	1.4247e-05	521.59	224.18	141.41	51.833	3.0934e-05	95.014	0.011914	0.014964	0.0041985	1024.9	0.00015824	0.00016428	1269.8	313.54	0.00015496	0.00016586	490.64	204.62	134.3	49.724	0.00016187	87.642	310.212	189.318	223.452	144.482	244.043	442.784	144.709	148.980	263.178	148.202	147.794	151.785	152.540	155.983	466.126	154.158	-8191	255	
25397.541	1	1	0	0	0.063419	0.046375	0.14492	0.16202	0.086606	0.31218	0.16145	0.457	0.2162	0.26887	0.19598	0.42863	0.16814	0.11719	0.37723	0.34674	-2.5771	-3.7479	-3.4917	-3.2562	-3.5833	-3.3333	-3.3354	-3.7521	-2.95	-3.5563	-3.7271	-3.0583	-3.6604	-3.0667	-3.0667	-3.8937	257.111	281.154	240.749	309.850	173.699	456.494	391.866	452.489	194.928	336.087	473.531	474.240	466.511	398.552	258.858	424.371	0.0012862	0.0035993	0.00091723	1088.2	3.9566e-05	9.0851e-06	1433.1	339.65	1.8818e-05	1.5856e-05	520.71	224.07	142.21	53.427	3.1079e-05	97.14	0.01204	0.015034	0.0042174	1025.5	0.00015568	0.00016686	1273.2	313.28	0.00015585	0.00016605	488.59	203.96	134.64	49.511	0.00016193	87.071	274.305	175.511	355.727	145.323	295.676	182.946	144.461	149.166	331.983	344.682	148.085	151.572	151.978	154.749	268.958	153.233	-8191	255	
25397.637	1	1	0	0	0.06472	0.21378	0.15328	0.27009	0.22414	0.17258	0.21196	0.24147	0.34972	0.06093	0.39774	0.18251	0.20764	0.1797	0.28563	0.20671	-2.5167	-3.4458	-3.3375	-3.0396	-3.6833	-3.2458	-3.2604	-3.7292	-2.9875	-3.3542	-3.8375	-3.1312	-3.7667	-3.275	-3.1646	-3.7979	397.602	239.961	362.935	437.624	400.810	288.261	445.040	423.094	197.922	215.288	403.323	459.401	398.106	426.841	414.419	461.913	0.0012182	0.0025671	0.00010883	1122.8	2.8531e-05	2.2692e-05	1469	351.22	1.376e-05	1.0749e-05	540.73	232.46	145.23	54.297	1.1703e-05	97.663	0.011801	0.01498	0.0041908	1022.7	0.00015727	0.00016736	1264.6	312.44	0.00015484	0.00016529	488.43	203.85	133.82	49.806	0.00016226	87.134	299.401	205.681	314.269	143.648	242.540	242.847	143.340	148.104	447.394	228.683	146.835	150.208	151.444	154.340	308.783	153.185	-8191	255	
25397.758	1	1	0	0	0.10129	0.44339	0.10767	0.21618	0.23304	0.14009	0.26095	0.24484	0.20185	0.12171	0.13444	0.10824	0.30984	0.35957	0.069752	0.10751	-2.4896	-3.3292	-3.6021	-3.0104	-3.7833	-3.3771	-3.1104	-3.8604	-3.1354	-3.2438	-3.7333	-3.2438	-3.6896	-3.5375	-2.9896	-3.7167	352.946	258.041	418.632	471.695	150.660	408.314	416.334	416.062	469.420	230.644	480.463	442.281	459.753	130.786	481.296	327.256	0.0013972	0.001391	0.00032442	1132.3	4.082e-05	2.5814e-05	1467.8	352.88	3.658e-05	2.7754e-05	543.01	231.88	145.22	53.243	3.0648e-05	99.188	0.011884	0.015057	0.0042116	1022.8	0.00015804	0.00016667	1260.7	313.25	0.00015784	0.00016799	491.55	204.71	134.53	49.587	0.00016344	87.66	285.885	322.139	248.303	143.125	335.162	287.042	143.043	147.708	402.184	163.614	146.571	150.189	151.244	154.821	273.700	152.869	-8191	255	
25397.854	1	1	0	0	0.16812	0.22188	0.098301	0.33845	0.080958	0.17145	0.26135	0.12506	0.20215	0.17335	0.10612	0.36413	0.13316	0.28484	0.16271	0.20876	-2.7375	-3.2146	-3.5854	-3.0208	-3.6063	-3.3812	-3.0104	-3.5708	-3.1979	-3.0708	-3.9417	-3.1208	-3.5333	-3.6292	-2.9688	-3.8521	285.653	274.602	444.273	341.654	301.786	140.636	446.211	406.318	304.723	201.389	465.455	469.035	382.832	155.055	166.935	429.762	0.0015202	0.0015497	0.00092006	1125.2	2.4275e-05	9.6312e-06	1482.2	353.2	1.8111e-05	5.0196e-05	542.27	232.82	146.63	53.832	4.0991e-05	99.192	0.012039	0.015175	0.0042384	1021.3	0.00016048	0.00016763	1265.9	314	0.00015627	0.00016822	491.56	204.92	134.57	49.894	0.00016411	88.011	296.299	198.452	147.841	143.020	345.514	243.485	143.199	148.095	282.904	292.579	146.423	150.005	150.939	154.289	280.640	152.940	-8191	255	
25397.949	1	1	0	0	0.074599	0.048991	0.1901	0.14681	0.25481	0.088353	0.15952	0.074765	0.2901	0.1601	0.40796	0.27367	0.06168	0.29081	0.27322	0.44844	-2.6979	-2.9333	-3.5854	-2.9062	-3.4688	-3.6104	-3.1292	-3.7625	-3.4458	-2.9417	-3.7479	-2.9604	-3.4	-3.6583	-2.8854	-3.8292	303.044	167.263	466.725	407.683	148.901	422.993	456.726	275.135	333.214	424.553	487.102	442.857	454.775	205.422	384.083	423.453	0.0010564	0.0021782	0.00073137	1132.8	6.6067e-06	7.656e-06	1459.3	350.12	4.4101e-06	4.9124e-05	541.63	231.5	146.78	53.873	1.3077e-05	98.58	0.012086	0.015157	0.0042116	1019.1	0.00015779	0.00016762	1258.2	312.74	0.00015898	0.00017051	489.16	204.41	135.07	49.931	0.00016125	87.782	276.020	263.126	395.066	142.965	199.730	435.254	142.852	147.849	234.624	288.502	146.971	150.497	151.045	153.957	410.269	153.079	-8191	255	
25398.047	1	1	0	0	0.1223	0.16857	0.036222	0.21208	0.14454	0.19406	0.30725	0.15645	0.17561	0.21356	0.034123	0.35366	0.24387	0.17785	0.19706	0.20019	-2.9958	-3.0354	-3.7104	-3.2917	-3.1479	-3.5	-2.9583	-3.6354	-3.4458	-2.9083	-3.6354	-3.1542	-3.1354	-3.6917	-2.8625	-3.6396	375.659	200.464	448.142	373.755	339.523	332.461	437.397	446.668	193.488	356.379	450.210	440.217	410.803	458.678	353.252	135.440	0.0016378	0.002357	0.00051114	1116.2	2.1717e-05	4.9354e-06	1467.9	350.05	2.1213e-05	5.1718e-05	540.83	233.2	145.97	53.871	1.3903e-05	99.229	0.01204	0.015263	0.0042145	1016.3	0.00016138	0.00016706	1259.3	312.88	0.00015942	0.00016883	489.78	204.25	134.07	49.686	0.00015966	88.166	289.519	298.918	201.432	142.663	138.860	411.575	142.737	147.398	206.201	382.359	146.649	150.511	150.667	154.412	238.915	152.867	-8191	255	
25398.143	1	1	0	0	0.12421	0.048443	0.13488	0.084117	0.19668	0.086415	0.3799	0.12191	0.14421	0.1458	0.18649	0.26567	0.27681	0.22668	0.066777	0.088775	-2.8979	-2.7396	-3.6875	-3.2542	-3.1292	-3.7188	-3.125	-3.5604	-3.6042	-2.9854	-3.7208	-3.2292	-3.1771	-3.9854	-3.1167	-3.3917	407.526	293.163	264.747	144.125	181.347	447.092	369.596	454.758	475.146	285.486	406.391	438.340	412.937	194.729	170.430	438.385	0.0012409	0.0010629	0.00048953	1127.8	4.7372e-05	2.4674e-05	1464.3	351.01	2.3705e-05	1.3452e-05	542.11	232.45	146.24	54.198	2.8458e-05	99.351	0.011913	0.014944	0.0041699	1015.7	0.00015686	0.00016556	1254.2	311.77	0.00015597	0.00016435	488.49	204.42	134.03	49.859	0.00015784	87.499	294.585	228.770	176.760	143.440	245.969	369.875	142.842	147.462	386.350	140.521	146.988	150.285	151.253	154.049	331.463	153.276	-8191	255	
25398.238	1	1	0	0	0.25717	0.229	0.17341	0.18673	0.11508	0.029464	0.22994	0.17333	0.2123	0.32325	0.408	0.19968	0.051469	0.14494	0.069843	0.32609	-3.0604	-2.8688	-3.475	-3.3729	-2.8854	-3.8812	-3.2292	-3.4146	-3.5625	-2.8521	-3.725	-3.5	-2.9646	-3.7125	-3.1083	-3.2458	458.456	441.714	248.730	145.556	361.121	182.644	417.584	410.261	195.309	433.829	432.424	422.769	411.791	376.106	341.302	416.950	0.0010657	0.0021472	0.00063329	1110.4	3.9437e-05	2.2801e-05	1469	350.89	2.6382e-05	2.6705e-05	546.93	235.84	145.64	54.081	1.6185e-05	100.18	0.01167	0.014636	0.0040895	1010.1	0.00015323	0.00016188	1255.2	311.67	0.0001519	0.00015894	488.85	204.21	133.13	49.497	0.00015155	88.096	270.472	153.182	452.363	143.225	144.583	391.542	142.682	147.978	293.403	443.141	146.380	150.036	150.530	154.309	440.031	152.824	-8191	255	
25398.334	1	1	0	0	0.24436	0.27471	0.24904	0.17414	0.10292	0.062702	0.17487	0.39011	0.13612	0.076294	0.13677	0.14599	0.17399	0.077622	0.056362	0.14309	-3.0729	-2.9313	-3.4875	-3.4604	-2.9625	-3.4521	-3.3146	-3.1521	-3.5104	-2.9688	-3.7375	-3.575	-3.0625	-3.7083	-3.0292	-3.2104	192.495	313.428	191.088	443.319	213.354	263.272	333.105	404.154	225.586	151.814	217.901	407.082	329.225	442.137	380.598	384.372	0.0013363	0.00097039	9.1028e-05	1134.7	2.113e-05	2.7706e-05	1467.4	352.69	3.2058e-05	1.7065e-05	546.68	237.36	148.2	55.078	2.8873e-05	99.703	0.011307	0.014138	0.0039294	1010.8	0.00014746	0.00015474	1249	310.89	0.00014647	0.00015503	488.19	205.86	134.5	49.952	0.00014829	87.756	290.768	366.771	320.969	143.090	280.578	334.936	143.040	147.548	388.484	280.504	146.797	150.151	150.906	154.557	262.175	152.958	-8191	255	
25398.432	1	1	0	0	0.086898	0.24723	0.1004	0.35692	0.022476	0.13912	0.3071	0.31552	0.13663	0.043492	0.13093	0.14742	0.16839	0.12481	0.19548	0.18233	-3.3354	-2.9292	-3.1708	-3.5458	-2.8521	-3.5896	-3.3417	-3.2104	-3.6312	-3.0021	-3.4521	-3.75	-2.8479	-3.7521	-3.3271	-3.1875	370.057	210.064	428.317	420.561	411.782	461.360	368.852	439.207	394.844	174.418	443.471	411.116	190.570	403.101	274.069	372.141	0.001093	0.0010101	0.00071615	1122.9	1.7034e-05	2.1452e-05	1459	350.34	3.5627e-05	2.9058e-05	545.07	235.17	148.69	55.043	2.5952e-05	99.278	0.011127	0.01366	0.0038708	1006.1	0.00014435	0.00015163	1244.5	309.83	0.00014372	0.00015076	485.08	203.42	133.6	49.526	0.00014784	87.478	290.867	427.970	176.457	142.654	310.800	256.479	142.798	147.915	296.499	297.286	147.003	150.361	151.513	154.608	152.318	153.233	-8191	255	
25398.551	1	1	0	0	0.11837	0.18927	0.10166	0.055988	0.084377	0.23962	0.097587	0.33934	0.16471	0.064729	0.16999	0.36636	0.10596	0.2714	0.082784	0.082134	-3.3396	-3.0417	-3.2021	-3.7229	-2.8792	-3.6021	-3.6542	-3.1917	-3.7354	-3.0958	-3.2458	-3.8208	-3.0375	-3.5646	-3.4542	-3.1292	470.483	199.015	214.987	355.692	288.283	175.936	201.074	141.624	168.826	438.320	416.391	136.103	481.847	355.097	160.974	145.116	0.0010946	0.0055869	0.00086442	1125.6	1.9955e-05	3.537e-05	1470.6	353.65	1.9501e-05	2.9745e-05	548.25	237.09	147.57	54.376	2.4667e-05	98.824	0.011055	0.013794	0.0039306	1006.9	0.00014599	0.00015365	1249.7	310.89	0.00014599	0.00015474	488.94	205.28	134.21	49.775	0.00015116	87.406	271.080	231.954	186.306	142.926	375.166	257.078	142.789	147.360	370.521	255.041	146.414	150.301	150.918	154.957	296.078	153.099	-8191	255	
25398.646	1	1	0	0	0.12313	0.077787	0.011158	0.22137	0.26009	0.076888	0.15025	0.30467	0.12615	0.19517	0.050475	0.17505	0.31798	0.015144	0.16808	0.27582	-3.2188	-3.0396	-3.0875	-3.7229	-2.8875	-3.4125	-3.6708	-3.0771	-3.6729	-3.2854	-3.3812	-3.8979	-3.0125	-3.4896	-3.5375	-3.2562	293.380	322.624	461.500	478.361	356.517	424.329	358.676	425.402	256.191	301.360	300.477	473.813	470.596	415.377	190.028	132.899	0.0013977	0.00062292	0.00079132	1129.8	1.4008e-05	3.5393e-05	1473.9	351.06	1.6333e-05	2.104e-05	547.49	235.74	146.9	53.929	1.8399e-05	97.808	0.011188	0.014075	0.0039458	1007.7	0.00014674	0.00015633	1252.9	311.42	0.00014727	0.00015503	485.71	204.41	133.69	49.558	0.00015199	86.666	304.585	368.367	222.329	143.005	400.272	163.625	142.756	148.090	280.697	355.227	146.422	149.925	150.508	153.894	150.229	152.902	-8191	255	
25398.742	1	1	0	0	0.1402	0.034681	0.094291	0.19202	0.19391	0.14447	0.23953	0.26093	0.19143	0.02813	0.23722	0.14791	0.19889	0.17687	0.043616	0.27444	-3.0812	-3.2958	-2.9188	-3.7188	-2.9271	-3.1125	-3.5271	-3.2104	-3.7104	-3.2104	-3.1146	-3.7792	-3.4042	-3.2167	-3.8	-3.1417	434.036	234.465	220.612	487.659	288.205	303.170	469.378	130.758	214.376	186.892	433.579	428.385	399.927	449.006	304.620	477.542	0.0012449	0.0023157	7.5878e-05	1123.2	3.3457e-05	1.3571e-05	1449.7	349.45	2.4747e-05	2.4437e-05	537.38	231.38	146.65	54.04	2.9838e-05	97.181	0.011285	0.014046	0.0039673	1008.7	0.00014803	0.00015644	1242.1	307.81	0.00014902	0.00015738	482.66	202.06	133.54	49.287	0.00015054	85.801	303.225	369.264	331.640	142.918	179.308	294.272	142.791	147.847	304.966	170.718	146.634	149.939	150.616	154.698	417.977	152.388	-8191	255	
25398.838	1	1	0	0	0.16264	0.08331	0.10794	0.15119	0.22909	0.22046	0.12625	0.28778	0.08468	0.22033	0.071907	0.23109	0.10498	0.15101	0.05636	0.20618	-3.1708	-3.4062	-2.9833	-3.7708	-3.1854	-3.35	-3.9042	-2.9896	-3.3917	-3.4	-2.9646	-3.8354	-3.1458	-3.1708	-3.6937	-3.0229	329.239	177.057	281.986	401.787	289.031	272.883	467.746	441.821	228.586	242.440	453.019	435.414	362.941	284.463	232.479	483.068	0.0012451	0.0010936	0.00018147	1119.5	4.7288e-05	1.8703e-05	1444.9	346.13	3.9985e-05	2.526e-05	532.15	230.65	143.78	53.753	7.9241e-06	95.739	0.011305	0.014137	0.0039825	1005.7	0.0001503	0.00015788	1238.9	307.74	0.00014954	0.00015903	478.77	200.27	131.81	48.91	0.00015019	85.159	277.269	256.672	466.855	142.986	269.431	303.848	142.795	147.819	172.493	247.983	146.217	150.742	150.671	154.492	165.136	152.365	-8191	255	
25398.934	1	1	0	0	0.10172	0.11532	0.28826	0.30313	0.038679	0.092189	0.12925	0.04639	0.066915	0.036544	0.10876	0.3175	0.26773	0.21521	0.17858	0.24294	-2.9083	-3.4729	-2.9125	-3.7042	-3.2687	-3.1729	-3.8312	-2.9958	-3.3521	-3.5062	-3.1229	-3.7646	-3.2604	-3.3063	-3.7542	-3.2729	459.714	259.252	195.164	134.926	147.487	408.067	441.346	359.452	401.837	302.055	409.255	425.126	423.571	390.865	358.180	436.679	0.0016005	0.0032643	0.00042577	1111.8	2.9319e-05	2.8177e-05	1441.3	347.31	1.1432e-05	6.6009e-06	532.41	226.97	144.09	53.266	3.1784e-05	98.098	0.011398	0.014197	0.004009	1001.9	0.00015107	0.00015978	1235.3	308	0.00015302	0.00016067	478.92	199.69	132.54	48.978	0.00015597	86.314	290.923	481.105	472.841	142.971	216.624	254.243	143.244	147.694	148.181	282.073	146.486	150.653	150.967	154.462	314.678	152.665	-8191	255	
25399.029	1	1	0	0	0.11038	0.068935	0.086731	0.13379	0.081089	0.20026	0.18321	0.25579	0.13043	0.16657	0.11135	0.23606	0.30139	0.24226	0.23462	0.26702	-3.0146	-3.6646	-2.8604	-3.6771	-3.2333	-3.1625	-3.7417	-3.2438	-3.1583	-3.4896	-3.0604	-3.5938	-3.3417	-3.125	-3.675	-3.4625	296.368	140.768	301.619	484.657	412.621	337.804	428.010	441.904	262.866	258.091	158.743	409.607	137.249	431.402	454.822	404.355	0.0012507	0.0021261	0.00076457	1108	2.2736e-05	3.7479e-05	1447.8	346.41	1.9098e-05	1.3104e-05	531.01	225.83	143.49	52.77	1.1405e-05	96.504	0.011827	0.014777	0.0041125	1004.1	0.00015666	0.00016632	1247	309.62	0.00015777	0.00016479	481.04	200.07	132.14	49.016	0.00016102	86.016	290.443	154.301	377.721	143.428	374.320	191.752	142.669	147.086	483.908	462.686	146.645	150.018	151.038	154.934	197.375	152.752	-8191	255	
25399.150	1	1	0	0	0.054493	0.08766	0.14658	0.12399	0.1117	0.16662	0.093366	0.24839	0.16148	0.24167	0.087665	0.032172	0.37644	0.2868	0.041085	0.11062	-2.7458	-3.6042	-2.9167	-3.5833	-3.4333	-3.0083	-3.8146	-3.2938	-2.9938	-3.5208	-3.0958	-3.4917	-3.4958	-3.0292	-3.7042	-3.35	222.976	227.682	377.643	448.886	316.030	425.116	459.675	489.204	353.942	264.766	453.310	225.663	425.995	467.424	306.271	427.492	0.0022257	0.0005318	0.00049486	1102.6	3.703e-05	4.6566e-05	1430.7	346.33	2.5338e-05	2.8666e-05	537.22	225.55	142.11	52.238	6.0379e-06	96.424	0.01227	0.0151	0.0042503	1006.9	0.00016015	0.00016689	1241.4	309.29	0.00015876	0.00016867	483.74	199.02	131.98	48.631	0.00016154	85.961	285.070	333.947	265.822	143.202	400.766	281.181	143.174	147.543	258.981	368.622	146.645	149.984	150.866	155.004	340.298	153.152	-8191	255	
25399.244	1	1	0	0	0.18727	0.10103	0.066796	0.18574	0.074277	0.03071	0.13651	0.066958	0.19644	0.037633	0.27855	0.22716	0.02753	0.17291	0.14578	0.14715	-2.5729	-3.6375	-2.9583	-3.4854	-3.6188	-2.9542	-3.7292	-3.3604	-2.8896	-3.8729	-3.1208	-3.3458	-3.7417	-2.9458	-3.5792	-3.5771	433.177	214.180	202.900	449.914	250.913	416.443	444.235	438.119	280.918	223.754	131.253	450.974	446.089	444.035	313.609	457.578	0.0013079	0.0030323	0.0011482	1119.9	3.2142e-05	3.0807e-05	1461.4	345.99	1.568e-05	6.2215e-06	535.17	227.33	143.21	52.986	2.4829e-05	95.879	0.012228	0.015188	0.0042321	1010.3	0.000161	0.00016887	1247.1	309.5	0.00015827	0.00016388	482.75	199.49	131.92	49.016	0.00015939	85.895	313.473	436.201	166.762	142.855	346.826	226.319	142.918	147.292	288.234	202.467	146.048	150.378	151.318	154.729	330.117	152.525	-8191	255	
25399.342	1	1	0	0	0.1859	0.056938	0.17463	0.18667	0.12114	0.060489	0.20346	0.27473	0.083701	0.028947	0.37447	0.15568	0.22274	0.236	0.17846	0.037105	-2.4146	-3.6229	-2.95	-3.2854	-3.7292	-2.8708	-3.5375	-3.4813	-2.9792	-3.6771	-3.1104	-3.1437	-3.6875	-3.0167	-3.3688	-3.5521	158.460	249.348	205.683	448.842	129.515	438.878	451.646	406.758	136.184	403.379	457.402	412.050	401.392	187.630	427.672	303.196	0.0011499	0.0008176	0.00052419	1104.2	5.2621e-05	2.0427e-05	1445.3	344.8	3.845e-05	3.8508e-05	533.92	229.63	144.65	53.137	2.409e-05	97.832	0.01205	0.014976	0.0041573	1006.1	0.00015824	0.00016694	1241.4	308.85	0.00015966	0.00016628	484.91	201.97	132.81	49.09	0.000159	86.884	286.160	186.145	276.937	143.365	277.864	484.873	142.775	147.436	279.508	392.132	145.796	150.305	150.455	154.653	230.667	153.257	-8191	255	
25399.414	1	1	0	0	0.18821	0.27085	0.18478	0.034469	0.038087	0.24306	0.16081	0.097656	0.28263	0.25736	0.28465	0.31718	0.17393	0.14084	0.16514	0.15458	-2.5146	-3.6875	-3.0292	-3.2708	-3.7042	-3.0958	-3.4562	-3.6604	-2.8479	-3.5833	-3.3	-3.1688	-3.7979	-2.9646	-3.2292	-3.6146	285.960	264.073	475.594	467.761	367.426	488.036	481.868	484.492	463.756	293.745	463.895	450.883	199.659	398.271	145.299	453.459	0.0014184	0.0010633	0.0009408	1109.6	3.2094e-05	3.0557e-06	1459	346.55	3.8211e-05	1.7205e-05	539.89	228.58	143.81	53.524	5.2006e-05	98.316	0.012013	0.015079	0.0041566	1009.1	0.00015754	0.00016487	1249.7	309.47	0.00015772	0.00016474	487.14	202.04	132.52	49.24	0.00015995	87.101	279.802	370.343	141.310	143.133	238.475	393.633	142.667	147.716	306.818	164.929	146.068	150.432	151.159	154.309	276.612	152.637	-8191	255	
25399.533	1	1	0	0	0.023482	0.083459	0.13049	0.15306	0.081679	0.11787	0.23314	0.26722	0.17661	0.10141	0.085305	0.094897	0.26158	0.1638	0.064398	0.25394	-2.4896	-3.5229	-3.3021	-3.0979	-3.6188	-3.0917	-3.3917	-3.7313	-2.9542	-3.6146	-3.3958	-3.0125	-3.7229	-3.2521	-3.1312	-3.6917	166.228	270.008	470.749	412.474	478.269	220.141	450.926	427.873	444.917	306.667	418.863	177.235	474.363	411.830	172.884	377.072	0.0012431	0.0029602	0.00045049	1111	4.3377e-05	2.5121e-05	1453.4	347.71	5.5423e-06	6.7797e-06	536.74	229.48	144.6	53.403	3.1355e-05	98.459	0.01201	0.014859	0.0042012	1003.7	0.00015564	0.00016652	1245.1	310.67	0.00015606	0.00016567	485.09	202.04	133.01	49.423	0.00016057	87.202	294.433	258.400	266.157	143.159	305.112	225.317	142.937	147.854	181.195	474.700	146.179	150.224	150.984	154.352	374.033	152.433	-8191	255	
25399.631	1	1	0	0	0.21782	0.11555	0.017764	0.11687	0.21509	0.11036	0.38032	0.092313	0.086189	0.17367	0.082652	0.23764	0.0056018	0.2547	0.10876	0.21099	-2.4083	-3.575	-3.2875	-3.0521	-3.6979	-3.3625	-3.1125	-3.6042	-3.0292	-3.5417	-3.4917	-3.1021	-3.8271	-3.2812	-2.9354	-3.9354	236.204	307.248	369.719	447.948	478.412	192.808	435.299	389.053	334.392	462.648	381.048	212.391	197.637	432.757	333.355	480.210	0.0011817	0.0026	0.00046374	1111	1.5108e-05	1.2554e-05	1446.8	346.4	4.528e-05	2.1764e-05	536.44	229.39	142.74	53.843	2.4279e-05	98.216	0.011978	0.014816	0.0041597	1007.6	0.00015621	0.00016261	1246.9	309.27	0.00015356	0.00016331	484.42	201.63	132.09	49.555	0.00015921	87.261	285.537	193.098	380.086	143.088	378.528	157.927	142.876	147.403	276.934	350.364	146.870	150.244	151.448	154.509	239.622	152.405	-8191	255	
25399.727	1	1	0	0	0.25505	0.068797	0.05795	0.15362	0.13104	0.1103	0.14525	0.11111	0.14768	0.16681	0.15027	0.097355	0.31097	0.18316	0.049171	0.24425	-2.6708	-3.3396	-3.4979	-3.0896	-3.6146	-3.3563	-3.2313	-3.8792	-3.0521	-3.2792	-3.7417	-2.9896	-3.5438	-3.4	-3.0438	-3.8083	447.923	250.015	478.151	440.077	209.592	180.510	387.697	449.509	378.100	304.447	457.305	308.364	143.389	138.064	297.223	439.650	0.0012062	0.00086727	0.00033519	1114.2	2.3764e-05	1.5686e-05	1453.7	351.76	1.699e-05	1.1799e-05	541.33	229.35	145.39	53.693	1.4261e-05	98.477	0.011795	0.014843	0.0041424	1008.3	0.00015558	0.00016533	1246.7	311.54	0.00015374	0.00016324	485.46	201.91	133.25	49.594	0.0001586	87.149	297.892	235.435	223.500	143.311	298.352	152.054	142.903	148.098	265.479	174.483	146.661	150.365	151.319	154.822	286.538	152.969	-8191	255	
25399.822	1	1	0	0	0.19076	0.06465	0.060171	0.19773	0.04563	0.087475	0.36666	0.18075	0.13597	0.24205	0.15026	0.13785	0.14964	0.2679	0.22341	0.44369	-2.5417	-3.2687	-3.6729	-2.9437	-3.35	-3.3271	-3.1292	-3.6958	-2.9708	-3.2271	-3.675	-3.0917	-3.4583	-3.4667	-2.9292	-3.7167	303.119	359.121	475.859	428.039	391.323	394.387	450.467	403.885	374.915	253.346	488.201	131.978	131.775	460.024	247.285	452.489	0.00083078	0.00097455	0.00025778	1105.9	2.3138e-05	1.5571e-05	1452.8	348.67	3.561e-05	3.1757e-06	538.74	228.53	144.24	53.883	2.7278e-05	97.999	0.011801	0.014832	0.0041201	1005	0.00015595	0.00016279	1241.9	309.4	0.00015452	0.00016323	485.4	201.44	133.05	49.552	0.00015789	87.097	298.240	443.456	149.201	143.219	417.975	209.335	143.382	147.903	424.567	479.029	146.379	150.412	151.049	154.481	324.733	152.718	-8191	255	
25399.943	1	1	0	0	0.14154	0.025586	0.12144	0.16608	0.076605	0.19785	0.43416	0.097546	0.076574	0.12646	0.35177	0.22216	0.23168	0.34686	0.25556	0.29776	-2.6646	-3.0375	-3.5896	-3.0979	-3.3229	-3.5458	-3.0125	-3.6958	-3.3708	-3.2542	-3.8	-3.2375	-3.6167	-3.75	-3.0167	-3.8292	340.156	262.497	318.821	403.542	271.668	209.328	465.355	384.638	163.967	365.240	460.208	418.122	415.278	480.635	419.080	396.567	0.0018317	0.0021763	0.0011518	1118.5	1.7818e-05	1.0287e-05	1446.6	348.95	6.9345e-06	2.3397e-05	538.05	229.19	143.21	53.772	1.7623e-05	97.319	0.011735	0.014886	0.0041039	1007.8	0.00015423	0.00016408	1242.1	309.64	0.00015584	0.00016444	484.95	200.56	132.56	49.46	0.00015956	86.624	296.136	203.308	182.537	142.755	313.660	395.097	143.088	147.909	225.631	290.077	145.942	150.434	150.544	154.069	243.291	152.805	-8191	255	
25400.016	1	1	0	0	0.154	0.19281	0.1424	0.28946	0.23548	0.10832	0.28388	0.35145	0.073232	0.13455	0.23375	0.4358	0.14556	0.067498	0.0845	0.10166	-2.9938	-3.0438	-3.6875	-3.2521	-3.3417	-3.6208	-3.1354	-3.8604	-3.3958	-2.925	-3.825	-3.3229	-3.2625	-3.6958	-2.9521	-3.6458	413.099	398.731	224.308	424.948	203.570	168.004	144.175	458.216	398.374	385.957	469.058	410.736	474.445	247.654	415.582	472.709	0.0013021	0.0015292	0.00086447	1108.7	2.1997e-05	3.2111e-05	1441.8	347.84	2.0003e-05	2.4081e-05	533.07	230.4	144.91	53.679	2.0032e-05	97.713	0.011778	0.014901	0.004125	1006.9	0.00015762	0.00016193	1239.2	309.95	0.00015538	0.00016234	484.98	201.82	133.76	49.556	0.0001597	87.082	278.527	431.523	275.989	142.734	181.025	177.450	143.229	147.708	273.715	398.348	147.089	150.251	151.424	154.518	199.607	152.749	-8191	255	
25400.111	1	1	0	0	0.17695	0.1295	0.085737	0.30507	0.097464	0.093652	0.18874	0.1813	0.027389	0.049681	0.24196	0.096752	0.17597	0.3044	0.091805	0.173	-2.9604	-2.9958	-3.7104	-3.1208	-3.1146	-3.5729	-3.1229	-3.55	-3.3375	-3.0083	-3.7021	-3.3312	-3.1688	-3.6021	-3.1146	-3.7125	156.858	393.600	340.520	439.370	201.736	304.992	407.600	461.681	187.680	431.023	419.537	166.956	374.384	478.256	348.279	481.705	0.0016689	0.0018781	0.00057473	1114.6	2.9466e-05	1.8514e-05	1439	347.06	7.902e-06	3.5657e-05	540.93	229.38	145.42	53.715	1.7021e-05	98.242	0.011947	0.014857	0.0041374	1006.3	0.00015601	0.00016483	1240.7	310.52	0.00015452	0.0001648	486.08	201.64	132.93	49.451	0.00016015	87.155	280.493	219.710	260.537	143.242	413.865	440.446	143.243	147.728	369.068	226.477	146.533	150.370	151.455	154.608	487.077	153.119	-8191	255	
#DATA ENDS
