BOXY.EXE: ISS Imagent and Oximeter Data Acquisition Program Version 0.80
Ascii Record File

#ACQ INFORMATION
2  Detector Channels 
16  External MUX Channels 
1  Auxiliary Channels 
5000  Waveform (CCF) Frequency (Hz)
1  Waveforms Skipped 
30  Waveforms Averaged 
1  Cycles Averaged 
16  Acquisitions per Waveform 
10.0806  Updata Rate (Hz) 

#FILE INFORMATION
TRUE -- External MUX Channel results are PARSED.
FALSE -- AC DC and Phase are NOT grouped.
TRUE -- Companion Program Settings File CREATED.
FALSE -- AC data not excluded
FALSE -- DC data not excluded
FALSE -- Phase data not excluded
FALSE -- Auxillary Chn. data not excluded
Tab delimiters

#CALIBRATION STATE
TRUE -- Waveform Calibration Values APPLIED.


#AUX CALIBRATION VALUES
Val Type	aux-1	

Term	1.0000e+00	
Factor	0.0000e+00	


#WF CALIBRATION VALUES
A = Detector Channel
Val Type	A-AC1	A-AC2	A-AC3	A-AC4	A-AC5	A-AC6	A-AC7	A-AC8	A-AC9	A-AC10	A-AC11	A-AC12	A-AC13	A-AC14	A-AC15	A-AC16	A-DC1	A-DC2	A-DC3	A-DC4	A-DC5	A-DC6	A-DC7	A-DC8	A-DC9	A-DC10	A-DC11	A-DC12	A-DC13	A-DC14	A-DC15	A-DC16	A-Ph1	A-Ph2	A-Ph3	A-Ph4	A-Ph5	A-Ph6	A-Ph7	A-Ph8	A-Ph9	A-Ph10	A-Ph11	A-Ph12	A-Ph13	A-Ph14	A-Ph15	A-Ph16	

Term	0.00000e+00	0.00000e+00	0.00000e+00	0.00000e+00	0.00000e+00	0.00000e+00	0.00000e+00	0.00000e+00	0.00000e+00	0.00000e+00	0.00000e+00	0.00000e+00	0.00000e+00	0.00000e+00	0.00000e+00	0.00000e+00	0.00000e+00	0.00000e+00	0.00000e+00	0.00000e+00	0.00000e+00	0.00000e+00	0.00000e+00	0.00000e+00	0.00000e+00	0.00000e+00	0.00000e+00	0.00000e+00	0.00000e+00	0.00000e+00	0.00000e+00	0.00000e+00	0.00000e+00	0.00000e+00	0.00000e+00	0.00000e+00	0.00000e+00	0.00000e+00	0.00000e+00	0.00000e+00	0.00000e+00	0.00000e+00	0.00000e+00	0.00000e+00	0.00000e+00	0.00000e+00	0.00000e+00	0.00000e+00	
Factor	1.00000e+00	1.00000e+00	1.00000e+00	1.00000e+00	1.00000e+00	1.00000e+00	1.00000e+00	1.00000e+00	1.00000e+00	1.00000e+00	1.00000e+00	1.00000e+00	1.00000e+00	1.00000e+00	1.00000e+00	1.00000e+00	1.00000e+00	1.00000e+00	1.00000e+00	1.00000e+00	1.00000e+00	1.00000e+00	1.00000e+00	1.00000e+00	1.00000e+00	1.00000e+00	1.00000e+00	1.00000e+00	1.00000e+00	1.00000e+00	1.00000e+00	1.00000e+00	X	X	X	X	X	X	X	X	X	X	X	X	X	X	X	X	

B = Detector Channel
Val Type	B-AC1	B-AC2	B-AC3	B-AC4	B-AC5	B-AC6	B-AC7	B-AC8	B-AC9	B-AC10	B-AC11	B-AC12	B-AC13	B-AC14	B-AC15	B-AC16	B-DC1	B-DC2	B-DC3	B-DC4	B-DC5	B-DC6	B-DC7	B-DC8	B-DC9	B-DC10	B-DC11	B-DC12	B-DC13	B-DC14	B-DC15	B-DC16	B-Ph1	B-Ph2	B-Ph3	B-Ph4	B-Ph5	B-Ph6	B-Ph7	B-Ph8	B-Ph9	B-Ph10	B-Ph11	B-Ph12	B-Ph13	B-Ph14	B-Ph15	B-Ph16	

Term	0.00000e+00	0.00000e+00	0.00000e+00	0.00000e+00	0.00000e+00	0.00000e+00	0.00000e+00	0.00000e+00	0.00000e+00	0.00000e+00	0.00000e+00	0.00000e+00	0.00000e+00	0.00000e+00	0.00000e+00	0.00000e+00	0.00000e+00	0.00000e+00	0.00000e+00	0.00000e+00	0.00000e+00	0.00000e+00	0.00000e+00	0.00000e+00	0.00000e+00	0.00000e+00	0.00000e+00	0.00000e+00	0.00000e+00	0.00000e+00	0.00000e+00	0.00000e+00	-7.70394e+01	-1.24773e+02	-1.22023e+02	-1.83689e+02	-5.26907e+01	-6.57493e+01	-1.55956e+02	-1.62015e+02	-4.12905e+01	-6.64813e+01	-1.69979e+02	-1.70582e+02	-1.79937e+02	-1.76627e+02	-6.08650e+01	-1.49193e+02	
Factor	1.65381e-05	1.27404e-04	4.20882e-05	1.74909e-01	1.21720e-06	1.50233e-06	1.52390e-01	4.88806e-02	1.05316e-06	1.33437e-06	8.28644e-02	2.88030e-02	2.48227e-02	8.64829e-03	1.26265e-06	1.23097e-02	3.77851e-06	4.39697e-06	1.22931e-06	9.36027e-02	4.74484e-08	4.83570e-08	7.69343e-02	2.63740e-02	4.70575e-08	4.84823e-08	4.32323e-02	1.50964e-02	1.35041e-02	4.69083e-03	4.79849e-08	6.44294e-03	X	X	X	X	X	X	X	X	X	X	X	X	X	X	X	X	



#DISTANCE SETTINGS
A = Detector Channel
A-1	A-2	A-3	A-4	A-5	A-6	A-7	A-8	A-9	A-10	A-11	A-12	A-13	A-14	A-15	A-16	

2.5000e+00	3.0000e+00	2.5000e+00	3.0000e+00	2.0000e+00	3.0000e+00	1.5000e+00	3.0000e+00	3.0000e+00	3.0000e+00	3.0000e+00	3.0000e+00	3.0000e+00	3.0000e+00	1.5000e+00	3.0000e+00	

B = Detector Channel
B-1	B-2	B-3	B-4	B-5	B-6	B-7	B-8	B-9	B-10	B-11	B-12	B-13	B-14	B-15	B-16	

1.0000e+01	1.0000e+01	1.0000e+01	1.4400e+00	1.0000e+01	1.0000e+01	1.5100e+00	1.9400e+00	1.0000e+01	1.0000e+01	1.9900e+00	2.4900e+00	2.4100e+00	2.9000e+00	1.0000e+01	2.9800e+00	




#DATA BEGINS
time	group	step	mark	flag	A-AC1	A-AC2	A-AC3	A-AC4	A-AC5	A-AC6	A-AC7	A-AC8	A-AC9	A-AC10	A-AC11	A-AC12	A-AC13	A-AC14	A-AC15	A-AC16	A-DC1	A-DC2	A-DC3	A-DC4	A-DC5	A-DC6	A-DC7	A-DC8	A-DC9	A-DC10	A-DC11	A-DC12	A-DC13	A-DC14	A-DC15	A-DC16	A-Ph1	A-Ph2	A-Ph3	A-Ph4	A-Ph5	A-Ph6	A-Ph7	A-Ph8	A-Ph9	A-Ph10	A-Ph11	A-Ph12	A-Ph13	A-Ph14	A-Ph15	A-Ph16	B-AC1	B-AC2	B-AC3	B-AC4	B-AC5	B-AC6	B-AC7	B-AC8	B-AC9	B-AC10	B-AC11	B-AC12	B-AC13	B-AC14	B-AC15	B-AC16	B-DC1	B-DC2	B-DC3	B-DC4	B-DC5	B-DC6	B-DC7	B-DC8	B-DC9	B-DC10	B-DC11	B-DC12	B-DC13	B-DC14	B-DC15	B-DC16	B-Ph1	B-Ph2	B-Ph3	B-Ph4	B-Ph5	B-Ph6	B-Ph7	B-Ph8	B-Ph9	B-Ph10	B-Ph11	B-Ph12	B-Ph13	B-Ph14	B-Ph15	B-Ph16	aux-1	digaux	

21618.055	1	1	0	768	0.060147	0.12556	0.14536	0.36182	0.19306	0.23676	0.065967	0.22268	0.16941	0.19312	0.107	0.13205	0.23839	0.29716	0.082898	0.23228	-3.2458	-2.7479	-3.3312	-3.3771	-2.6542	-3.7667	-3.2292	-3.0104	-3.7396	-2.8854	-3.275	-3.4437	-2.6896	-3.4479	-3.05	-3.0083	169.135	105.199	178.277	417.232	201.951	327.060	204.876	430.752	448.882	263.492	373.796	358.859	404.688	408.202	414.552	411.180	0.0013732	0.007484	0.0015352	900.13	5.923e-05	2.311e-05	1338.8	366.22	3.7668e-05	5.8189e-05	567.24	183.52	125.21	54.047	3.0569e-05	86.429	0.018311	0.021327	0.0059411	1196.8	0.00022999	0.00023527	1491.1	432.25	0.00022815	0.00023513	685.37	225.7	169.99	68.278	0.00023242	104.04	227.233	227.370	454.409	114.970	154.952	263.994	114.816	119.097	199.375	203.194	117.081	120.586	121.746	125.017	182.924	123.619	-8191	255	
21618.150	1	1	0	0	0.11855	0.23115	0.27731	0.28664	0.076764	0.3169	0.4719	0.15257	0.12887	0.12644	0.12749	0.29303	0.21672	0.27584	0.20396	0.15912	-3.2104	-2.7208	-2.9479	-3.4813	-2.7417	-3.4062	-3.2271	-2.9521	-3.5604	-2.775	-3.2667	-3.4146	-2.8104	-3.4437	-3.3312	-2.8896	169.971	425.214	396.441	449.012	434.349	416.677	418.862	360.764	352.572	380.929	180.307	450.296	278.123	424.506	414.931	440.546	0.0012284	0.005007	0.00021659	887.26	2.9565e-06	4.7439e-05	1333.3	362.56	2.8416e-05	4.4935e-05	561.32	181.2	125.24	54.102	3.1604e-05	85.846	0.018548	0.021567	0.0060144	1200.1	0.00023075	0.00023748	1495.9	431.54	0.00023122	0.00023925	686.38	226.44	170.97	68.251	0.00023801	104.08	228.487	442.774	118.564	115.029	184.839	227.076	114.765	119.254	212.491	332.700	117.724	120.965	121.805	125.394	363.993	123.514	-8191	255	
21618.246	1	1	0	0	0.18114	0.21247	0.09849	0.16598	0.17725	0.21022	0.27359	0.10121	0.23468	0.21692	0.27305	0.36779	0.39652	0.19693	0.18402	0.065352	-3.0833	-2.8625	-2.9688	-3.4688	-2.8042	-3.4396	-3.2792	-2.8208	-3.5354	-3.1312	-2.9958	-3.5396	-2.85	-3.3563	-3.3458	-2.8958	362.131	413.243	355.191	398.019	189.147	366.284	365.427	393.767	292.306	145.712	423.405	391.628	408.874	407.840	149.292	460.405	0.00057078	0.0066925	0.00072654	896.26	1.7986e-05	2.8479e-05	1323.5	364.51	2.4748e-05	3.4741e-05	561.91	181.51	124.82	53.88	2.8904e-05	86.239	0.018923	0.021783	0.0061297	1206	0.0002369	0.00024298	1498.8	435.1	0.00023636	0.00024505	689.62	227.77	171.8	68.849	0.00024295	104.92	224.741	293.283	178.615	115.334	250.610	157.996	114.658	119.340	365.955	232.696	117.742	121.383	121.763	125.311	262.270	123.400	-8191	255	
21618.344	1	1	0	0	0.19589	0.092747	0.055316	0.1407	0.25858	0.17116	0.16112	0.22116	0.20475	0.24408	0.22598	0.17865	0.19636	0.1475	0.0294	0.21702	-3.0979	-2.9125	-2.725	-3.5167	-2.7	-3.1271	-3.5854	-2.8	-3.3167	-3.0354	-3	-3.6521	-2.8	-3.2146	-3.4313	-2.7958	252.198	298.749	355.672	431.523	386.174	448.257	392.279	460.933	205.986	359.504	142.166	452.835	406.491	159.938	332.511	403.249	0.0010829	0.0019949	0.00064268	894.18	1.884e-05	3.6222e-05	1327.7	359.78	2.2192e-05	4.0695e-05	560.09	179	124.62	53.805	2.7415e-05	85.967	0.01914	0.022172	0.006246	1213.5	0.00023916	0.00024509	1506.5	435.17	0.00023802	0.00024718	692.5	227.61	172.58	69.306	0.00024614	105.26	244.033	139.556	247.048	114.963	233.890	269.771	115.051	119.337	224.730	242.286	118.271	120.990	121.959	124.826	423.876	123.543	-8191	255	
21618.439	1	1	0	0	0.18138	0.19461	0.14741	0.16772	0.11413	0.15402	0.30859	0.41472	0.18251	0.086155	0.13892	0.26469	0.238	0.21664	0.18783	0.23842	-3.0854	-3.0812	-2.7979	-3.7083	-2.9188	-2.8604	-3.5542	-2.8312	-3.3479	-3.2687	-2.9521	-3.6833	-2.9979	-3.0563	-3.4542	-2.8521	437.827	292.653	368.448	394.932	286.153	303.596	452.121	448.511	264.660	423.785	318.331	346.613	123.697	440.238	432.136	421.914	0.00069905	0.00085187	0.00066565	890.34	2.414e-05	4.7913e-05	1334.6	362.4	2.1883e-05	2.9095e-05	558.48	178.42	124.6	53.523	3.2101e-05	84.862	0.01946	0.022505	0.0063568	1221.1	0.0002434	0.00024933	1510.2	438.03	0.00024346	0.00024976	695.64	227.67	173.25	69.488	0.00025085	105.29	225.607	102.065	386.599	115.144	115.117	413.854	115.134	118.896	277.384	395.839	118.170	121.227	122.099	125.086	448.250	124.043	-8191	255	
21618.535	1	1	0	0	0.08073	0.038113	0.2102	0.1717	0.14538	0.05321	0.42291	0.31244	0.10304	0.22584	0.11819	0.038426	0.31126	0.13161	0.21149	0.28604	-2.9667	-3.0667	-2.7375	-3.4479	-2.9938	-3.1083	-3.6937	-2.8958	-3.2292	-3.3042	-2.8354	-3.55	-3.0187	-3.0708	-3.5062	-2.9729	270.560	104.718	348.979	429.254	192.337	373.556	406.523	382.926	228.745	294.019	387.678	272.910	369.724	445.243	196.065	406.922	0.0010695	0.0040621	0.0018379	885.71	3.5468e-05	7.7346e-05	1321.4	358.75	1.6167e-05	2.2209e-05	558.48	180.54	124.45	52.93	5.1024e-05	84.777	0.020025	0.023301	0.0065264	1235.4	0.00025175	0.00025851	1522.8	441.13	0.00025324	0.00026135	701.53	231.1	175.26	70.075	0.00025873	105.84	267.920	134.548	196.975	115.264	311.204	365.260	114.950	119.399	142.070	356.258	118.208	121.041	121.652	125.291	231.000	123.590	-8191	255	
21618.654	1	1	0	0	0.19453	0.17518	0.32027	0.32796	0.096738	0.17596	0.040062	0.28293	0.23738	0.1318	0.096538	0.31566	0.3378	0.1495	0.21363	0.33732	-2.875	-3.2896	-2.65	-3.5917	-3.2062	-2.9042	-3.4896	-2.7333	-2.9792	-3.2604	-2.7667	-3.4146	-3.1104	-2.9771	-3.4646	-2.9083	373.594	210.072	133.926	452.864	376.570	299.265	422.885	370.115	203.581	278.090	360.518	343.495	433.931	288.073	398.398	399.747	0.0010244	0.0021313	0.00052198	875.12	1.8007e-05	4.7976e-05	1315.5	359.78	3.7819e-05	3.7489e-05	557.35	178.49	123.32	53.464	2.3015e-05	85.55	0.020491	0.02382	0.0066528	1240.7	0.00025668	0.00026266	1523.3	442.01	0.00025511	0.00026261	701.51	230.54	175.25	70.013	0.00026044	106.25	213.424	391.223	158.873	114.822	167.150	386.878	114.494	119.524	281.880	177.072	117.918	122.202	122.686	125.283	375.515	123.603	-8191	255	
21618.752	1	1	0	0	0.15543	0.109	0.17789	0.20107	0.22805	0.1731	0.2327	0.28577	0.1281	0.2239	0.1053	0.091251	0.14373	0.014511	0.036139	0.12592	-2.7562	-3.4125	-2.5271	-3.5104	-3.1042	-2.7479	-3.8125	-3.1833	-2.9688	-3.5042	-2.7979	-3.3417	-3.2958	-2.7687	-3.3917	-3.0396	330.867	367.813	263.356	114.659	318.587	251.927	371.922	454.224	337.731	176.193	428.461	433.117	344.912	381.300	354.024	435.344	0.0010963	0.0035232	0.0006668	881.75	2.5923e-05	1.357e-05	1330.3	358.65	1.3152e-05	8.7374e-06	561.65	179.36	122.3	52.802	5.0655e-05	84.896	0.02052	0.023734	0.0066812	1242.2	0.00025539	0.00026142	1523.4	440.6	0.00025385	0.00025987	699.29	229.5	174.39	69.845	0.00025945	105.48	235.410	321.620	420.961	115.413	126.332	329.915	114.853	119.412	254.760	159.137	117.833	121.795	121.337	125.287	230.294	123.322	-8191	255	
21618.848	1	1	0	0	0.05517	0.051365	0.024668	0.25695	0.024019	0.20348	0.22089	0.081706	0.17561	0.085774	0.11632	0.24209	0.27295	0.16416	0.20688	0.28463	-2.4604	-3.35	-2.7375	-3.2979	-3.1979	-2.6792	-3.6792	-3.0354	-3.0125	-3.4042	-2.8417	-3.1708	-3.4583	-2.7542	-3.3792	-3.1333	408.033	393.084	232.961	142.268	292.563	115.554	398.176	404.192	157.724	206.001	104.296	387.474	132.529	150.648	199.040	386.302	0.00040249	0.0044614	0.0014278	874.2	3.1518e-05	4.4047e-05	1318.5	354.55	1.3452e-05	3.9486e-05	550.72	177.5	121.9	52.686	3.2919e-05	83.664	0.020662	0.023833	0.0066733	1241.9	0.00025877	0.00026395	1517.7	440.22	0.00025804	0.00026557	697.17	230.11	174.86	69.844	0.00026225	105.43	240.140	285.434	239.283	115.847	309.439	102.338	115.355	119.283	389.345	296.672	117.978	121.238	122.264	125.563	290.339	124.093	-8191	255	
21618.943	1	1	0	0	0.075076	0.061105	0.30971	0.31377	0.058578	0.05775	0.30112	0.22552	0.29413	0.098285	0.21309	0.18413	0.15252	0.27387	0.038242	0.29018	-2.3771	-3.35	-2.7708	-3.1688	-3.3333	-2.6771	-3.5354	-3.1958	-2.7542	-3.4896	-2.95	-3.1229	-3.4729	-2.8458	-3.3125	-3.3312	286.129	460.304	373.972	399.659	327.060	141.953	367.323	386.374	219.115	209.483	341.014	403.925	148.435	444.915	435.286	425.246	0.00061596	0.0032551	0.0010584	862.97	2.5121e-05	4.5197e-05	1310.9	354.62	3.8608e-05	4.3537e-05	557.08	176.75	121.3	52.6	1.4147e-05	83.802	0.020744	0.024127	0.0066852	1237.7	0.00025925	0.00026548	1514.4	439.03	0.0002567	0.00026425	699.46	230.36	174.69	69.755	0.00026347	105.52	256.169	368.225	338.165	114.942	438.840	225.262	114.887	119.211	154.629	375.209	117.789	121.502	121.822	125.525	218.045	123.639	-8191	255	
21619.039	1	1	0	0	0.022065	0.076829	0.053934	0.15801	0.19375	0.16487	0.28338	0.34737	0.075665	0.19845	0.27091	0.18482	0.072687	0.33044	0.049047	0.18957	-2.275	-3.5625	-2.8438	-3.0458	-3.4875	-2.7542	-3.4688	-3.3708	-2.6521	-3.6646	-3.1125	-2.9125	-3.325	-2.8479	-3.0833	-3.4458	241.096	351.739	264.266	456.987	387.817	225.163	439.908	401.163	308.263	138.094	460.898	450.137	359.745	444.357	242.511	414.216	0.00048684	0.00068113	0.00033073	872.66	5.0884e-05	3.3457e-05	1312.8	357.11	1.3686e-05	3.3033e-05	552.12	177.04	122.72	52.151	5.672e-06	84.441	0.021002	0.02444	0.0067944	1246.7	0.00026263	0.0002681	1527.6	443.79	0.00026193	0.00027093	702.24	232.98	177.11	70.271	0.00026969	106.7	200.132	236.469	155.433	115.059	292.870	361.797	114.945	119.493	191.690	290.234	117.973	121.497	121.877	125.601	168.372	123.662	-8191	255	
21619.137	1	1	0	0	0.32781	0.11155	0.081556	0.21602	0.37792	0.13781	0.22038	0.1857	0.14336	0.090312	0.34346	0.1084	0.17946	0.075517	0.18662	0.024304	-2.3583	-3.3917	-2.9771	-2.8	-3.5625	-2.8021	-3.2812	-3.5292	-2.6521	-3.3979	-3.2521	-2.9188	-3.5521	-2.8667	-2.9708	-3.5229	258.724	120.183	336.344	453.297	435.950	304.654	391.073	450.955	111.406	158.872	454.149	130.513	409.191	425.874	379.274	355.638	0.00081629	0.0039873	0.00064384	877.62	2.6786e-05	4.5367e-05	1304.2	351.72	3.8112e-05	1.1317e-05	549.18	176.2	120.61	53.054	2.2899e-05	83.902	0.021351	0.024698	0.0069547	1255.9	0.0002683	0.00027304	1532.4	444.31	0.0002639	0.00027407	704.69	232.11	176.9	70.204	0.00026529	105.77	269.295	348.617	382.621	115.303	189.940	330.578	115.081	119.470	282.603	359.624	118.492	121.599	122.158	125.764	275.365	123.568	-8191	255	
21619.256	1	1	0	0	0.13782	0.25541	0.032626	0.2211	0.033725	0.35555	0.26679	0.15389	0.1766	0.17711	0.42029	0.19202	0.11485	0.33221	0.097408	0.085543	-2.2417	-3.2604	-3.05	-2.9542	-3.4333	-2.8542	-3.2833	-3.6063	-2.7542	-3.1896	-3.3	-2.8229	-3.5417	-3.0104	-3.0396	-3.6562	440.572	103.983	193.641	108.471	211.840	210.174	385.612	409.808	124.627	383.205	400.903	403.093	433.291	458.014	393.646	172.008	0.00026837	0.0044466	0.0010339	870.59	4.3454e-05	2.2944e-05	1303.7	356.96	2.5426e-05	1.9769e-05	550.88	177.6	121.47	52.316	1.5476e-05	84.353	0.02093	0.024322	0.0067957	1246.1	0.00026194	0.00026693	1524.2	442.24	0.00026215	0.00026994	703.95	232.37	176.68	70.013	0.00026788	106.12	320.926	334.628	376.939	115.254	310.687	309.720	114.985	119.366	214.255	336.891	117.886	120.906	121.956	125.505	373.106	123.916	-8191	255	
21619.352	1	1	0	0	0.056015	0.30453	0.24501	0.23846	0.12708	0.1456	0.21644	0.14016	0.15589	0.1634	0.26331	0.18674	0.22128	0.077153	0.066489	0.43636	-2.3833	-3.2938	-3.1375	-2.7583	-3.5958	-2.9729	-2.975	-3.5938	-2.7292	-3.1396	-3.4521	-2.8729	-3.4146	-3.2	-2.8854	-3.5438	152.780	289.132	122.598	169.333	124.520	400.781	457.669	377.149	183.814	450.412	436.168	360.676	455.375	449.463	183.028	426.237	0.00045943	0.0062693	0.00078213	869.78	3.3615e-05	3.7383e-05	1307.4	358.09	8.6577e-06	1.6973e-05	549.68	176.77	122.8	53.161	1.9129e-05	84.237	0.020947	0.024301	0.0067858	1243.5	0.00026005	0.00026603	1524.8	442.22	0.00025793	0.00026849	699.09	231.66	175.92	70.069	0.00026622	106.12	278.552	157.126	133.319	114.911	132.474	226.029	114.959	119.542	296.700	162.370	118.046	121.638	122.315	125.396	420.820	123.690	-8191	255	
21619.447	1	1	0	0	0.060386	0.058429	0.18365	0.16571	0.082467	0.12284	0.12574	0.1738	0.51803	0.14194	0.2471	0.25903	0.22463	0.14574	0.041353	0.21537	-2.2562	-3.0667	-3.4667	-2.6833	-3.375	-2.9417	-3.0896	-3.6417	-2.6562	-3.2292	-3.5312	-2.7458	-3.5229	-3.1042	-2.7021	-3.6188	373.340	357.883	415.865	109.658	268.259	102.063	145.196	433.566	108.868	140.768	422.971	370.244	426.054	409.631	225.453	417.824	0.00091475	0.0060896	0.00051273	881.12	3.2351e-05	1.7164e-05	1313.5	353.87	3.6059e-05	4.6171e-05	551.46	177.99	122.16	53.099	5.1337e-05	84.397	0.020875	0.02433	0.0067942	1247.6	0.00026294	0.00026635	1524.3	442.04	0.00025854	0.00026767	702.58	231.77	176.09	70.372	0.00026489	106.28	237.482	150.328	254.939	115.373	310.296	436.175	115.549	119.603	182.007	117.275	117.813	121.371	121.907	125.769	270.001	123.606	-8191	255	
21619.543	1	1	0	0	0.078385	0.19109	0.16734	0.13844	0.23174	0.034349	0.21453	0.38499	0.25673	0.10583	0.21685	0.20944	0.11008	0.28185	0.22546	0.19578	-2.6188	-2.8896	-3.1646	-2.7417	-3.4792	-3.1917	-2.7396	-3.6375	-2.8042	-2.95	-3.6854	-2.7771	-3.2313	-3.3688	-2.8	-3.6417	346.976	232.011	147.634	408.142	405.175	311.245	389.284	418.413	176.770	279.592	406.542	384.090	342.917	438.655	228.176	363.777	0.00076287	0.0049574	0.00057349	873.74	2.5443e-05	4.0183e-05	1313	356.06	2.9677e-05	2.1726e-05	550.96	177.85	121.85	52.86	2.1997e-05	84.418	0.020838	0.024312	0.0067965	1247.3	0.00026238	0.00026765	1526.7	442.96	0.00025996	0.00026875	702.88	231.95	176.63	70.497	0.00026538	106.32	246.729	133.930	239.291	115.838	249.633	182.654	115.310	119.435	195.272	333.337	117.988	121.210	121.585	125.309	303.594	124.021	-8191	255	
21619.615	1	1	0	0	0.033682	0.068225	0.010323	0.098394	0.10778	0.033367	0.33284	0.22738	0.19451	0.025072	0.25542	0.29039	0.17834	0.068401	0.22779	0.10344	-2.65	-2.8125	-3.4958	-2.8292	-3.3354	-3.2646	-2.8646	-3.6333	-3.075	-2.9979	-3.6333	-2.95	-3.2354	-3.3979	-2.7896	-3.8125	121.184	281.254	343.883	431.555	154.225	317.881	397.657	404.859	194.362	276.151	446.227	414.981	289.165	133.830	122.796	120.967	0.00046713	0.0026368	0.00048657	878.05	3.9567e-05	1.9237e-05	1319.8	357.13	4.2868e-05	3.3967e-05	558.46	177.39	122.53	52.841	2.6005e-05	83.746	0.021147	0.024687	0.0068719	1253.3	0.0002652	0.00027029	1536.5	445.2	0.000262	0.00027226	708.3	232.46	178.06	70.578	0.00026972	106.96	221.322	238.242	316.525	115.542	220.934	145.581	115.092	119.441	252.990	104.108	118.074	121.220	121.719	125.606	377.454	123.998	-8191	255	
21619.734	1	1	0	0	0.066767	0.12308	0.18558	0.09912	0.078478	0.19323	0.25203	0.2196	0.069031	0.12605	0.18628	0.28661	0.12567	0.017345	0.098797	0.17842	-2.8042	-2.9375	-3.4146	-2.9146	-3.0792	-3.65	-2.8875	-3.5021	-3.2396	-2.9021	-3.6708	-3.1167	-3.0521	-3.5104	-2.9021	-3.4625	262.648	192.445	242.879	450.734	163.849	375.846	386.596	460.810	364.015	388.333	405.885	339.112	168.223	183.672	385.996	289.184	0.00054973	0.0055035	0.00072389	880.11	5.3948e-05	2.3138e-05	1317.7	358.84	2.7168e-05	4.3304e-05	556.78	179.51	121.52	52.794	4.9893e-05	84.327	0.021407	0.024913	0.0069594	1261.7	0.00026856	0.00027297	1537.9	448.16	0.00026513	0.00027358	709.65	233.6	178.32	70.767	0.00027106	107.06	240.462	243.433	138.010	115.581	307.342	250.209	115.537	119.324	176.317	326.759	118.604	120.720	122.218	125.187	327.743	124.133	-8191	255	
21619.830	1	1	0	0	0.095367	0.16057	0.14699	0.28415	0.046859	0.16022	0.32578	0.042636	0.014277	0.23265	0.21327	0.17934	0.1626	0.18128	0.067731	0.11863	-2.825	-2.6688	-3.3604	-2.8542	-3.0125	-3.4833	-2.9479	-3.4125	-3.4542	-2.8146	-3.6792	-3.2146	-2.9271	-3.6458	-2.7438	-3.1813	163.210	452.448	415.203	394.461	288.746	156.960	419.333	440.008	341.400	120.673	115.629	452.020	445.863	123.473	423.063	427.868	0.00069373	0.0059979	0.0022478	881.52	1.9592e-05	6.1748e-06	1319.2	358.83	4.8217e-06	7.6664e-06	557.66	178.04	122.22	53.802	1.8932e-05	84.036	0.021516	0.024943	0.0069731	1260.3	0.0002705	0.00027495	1541.5	449.52	0.00026698	0.00027491	710.5	234.53	178.28	71.354	0.00026936	107.14	240.099	269.837	188.278	114.972	238.524	256.034	115.333	119.798	376.324	460.762	118.577	121.455	122.088	125.383	166.418	123.992	-8191	255	
21619.928	1	1	0	0	0.094405	0.31241	0.058637	0.043839	0.11562	0.027189	0.22984	0.23433	0.13749	0.1564	0.14178	0.29514	0.27519	0.18979	0.18153	0.22866	-2.7938	-2.775	-3.5875	-3.0812	-2.7896	-3.6292	-3.0333	-3.2083	-3.3021	-2.6833	-3.4542	-3.2396	-2.8812	-3.5875	-2.7396	-3.2521	127.041	105.951	428.777	383.914	349.836	324.745	347.849	426.936	344.545	441.324	428.534	368.587	109.336	428.834	102.091	459.404	0.00077607	0.0026697	0.00068642	866.3	3.6755e-05	5.9066e-05	1322.4	360.52	5.196e-05	1.8353e-05	553.09	176.37	123.67	53.087	2.083e-05	83.501	0.021462	0.024913	0.0069234	1264.5	0.00026947	0.0002755	1541	450.23	0.0002674	0.0002768	710.82	234.69	179.26	71.284	0.00027185	107.27	231.744	330.752	149.327	115.690	136.323	413.454	114.979	119.624	235.848	277.426	118.349	121.509	122.198	125.782	263.391	123.695	-8191	255	
21620.049	1	1	0	0	0.12068	0.10546	0.17918	0.18194	0.24093	0.097951	0.14012	0.16999	0.042268	0.013928	0.18182	0.22556	0.096641	0.17793	0.1481	0.23663	-2.975	-2.725	-3.2938	-3.1708	-2.7792	-3.4771	-3.075	-3.2417	-3.2896	-2.7083	-3.6958	-3.3021	-2.9542	-3.4813	-3.0167	-3.1063	390.629	448.076	230.942	167.027	302.886	342.773	401.199	437.153	120.512	358.282	178.851	454.411	366.547	126.911	265.596	429.541	0.00052973	0.0014289	0.00085495	876.29	2.7914e-05	3.8386e-05	1317	356.33	1.7723e-05	3.2518e-05	549.9	178.67	122.44	52.53	2.4195e-05	84.375	0.021519	0.025164	0.0069925	1271.8	0.00027136	0.00027852	1546.8	451.37	0.00027093	0.00027836	713.64	236.54	180.31	71.318	0.00027522	107.63	227.246	342.890	227.572	115.676	421.921	121.870	115.288	119.626	178.079	387.873	118.067	120.677	122.811	125.996	189.128	123.959	-8191	255	
21620.145	1	1	0	0	0.036326	0.098768	0.012671	0.17844	0.10416	0.28948	0.20727	0.26225	0.31754	0.32975	0.39895	0.27609	0.028484	0.093223	0.2081	0.25948	-2.9667	-2.7708	-3.3229	-3.3521	-2.8187	-3.5375	-3.1271	-3.0292	-3.4375	-2.8208	-3.3833	-3.4521	-2.7708	-3.5479	-3.0021	-2.9854	426.078	440.549	443.033	394.073	388.722	335.968	360.704	378.254	114.139	431.655	398.423	438.195	395.381	329.162	339.167	421.641	0.00058671	0.0040014	0.0012027	885.84	3.5075e-05	3.6349e-05	1317.4	361.79	9.2932e-06	2.2051e-05	552.15	178.49	123.5	53.453	1.8963e-05	84.736	0.02172	0.025197	0.0070886	1267.8	0.00027274	0.00027823	1547.9	452.57	0.00027245	0.00028026	717.98	237.64	181.28	71.901	0.00028213	108.98	211.238	326.764	170.942	115.463	113.497	114.119	115.077	119.430	392.579	361.709	118.083	121.369	121.790	125.625	364.088	124.042	-8191	255	
21620.217	1	1	0	0	0.17573	0.07893	0.26626	0.24932	0.14506	0.15523	0.28059	0.09007	0.26002	0.12335	0.13342	0.20613	0.2604	0.25882	0.15108	0.32238	-3.1167	-2.7396	-3.1667	-3.3979	-2.8292	-3.325	-3.2146	-2.8688	-3.5979	-2.75	-3.1292	-3.6188	-2.8333	-3.4688	-3.2521	-2.8688	286.382	203.345	170.658	414.889	423.232	148.386	441.229	107.385	106.778	230.069	430.773	420.087	321.124	361.756	396.276	365.500	0.00087796	0.0017977	0.00033102	883.34	3.8184e-05	2.7365e-05	1323.6	358.27	3.7629e-05	3.9851e-05	554.31	178.77	123.03	53.103	1.3428e-05	84.838	0.022329	0.025907	0.0073046	1291.4	0.00028049	0.00028674	1563.8	456.04	0.00027777	0.00028663	721.42	239.44	182.24	72.484	0.00028626	108.91	220.253	223.672	127.197	115.550	412.021	319.391	114.921	119.667	244.284	422.696	118.138	120.989	121.567	125.289	444.394	124.423	-8191	255	
21620.338	1	1	0	0	0.25633	0.11616	0.10071	0.12718	0.21904	0.24182	0.19986	0.33674	0.24227	0.18083	0.18248	0.1403	0.26041	0.21632	0.132	0.19371	-3.1104	-2.8146	-2.9604	-3.6271	-2.7021	-3.2083	-3.4437	-2.8167	-3.4938	-3.0479	-3.1604	-3.7062	-2.7042	-3.5104	-3.3896	-2.7979	443.538	140.168	192.607	435.646	292.249	237.868	336.946	362.140	389.226	222.863	155.866	404.479	439.724	385.204	184.037	391.052	0.00063416	0.0054555	0.0011131	885.44	1.3621e-05	5.6031e-05	1305.3	356.39	2.1346e-05	1.7997e-05	559.1	177.63	122.26	53.303	5.1443e-05	83.632	0.022374	0.02606	0.0073084	1284.8	0.00028173	0.00028696	1555.2	452.32	0.00027646	0.00028779	721.89	238.5	181.81	72.254	0.00028297	108.45	204.723	168.831	275.284	115.204	174.349	362.924	115.227	119.603	167.899	294.164	118.400	121.045	122.529	125.517	166.432	124.366	-8191	255	
21620.434	1	1	0	0	0.20099	0.071505	0.16124	0.16841	0.037534	0.14253	0.3558	0.20947	0.21797	0.16518	0.16797	0.17766	0.1244	0.13886	0.10559	0.10693	-3.1	-2.9792	-2.7167	-3.5333	-2.8438	-3.125	-3.4792	-2.9917	-3.6188	-3.0625	-2.9792	-3.4208	-2.8125	-3.25	-3.3042	-2.9062	317.651	254.500	324.328	329.261	452.337	435.070	429.776	386.270	260.083	182.560	422.995	440.196	431.598	427.363	284.665	332.947	0.00071162	0.0048282	0.00089572	871.73	4.1785e-05	3.6112e-05	1322.1	357.98	1.8811e-05	1.9571e-05	553.64	178.09	121.77	53.129	5.852e-05	85.144	0.022336	0.02594	0.0072774	1281.3	0.00027951	0.000286	1554.6	453.41	0.0002752	0.00028627	720.28	237.93	181.38	72.188	0.00028218	108.71	204.177	213.256	231.864	115.268	240.362	311.651	115.166	119.912	237.448	443.544	118.190	121.104	121.690	125.801	320.496	124.276	-8191	255	
21620.527	1	1	0	0	0.12753	0.33529	0.19977	0.172	0.22205	0.058842	0.2475	0.3142	0.17557	0.17205	0.24929	0.2571	0.1512	0.073769	0.049589	0.12854	-2.975	-3.1688	-2.85	-3.3937	-2.8063	-3.0271	-3.5125	-2.7167	-3.3271	-3.1312	-2.8812	-3.55	-2.9375	-3.0812	-3.5312	-2.8458	242.421	263.322	300.942	428.121	408.021	360.149	374.440	449.836	229.453	406.685	114.401	451.139	256.627	211.678	361.950	393.128	0.0011194	0.0052095	0.00037686	871.66	4.2545e-05	2.1588e-05	1318.1	356.34	7.9537e-06	2.3253e-05	556.18	180.28	122.89	53.627	4.4453e-05	84.425	0.022311	0.025923	0.0072638	1283.8	0.00027886	0.00028616	1554.8	453.67	0.00027781	0.00028673	722.24	239.66	183.08	72.787	0.00028381	109.13	247.959	275.264	222.726	115.455	452.109	220.049	115.135	119.506	187.993	274.211	117.689	121.888	122.117	125.971	144.181	124.359	-8191	255	
21620.648	1	1	0	0	0.22186	0.13137	0.20704	0.34391	0.36086	0.1749	0.47878	0.30008	0.040204	0.18265	0.16315	0.15926	0.18333	0.17472	0.12034	0.11671	-2.9979	-3.2854	-2.7708	-3.5854	-3.0312	-3.0854	-3.7167	-2.9062	-3.1937	-3.2917	-2.8354	-3.4646	-3.0312	-2.9354	-3.4583	-2.8417	351.314	374.977	120.535	436.153	363.362	259.671	427.743	411.229	105.184	344.152	369.011	407.945	138.651	116.117	104.769	417.634	0.00056732	0.0012649	0.0012022	883.26	8.4197e-06	5.0331e-05	1323.5	359.94	4.3223e-05	7.2035e-06	557.85	181.7	122.58	53.115	5.1852e-05	85.428	0.022571	0.026086	0.0073258	1292.3	0.00028079	0.00028592	1561.8	454.95	0.00027706	0.00028641	721.38	239.57	181.46	72.158	0.00027835	108.17	214.437	174.297	423.395	115.420	268.326	459.860	114.955	119.339	327.624	368.275	118.171	120.744	121.054	125.786	437.773	123.688	-8191	255	
21620.744	1	1	0	0	0.1599	0.17905	0.074765	0.22574	0.21106	0.20442	0.2577	0.14291	0.15165	0.20668	0.1733	0.051899	0.15557	0.22714	0.17198	0.02576	-2.775	-3.35	-2.9042	-3.4667	-2.9625	-2.7229	-3.8208	-2.9521	-3.1437	-3.4604	-3.0229	-3.5146	-3.2167	-2.8583	-3.4938	-3.0375	135.971	182.033	451.931	382.084	203.623	393.175	365.038	385.098	118.860	418.543	157.961	331.473	444.393	365.243	424.321	259.308	0.00092866	0.0051052	0.00034177	880.54	4.1183e-05	4.2725e-05	1328.2	362.24	1.2633e-05	3.1805e-05	560.17	178.99	123.02	53.187	3.7395e-05	83.787	0.021855	0.025377	0.0070505	1269.2	0.00027019	0.0002756	1547.8	450.52	0.00026835	0.00027611	710.65	235.2	179.74	71.319	0.00027339	107.33	219.606	121.935	173.927	115.539	291.795	188.764	115.069	119.176	240.607	177.683	118.300	121.674	122.048	125.847	136.597	124.068	-8191	255	
21620.840	1	1	0	0	0.14947	0.022351	0.089425	0.18486	0.1583	0.14353	0.28812	0.28503	0.17411	0.12921	0.28849	0.10386	0.3002	0.14709	0.17921	0.21655	-2.65	-3.3875	-2.6	-3.3229	-3.2167	-2.825	-3.7021	-2.9562	-2.9708	-3.5292	-2.8917	-3.4667	-3.35	-2.8229	-3.4562	-3.0938	277.792	220.889	409.313	376.175	104.403	123.777	397.735	398.341	304.506	201.364	374.479	396.468	413.424	143.822	286.579	412.492	0.0013634	0.0049775	0.00099029	883.17	1.6851e-05	4.6006e-05	1327.4	359.19	2.5583e-05	1.3631e-05	557.86	179.8	123.39	53.88	2.0714e-05	85.222	0.021686	0.025296	0.0070513	1273.8	0.00027365	0.00027876	1547.3	451.47	0.0002714	0.00028107	716.36	238.02	181.46	71.917	0.00027852	108.71	217.864	238.888	235.513	115.271	218.981	216.344	114.608	119.868	231.143	180.992	118.819	122.029	122.221	125.694	218.843	123.929	-8191	255	
21620.912	1	1	0	0	0.1675	0.14629	0.22653	0.038854	0.11002	0.26866	0.1983	0.29074	0.1975	0.049242	0.22085	0.1307	0.11285	0.26814	0.097761	0.34633	-2.7021	-3.4396	-2.7583	-3.1979	-3.3125	-2.875	-3.6292	-3.0146	-2.8042	-3.5146	-3.0438	-3.2417	-3.4938	-2.8229	-3.4208	-3.1646	323.254	357.433	300.762	380.362	408.091	407.152	369.415	368.753	444.066	400.351	420.945	310.940	120.178	399.010	301.199	392.744	0.00091884	0.0036799	0.0013276	881.88	5.0569e-05	1.4196e-05	1320.1	355.21	3.2714e-05	2.3479e-06	562.54	178.29	123.46	53.294	5.5378e-06	85.189	0.022249	0.025777	0.0072584	1289.2	0.00028183	0.00028758	1566.2	454.74	0.00028159	0.00029076	726.72	240.88	182.87	72.571	0.00028159	109.38	241.104	133.446	116.963	115.899	281.751	265.464	115.380	119.238	305.821	163.588	118.133	121.532	121.352	125.527	297.738	123.757	-8191	255	
21621.031	1	1	0	0	0.14326	0.10422	0.16527	0.039966	0.15442	0.11901	0.21464	0.10435	0.18513	0.1459	0.17466	0.16015	0.085078	0.21901	0.070203	0.1432	-2.4625	-3.5354	-2.975	-3.1937	-3.3125	-2.8146	-3.5104	-3.3521	-2.7938	-3.5396	-2.9313	-3.2271	-3.6229	-2.8271	-3.4542	-3.2062	437.105	363.415	341.420	244.114	126.430	254.904	408.163	378.337	309.380	381.161	432.366	423.661	384.269	456.674	212.761	135.803	0.00079009	0.0025913	0.00061277	890.29	1.7327e-05	2.0091e-05	1328.3	359.24	1.4558e-05	3.8062e-05	560.43	180.09	125.12	53.613	2.3838e-05	84.588	0.022488	0.025851	0.0072356	1288.3	0.00027934	0.00028552	1561.5	455.95	0.00027661	0.00028515	720.44	240.03	182.84	72.546	0.00028372	109.01	205.894	214.257	192.197	116.356	136.056	239.257	114.947	119.435	206.338	405.661	117.996	121.226	122.301	125.091	187.716	123.825	-8191	255	
21621.129	1	1	0	0	0.07021	0.2934	0.088126	0.087202	0.079669	0.18693	0.20059	0.20243	0.12413	0.094143	0.045893	0.20118	0.18797	0.23293	0.091995	0.043656	-2.3354	-3.5583	-3.1229	-3.1979	-3.625	-2.8396	-3.4375	-3.4521	-2.5812	-3.4188	-3.1125	-2.9854	-3.575	-2.8312	-3.1479	-3.3958	204.333	378.705	185.115	311.095	168.658	361.169	445.348	362.222	380.208	244.656	310.560	434.935	431.230	429.576	157.547	317.898	0.00070679	0.0034763	0.0013167	882.15	3.3171e-05	4.0592e-05	1322.5	359.86	3.5569e-05	1.1982e-05	554.39	180.33	122.8	53.329	5.1124e-06	84.766	0.022284	0.025882	0.007221	1284.8	0.00027874	0.00028293	1557.8	454.94	0.00027369	0.00028357	719.77	239.05	181.63	72.095	0.00027971	108.67	211.757	398.033	285.471	115.791	405.687	124.315	115.704	119.798	291.669	213.419	118.026	121.651	122.257	126.186	246.681	124.043	-8191	255	
21621.225	1	1	0	0	0.024836	0.1118	0.27288	0.16006	0.079405	0.20576	0.094555	0.24953	0.018102	0.093386	0.10067	0.22306	0.11252	0.24802	0.13749	0.2527	-2.3771	-3.3083	-3.1104	-3.0292	-3.425	-2.775	-3.3438	-3.5146	-2.6354	-3.3667	-3.1813	-2.9875	-3.5125	-2.8563	-3.1208	-3.4958	398.496	452.265	423.034	415.148	104.810	108.977	396.088	455.509	187.986	327.322	363.499	123.037	123.454	448.809	187.761	103.187	0.00074686	0.003984	0.00099035	893.94	1.0242e-05	3.6843e-05	1331.3	359.24	3.4272e-05	4.1135e-05	559.91	181.27	124.5	53.222	9.1981e-06	84.741	0.022094	0.025648	0.0071867	1286.1	0.00027801	0.00028297	1563.4	456.12	0.00027599	0.00028644	723.31	240.8	183.24	72.736	0.00028714	109.34	179.920	449.951	167.740	115.629	320.422	133.867	115.684	119.435	277.775	144.195	118.651	121.482	122.106	124.934	312.034	123.922	-8191	255	
21621.320	1	1	0	0	0.20713	0.080694	0.41503	0.144	0.079486	0.059012	0.28564	0.068686	0.12916	0.04445	0.1022	0.13561	0.11657	0.17135	0.22699	0.23474	-2.1688	-3.3438	-3.0625	-2.8937	-3.6083	-2.8167	-3.1208	-3.5583	-2.6646	-3.4208	-3.3833	-2.9854	-3.6604	-3.0083	-3.0979	-3.6083	400.827	178.049	347.393	420.533	164.989	329.550	386.738	381.868	169.625	356.846	429.007	345.754	313.752	419.977	128.645	372.326	0.0010219	0.0043015	0.0012191	881.15	3.8896e-05	6.1339e-05	1325.8	362.1	1.5538e-05	4.5024e-05	560.43	180.03	125.44	53.615	2.3583e-05	85.109	0.022585	0.026253	0.0073861	1292.5	0.00028164	0.00028685	1571.1	458.05	0.00028008	0.00028994	726.91	240.76	184.19	73.095	0.00028795	109.54	251.923	391.484	141.958	115.923	359.859	171.643	115.538	119.418	119.107	433.220	117.765	121.016	122.275	124.781	438.614	123.529	-8191	255	
21621.439	1	1	0	0	0.2668	0.15687	0.13454	0.1944	0.096919	0.19649	0.022441	0.28408	0.28774	0.17839	0.15477	0.16536	0.1646	0.076709	0.074601	0.19051	-2.4854	-3.5354	-3.2208	-2.9562	-3.4354	-3.0542	-3.225	-3.4833	-2.7396	-3.0521	-3.6958	-2.8083	-3.4396	-3.1021	-3.0208	-3.6063	436.224	188.727	417.578	447.631	270.476	314.575	356.748	408.818	441.864	140.936	387.459	452.341	336.962	114.729	311.545	453.782	0.00091847	0.003809	0.00070143	885.59	2.8111e-05	3.3532e-05	1324.9	358.94	1.5263e-05	2.7044e-06	558.47	178.3	123.5	53.235	3.1959e-05	84.164	0.02256	0.026258	0.007362	1296.4	0.0002837	0.00028991	1575.3	460.35	0.00028174	0.00029169	726.57	241.63	184.9	73.034	0.00029086	109.36	250.946	124.592	196.221	115.077	245.747	255.070	115.006	119.144	391.693	398.510	118.265	121.488	122.222	125.542	142.903	123.797	-8191	255	
21621.514	1	1	0	0	0.24084	0.18171	0.15752	0.22713	0.16843	0.13541	0.57027	0.049926	0.28844	0.36448	0.094521	0.19847	0.16109	0.20559	0.16304	0.26695	-2.3063	-3.1437	-3.3646	-2.7917	-3.5542	-3.2333	-3.2042	-3.6292	-3.0375	-3.1937	-3.6021	-2.7375	-3.5458	-3.2229	-2.9125	-3.4646	211.615	306.142	159.034	378.425	215.959	155.124	420.580	378.216	345.443	386.353	279.221	379.553	455.921	404.035	356.711	385.790	0.00075223	0.0026238	0.00079942	888.06	1.9903e-05	1.8656e-05	1316.4	361.65	5.474e-05	2.6442e-05	558.02	179.14	124.39	53.006	2.6225e-05	84.397	0.022954	0.0266	0.0074414	1301.3	0.00028687	0.00029314	1567.3	458.13	0.00028207	0.00029461	725.42	240.16	183.82	72.867	0.00028463	109.11	226.294	106.019	434.674	115.455	325.737	435.352	115.618	120.070	261.368	198.470	118.424	120.624	122.470	125.420	137.973	123.671	-8191	255	
21621.609	1	1	0	0	0.15001	0.15943	0.072696	0.27785	0.024717	0.31135	0.30128	0.35976	0.16978	0.013681	0.14565	0.3328	0.16561	0.24665	0.079327	0.34069	-2.5979	-3.0792	-3.3667	-2.7083	-3.2833	-3.1896	-2.7417	-3.5521	-2.9	-2.8958	-3.7458	-2.8271	-3.3667	-3.3521	-2.5938	-3.6021	397.530	444.471	131.403	117.558	432.042	459.392	395.347	381.809	283.229	410.663	368.374	392.296	382.949	418.171	109.910	410.412	0.0010413	0.0052155	0.00063176	894.42	2.1839e-05	1.8086e-05	1323.2	359.72	1.5923e-05	4.9846e-05	557.58	177.75	124.16	53.264	3.7181e-05	84.276	0.022505	0.026237	0.0073519	1293.8	0.00028296	0.0002891	1564.1	456.17	0.00027989	0.00029046	726.19	239.51	184.39	72.964	0.00028718	109.11	240.769	321.939	416.306	115.533	276.388	375.160	115.241	119.006	252.891	118.896	118.188	120.913	122.609	125.367	249.368	123.835	-8191	255	
21621.729	1	1	0	0	0.073632	0.18254	0.24569	0.21288	0.064678	0.15162	0.25539	0.21475	0.19854	0.29662	0.041893	0.27273	0.11275	0.19102	0.11819	0.10911	-2.4604	-2.9396	-3.4542	-2.8833	-3.1333	-3.2125	-3.0021	-3.4042	-3.0979	-3.0479	-3.6292	-2.9958	-3.0896	-3.3375	-2.7292	-3.425	300.940	158.978	352.005	410.731	109.636	376.487	414.016	256.651	110.778	197.793	122.873	377.783	444.784	356.663	129.131	291.343	0.0008618	0.0028033	0.0013114	881.01	3.9244e-05	4.1978e-05	1326.6	360.59	5.2064e-05	3.4026e-05	556.47	178.77	124.38	53.414	4.489e-05	84.181	0.022707	0.026465	0.0074106	1300.7	0.0002874	0.00029331	1576.4	462.55	0.00028779	0.00029711	729.22	241.25	186.5	73.553	0.00029252	109.96	238.220	402.280	213.959	115.685	180.122	379.623	114.710	119.747	371.532	318.989	118.328	121.548	122.114	125.970	316.574	123.875	-8191	255	
21621.824	1	1	0	0	0.17379	0.16807	0.24329	0.041933	0.1483	0.16336	0.041636	0.081848	0.067784	0.044774	0.24011	0.10611	0.0071341	0.18869	0.15779	0.12975	-2.6083	-2.6979	-3.5271	-2.8604	-3.1521	-3.525	-3.0458	-3.5646	-3.1625	-2.8604	-3.5479	-2.9708	-3.1271	-3.525	-2.7833	-3.3854	362.174	142.596	340.996	250.202	165.165	255.920	417.052	346.418	270.697	403.199	420.055	364.809	305.674	398.886	179.080	433.435	0.00097045	0.0039299	0.0013166	887.32	4.5674e-05	1.7471e-05	1321.2	357.67	3.7347e-05	6.1458e-05	552.68	178.19	124.13	53.48	2.9988e-05	83.288	0.023248	0.026809	0.0075175	1305.8	0.00028836	0.00029329	1568.1	458.38	0.00028369	0.00029141	723.18	239.92	184.19	72.822	0.0002871	108.73	224.789	452.778	447.564	115.574	300.447	157.207	115.437	118.981	435.521	135.785	117.941	121.584	122.255	125.925	331.912	124.039	-8191	255	
21621.920	1	1	0	0	0.38624	0.16476	0.15764	0.1973	0.22046	0.21027	0.23201	0.051805	0.17057	0.11557	0.35135	0.16611	0.12234	0.1725	0.19967	0.3041	-2.9542	-2.8167	-3.4021	-3.0625	-2.9125	-3.5042	-3.1312	-3.2687	-3.2354	-2.7917	-3.5229	-3.1333	-2.8583	-3.5333	-2.7625	-3.2292	438.110	139.891	431.753	420.333	231.172	431.949	424.233	404.375	404.105	251.513	129.239	447.319	224.298	419.569	214.164	376.603	0.00045142	0.0026175	0.0021681	864.53	1.7646e-05	3.9634e-05	1313.7	357.71	1.2219e-05	4.6767e-05	551.4	178.99	124.1	53.183	5.6495e-05	82.868	0.022828	0.026555	0.0074132	1290	0.00028655	0.00029035	1558.7	457.81	0.00028019	0.00029184	724.22	239.3	184.41	72.637	0.00028743	108.43	250.455	368.822	154.848	115.439	150.907	278.809	115.414	119.344	219.779	208.643	118.131	120.896	122.013	125.459	364.048	123.492	-8191	255	
21622.018	1	1	0	0	0.059427	0.093814	0.039236	0.1913	0.10803	0.16594	0.14061	0.065725	0.10684	0.042184	0.12488	0.2193	0.26952	0.21124	0.10225	0.14806	-2.7875	-2.6354	-3.3375	-3.1354	-2.7271	-3.3937	-2.9583	-3.3271	-3.2521	-2.6875	-3.4333	-3.3083	-2.8167	-3.4833	-2.8271	-3.1188	429.390	343.941	262.338	421.003	420.210	274.522	410.940	230.929	437.839	178.148	134.634	101.455	458.918	403.456	137.395	429.857	0.00088732	0.0043854	0.0011169	878.71	3.8368e-05	2.1186e-05	1310.1	360.01	2.6115e-05	3.6839e-05	557.49	177.92	123.24	53.712	2.8808e-05	84.171	0.022754	0.026277	0.0073679	1292.6	0.0002823	0.00028736	1555.5	456.61	0.00027877	0.00028631	721.15	238.27	183.16	72.493	0.00028438	108.75	181.204	457.309	362.699	114.671	312.225	268.641	114.872	119.374	254.321	268.912	117.955	121.093	122.796	125.520	350.127	123.638	-8191	255	
21622.113	1	1	0	0	0.24982	0.10211	0.2175	0.3792	0.2675	0.020445	0.2799	0.2561	0.13248	0.074131	0.091241	0.048235	0.16434	0.19371	0.08647	0.3092	-3.1188	-2.575	-3.3771	-3.1417	-2.8063	-3.5375	-2.875	-2.9979	-3.3917	-2.7667	-3.4313	-3.3625	-2.8312	-3.6896	-2.9354	-3.2	322.977	416.439	336.030	428.283	422.451	253.876	384.944	395.089	138.075	225.925	364.386	426.320	455.537	157.058	134.013	416.145	0.0010517	0.0042817	0.00061021	885.9	4.5401e-05	4.6211e-05	1316.9	361.83	2.77e-05	2.4612e-05	553.16	178.1	123.71	53.293	1.2072e-05	83.869	0.022454	0.026267	0.007334	1292.2	0.00028269	0.0002885	1561.4	458.08	0.00028062	0.00029266	725.52	239.82	184.22	72.895	0.00028847	108.79	187.103	211.314	281.729	115.444	314.322	259.454	114.554	119.779	166.144	361.294	118.162	121.512	122.022	125.677	210.507	124.090	-8191	255	
21622.209	1	1	0	0	0.067573	0.061251	0.09978	0.15955	0.11857	0.11523	0.22206	0.48768	0.11675	0.1101	0.17687	0.34939	0.077642	0.059053	0.12218	0.3497	-3.0354	-2.7167	-3.2604	-3.4562	-2.7771	-3.4437	-3.2667	-2.8958	-3.3937	-3.0333	-3.3292	-3.5104	-2.9688	-3.5917	-3.0687	-2.9625	403.527	340.310	199.865	102.998	193.166	252.367	388.282	406.903	361.773	154.081	408.784	356.712	238.963	348.287	325.476	386.056	0.00081157	0.0011567	0.0011039	869.41	6.0693e-06	4.6111e-05	1303.3	358.37	3.0444e-05	2.0754e-05	552.47	178	122.7	53.38	4.3992e-05	83.837	0.022849	0.026466	0.0073975	1291.5	0.0002846	0.00029146	1552.4	455.44	0.00027806	0.00028521	717.08	238.4	181.34	72.258	0.00027971	107.6	208.809	113.381	253.470	115.121	199.943	232.745	114.732	118.930	305.578	255.812	118.094	121.032	122.715	125.679	166.726	124.011	-8191	255	
21622.328	1	1	0	0	0.23103	0.16424	0.15621	0.1804	0.16787	0.17565	0.45236	0.22792	0.15977	0.10197	0.19055	0.2148	0.23884	0.26827	0.085379	0.34873	-3.0375	-2.8438	-3.1292	-3.3542	-2.5771	-3.4167	-3.4292	-2.9333	-3.5312	-2.8479	-3.1625	-3.6146	-2.9167	-3.2208	-3.1542	-2.6542	445.788	307.036	342.033	270.824	301.420	243.084	385.851	413.694	440.851	354.832	411.465	159.395	365.424	412.211	193.247	379.701	0.0010968	0.001282	0.0016184	872.59	2.4787e-05	1.6168e-05	1320.9	357.02	2.9844e-05	1.8602e-05	559.8	178.47	124.39	53.403	3.3727e-05	84.153	0.022076	0.025563	0.0071668	1273.1	0.00027356	0.00028215	1545.6	450.8	0.00027275	0.00027958	715.76	235.89	181.49	71.848	0.00027692	107.78	271.052	202.757	451.582	115.525	439.365	208.566	114.657	119.444	452.939	404.022	117.763	121.108	121.258	125.434	337.195	124.251	-8191	255	
21622.426	1	1	0	0	0.30486	0.10615	0.16308	0.16221	0.20322	0.043407	0.18047	0.090563	0.2616	0.070344	0.22222	0.33711	0.20103	0.28915	0.056648	0.31924	-3.0333	-2.8646	-2.9104	-3.625	-2.7958	-3.1958	-3.5146	-2.8063	-3.4375	-2.8729	-3.0229	-3.6458	-2.7313	-3.1958	-3.3521	-2.6479	331.797	237.620	212.382	106.977	154.832	314.695	451.828	415.055	323.458	208.292	456.071	416.077	144.388	461.942	225.242	369.781	0.0010718	0.0039025	0.0022391	881.81	2.6023e-05	2.645e-05	1323.8	360.59	2.4447e-05	3.9018e-05	562.06	180.25	123.88	53.928	3.8714e-05	84.607	0.02192	0.025491	0.0071404	1276.6	0.00027348	0.00028048	1551.5	451.61	0.00026962	0.00027944	718.03	237.03	181.48	72.283	0.0002769	108.38	215.719	309.667	390.436	115.323	430.556	386.823	115.276	119.968	310.740	451.295	118.411	121.077	121.993	125.490	181.971	123.712	-8191	255	
21622.520	1	1	0	0	0.16799	0.17704	0.04105	0.27615	0.16404	0.084739	0.23198	0.31915	0.15263	0.22844	0.29005	0.17666	0.36161	0.26113	0.24495	0.2736	-3.2104	-3.1521	-2.8146	-3.4604	-2.6937	-3.3396	-3.4437	-2.8854	-3.3438	-3.0104	-2.8396	-3.5062	-2.9854	-3.1583	-3.2958	-3.0021	232.525	331.247	292.493	339.256	337.723	437.498	167.390	411.181	409.949	345.478	418.759	146.121	434.290	423.362	254.906	382.612	0.00070983	0.0035929	0.0012433	885.01	1.0863e-05	6.4974e-05	1313	360.59	3.0562e-05	1.185e-05	564.82	179.36	123.68	53.64	1.6312e-05	83.859	0.022018	0.025473	0.0071219	1277.7	0.00027409	0.00027969	1551.5	452.57	0.00027166	0.00027888	716.27	236.45	180.57	72.056	0.00027626	107.73	249.229	233.396	170.997	115.210	126.887	411.272	115.117	119.975	126.181	403.445	118.573	121.090	122.221	125.743	361.648	123.877	-8191	255	
21622.615	1	1	0	0	0.25216	0.063213	0.20878	0.11095	0.21153	0.16125	0.27793	0.38509	0.044794	0.041395	0.089414	0.20272	0.15254	0.11599	0.058654	0.083529	-3.0271	-3.0542	-2.7729	-3.5292	-2.9854	-2.9729	-3.5958	-2.7833	-3.3104	-3.1562	-2.7333	-3.5875	-2.975	-2.9813	-3.5417	-2.7375	394.760	198.792	299.817	165.665	356.103	245.390	344.749	434.286	213.010	357.448	105.550	112.785	410.119	166.089	396.488	417.696	0.0014194	0.0030073	0.0014721	882	3.2351e-05	3.8761e-05	1316.7	359.1	3.2347e-05	2.8447e-05	556.66	178.35	123.85	53.935	2.4582e-05	85.067	0.021958	0.025407	0.0071007	1272.4	0.00027284	0.00027876	1547.8	451.97	0.00027034	0.00027965	715.17	236.99	180.48	72.136	0.00027688	107.95	223.258	148.082	280.807	115.146	236.433	389.684	115.110	119.871	277.104	302.643	117.923	121.147	122.366	125.160	324.722	123.692	-8191	255	
21622.736	1	1	0	0	0.20018	0.13295	0.051927	0.062082	0.038143	0.21535	0.2938	0.068031	0.30146	0.053159	0.23725	0.2727	0.10253	0.087425	0.16434	0.20211	-2.7083	-3.2146	-2.8563	-3.4521	-2.8042	-2.8937	-3.7062	-2.8604	-3.0979	-3.3375	-2.875	-3.3583	-3.0687	-2.9062	-3.3812	-2.9604	402.471	343.572	139.835	355.452	456.961	246.505	110.777	362.051	334.279	452.544	357.175	385.440	435.956	413.476	443.354	115.530	0.00079356	0.003723	0.00080436	878.53	1.5082e-05	1.9668e-05	1323	360.23	2.3898e-05	4.5442e-05	558.58	182.82	123.51	54.091	1.4236e-05	85.774	0.021875	0.025283	0.0070899	1268.3	0.000272	0.00027719	1545.3	451.02	0.00026747	0.0002748	715.7	236.98	179.99	71.989	0.00027029	108.09	206.610	343.773	383.257	115.420	393.829	456.189	115.075	119.341	451.337	291.962	118.432	121.174	121.890	125.222	383.915	123.577	-8191	255	
21622.809	1	1	0	0	0.12747	0.24784	0.15351	0.060587	0.095574	0.10351	0.30016	0.23292	0.11416	0.11228	0.053293	0.21251	0.23937	0.12862	0.29239	0.45605	-2.7208	-3.2833	-2.5083	-3.4625	-3.1896	-2.8292	-3.5229	-2.8979	-3.1479	-3.3333	-2.9021	-3.4479	-3.3708	-2.9479	-3.4437	-3.0438	122.427	267.340	297.650	326.392	240.258	275.921	421.778	439.818	199.621	223.155	233.041	438.959	426.800	120.930	131.797	429.945	0.00079482	0.0016536	0.00037106	888	7.2748e-05	1.3784e-05	1315.2	361.16	1.8382e-05	2.0973e-05	568.17	181.51	124.99	54.507	2.0108e-05	85.973	0.021402	0.024795	0.0069037	1263.9	0.0002656	0.00027265	1536.4	448.44	0.0002624	0.00027096	713.14	236.1	179	71.91	0.00026818	108.1	191.267	352.919	247.564	115.458	195.367	291.242	115.364	119.280	320.295	320.244	118.041	121.234	121.781	126.069	116.741	123.928	-8191	255	
21622.904	1	1	0	0	0.10256	0.18571	0.01665	0.091504	0.2342	0.18178	0.13297	0.32156	0.081033	0.020635	0.33364	0.31428	0.22727	0.21339	0.066876	0.35174	-2.7208	-3.3333	-2.6063	-3.2812	-3.2687	-2.8542	-3.7646	-3.0979	-2.9896	-3.4667	-3.0625	-3.3229	-3.425	-2.8312	-3.5875	-3.1146	204.337	343.485	252.170	277.129	181.431	338.019	329.070	373.820	252.056	376.794	393.235	375.494	411.020	422.897	266.612	381.363	0.00066014	0.0030569	0.00087688	878.51	2.749e-05	2.8451e-05	1323.4	360.51	3.5585e-05	3.3679e-05	555.09	182.98	124.87	53.821	4.3807e-05	85.156	0.021323	0.024736	0.0069398	1267.2	0.00026559	0.00027336	1538.8	450.8	0.00026443	0.00027344	712.07	237.37	179.8	71.728	0.00026999	107.86	242.757	119.105	245.672	115.251	275.661	170.213	115.255	119.428	257.347	215.099	118.258	121.691	122.514	125.632	103.534	124.088	-8191	255	
21623.002	1	1	0	0	0.030349	0.077196	0.18508	0.15635	0.19685	0.20472	0.074332	0.38457	0.083533	0.18269	0.22172	0.2176	0.14784	0.18554	0.1955	0.40681	-2.5771	-3.375	-2.7188	-3.2542	-3.3896	-2.7188	-3.6271	-3.1979	-2.8625	-3.4583	-3.0375	-3.2333	-3.65	-3.0062	-3.5104	-3.3333	288.115	160.036	352.884	144.525	142.814	223.899	399.392	448.829	147.975	393.911	320.410	196.687	193.822	160.479	363.245	420.879	0.00082114	0.0035419	0.00084987	874.01	2.4487e-05	1.6889e-05	1325.5	357.76	3.3368e-05	1.5076e-05	558.35	183.2	124.83	54.136	3.9783e-05	86.086	0.02132	0.024595	0.0069068	1257.7	0.00026816	0.00027381	1546.9	449.97	0.00026636	0.00027547	715	237.75	180.42	72.2	0.00027344	108.53	235.255	181.281	144.588	115.171	285.684	377.367	115.115	119.422	254.473	203.107	118.249	121.221	122.456	125.645	117.378	123.710	-8191	255	
21623.098	1	1	0	0	0.19248	0.12051	0.11459	0.090657	0.1678	0.26772	0.31948	0.16577	0.066629	0.14625	0.26895	0.27717	0.20387	0.14749	0.1544	0.21391	-2.3479	-3.3917	-2.6688	-3.1063	-3.3292	-2.8125	-3.6271	-2.9292	-2.7604	-3.6312	-3.1771	-3.2625	-3.5646	-2.8396	-3.4292	-3.4729	185.558	454.751	369.354	331.295	413.014	156.261	113.976	447.847	456.105	345.364	314.514	458.549	413.087	107.513	292.749	397.346	0.00033067	0.0025925	0.0013051	887.87	2.295e-05	3.6144e-05	1323.8	360.03	2.1167e-05	9.4792e-06	559.99	181.2	124.38	54.79	2.1431e-05	86.251	0.021834	0.025288	0.0070831	1279.1	0.00027558	0.00028202	1559.5	455.16	0.00027776	0.00028629	721.44	240.35	183.59	73.074	0.00028079	109.66	253.390	135.366	139.717	116.033	191.086	180.015	115.336	119.449	105.438	406.116	118.069	121.329	122.151	124.967	294.075	124.304	-8191	255	
21623.219	1	1	0	0	0.13774	0.27622	0.16405	0.50422	0.17636	0.30439	0.039814	0.20028	0.085893	0.083075	0.23305	0.22941	0.23906	0.20293	0.18496	0.16806	-2.3125	-3.5604	-2.8146	-3.0187	-3.5146	-2.6583	-3.5187	-3.5187	-2.7583	-3.4729	-3.0438	-3.075	-3.5333	-2.8146	-3.2625	-3.4396	305.548	179.163	407.718	440.761	270.096	447.557	128.942	454.611	238.982	280.049	392.711	410.202	421.017	454.459	283.009	424.921	0.00090296	0.0049566	0.0010104	879.95	1.7946e-05	1.1795e-05	1328.4	359.05	2.4647e-05	2.6797e-05	557.77	181.85	124.87	54.337	3.3981e-05	85.771	0.022181	0.025836	0.0072161	1283.9	0.00027772	0.0002849	1563.9	456.04	0.00027659	0.00028756	723.5	241.41	183.62	73.152	0.00028609	109.96	239.630	202.054	123.638	115.654	202.027	114.031	115.241	119.253	267.503	454.760	118.406	121.262	122.108	125.413	250.245	124.494	-8191	255	
21623.314	1	1	0	0	0.088174	0.10143	0.1974	0.16043	0.075326	0.10472	0.23413	0.1718	0.12632	0.17238	0.248	0.2819	0.15363	0.043497	0.057986	0.24078	-2.2938	-3.3792	-3.0729	-3.0521	-3.5042	-2.975	-3.4104	-3.3667	-2.9104	-3.2604	-3.225	-2.8479	-3.5542	-3.0208	-3.0354	-3.6146	313.950	436.237	350.309	150.314	188.551	109.401	392.697	349.586	183.274	320.011	454.734	399.209	156.214	241.005	293.019	367.638	0.00079458	0.0007573	0.00077965	883.31	1.9313e-05	3.1926e-05	1322.4	361.05	1.3825e-05	2.8246e-05	558.13	181.88	124.26	53.894	9.6612e-06	85.548	0.022538	0.026299	0.0073166	1290.2	0.00028279	0.00028907	1567.2	457.22	0.00028114	0.00029171	726.85	242.28	184.23	73.555	0.00028737	110.2	248.059	406.261	168.185	115.415	413.085	144.791	115.120	119.485	368.214	237.255	118.146	121.639	122.046	125.516	227.697	123.735	-8191	255	
21623.410	1	1	0	0	0.085802	0.070664	0.25328	0.35594	0.19211	0.1029	0.32981	0.14921	0.11652	0.08194	0.082146	0.21208	0.28181	0.10999	0.20796	0.23823	-2.5042	-3.4479	-3.1958	-2.7375	-3.5146	-2.9313	-3.0667	-3.6	-2.6833	-3.4062	-3.3708	-2.7521	-3.55	-3.0167	-2.8396	-3.4708	218.989	321.854	203.869	453.061	430.816	296.746	332.404	442.687	225.812	150.529	449.055	403.563	413.381	358.745	159.989	429.785	0.0008548	0.0039485	0.00084661	875.26	7.8419e-06	3.3636e-05	1324.7	363.92	1.4959e-05	7.1122e-05	562.86	180.36	125	54.23	2.3812e-05	85.896	0.022396	0.026105	0.0072818	1286.3	0.00028005	0.00028438	1562.4	455.61	0.00027527	0.00028322	719.86	239.32	182.97	72.715	0.00028026	109.53	276.257	119.776	416.811	115.585	294.345	119.797	114.856	119.423	325.224	197.694	118.329	121.400	121.592	125.143	391.583	124.101	-8191	255	
21623.506	1	1	0	0	0.1646	0.20686	0.25651	0.11992	0.17632	0.2055	0.22685	0.23293	0.19312	0.14494	0.11104	0.18865	0.031115	0.22724	0.086409	0.25364	-2.3583	-3.1188	-3.2375	-2.825	-3.3708	-2.9208	-3.0625	-3.6979	-2.8625	-3.1854	-3.5208	-2.9188	-3.5125	-3.025	-2.9229	-3.6667	275.744	273.645	206.769	363.690	439.573	130.814	331.805	437.563	243.795	122.073	180.951	417.964	115.315	407.564	281.851	421.679	0.00077614	0.0027684	0.00067113	879.73	2.894e-05	3.7455e-05	1325.4	360.13	4.4328e-05	1.6925e-05	557.5	182.92	124.05	54.665	1.6127e-05	87.363	0.022281	0.025919	0.0072377	1284.1	0.00027766	0.00028186	1560.1	455.26	0.00027348	0.00028092	719.8	240.02	182.32	73.009	0.00027908	110.25	188.052	446.650	181.903	114.940	278.605	360.308	115.230	119.146	212.424	454.566	118.206	120.956	121.262	125.427	169.040	123.565	-8191	255	
21623.600	1	1	0	0	0.29248	0.24971	0.20751	0.14947	0.26145	0.10197	0.2584	0.25797	0.31215	0.20663	0.22581	0.16869	0.030161	0.070948	0.22595	0.07007	-2.3937	-3.1479	-3.2708	-3.0062	-3.5229	-3.3417	-3.0625	-3.6063	-2.8479	-3.0542	-3.7208	-2.8458	-3.2375	-3.3563	-2.9083	-3.7771	152.326	172.581	332.549	396.051	357.096	408.075	371.916	422.313	424.961	117.349	452.931	370.527	375.454	164.270	271.212	356.374	0.00064729	0.0029316	0.0012087	879.27	5.0444e-05	1.6071e-05	1331.9	361.99	4.057e-05	2.4643e-05	555.94	181.24	124.68	54.857	3.9087e-05	86.963	0.021974	0.02575	0.0072025	1283.7	0.00027589	0.00028312	1564.8	456.27	0.0002745	0.00028393	723.17	239.96	182.9	73.332	0.00028137	110.27	247.255	299.167	420.498	115.009	206.472	431.194	114.785	119.546	369.296	192.674	118.468	121.586	122.228	125.321	206.117	123.795	-8191	255	
21623.697	1	1	0	0	0.083367	0.12302	0.034558	0.082532	0.21422	0.075953	0.1311	0.052873	0.10642	0.13141	0.27532	0.28443	0.11777	0.31054	0.1441	0.094804	-2.6375	-2.8896	-3.3458	-2.9437	-3.2521	-3.2417	-2.8604	-3.4646	-3.0458	-3.0917	-3.5479	-2.7646	-3.2667	-3.4875	-2.575	-3.6063	306.692	250.767	403.893	380.444	438.334	377.299	251.867	452.845	211.370	225.851	119.633	324.200	433.150	460.096	298.953	407.088	0.00071798	0.001453	0.0011372	887.98	2.7917e-05	7.2808e-06	1321.6	362.67	1.4747e-05	2.089e-05	558.47	181.05	124.14	54.289	1.3367e-05	86.16	0.022184	0.025846	0.0072144	1287	0.00027987	0.0002854	1563.5	458.07	0.00027749	0.00028753	722.91	240.46	183.97	73.556	0.0002851	110.7	232.764	271.778	165.075	115.529	144.181	367.865	115.110	119.071	251.785	228.630	117.936	120.763	122.123	125.961	268.018	123.799	-8191	255	
21623.816	1	1	0	0	0.31126	0.16305	0.18622	0.28064	0.034898	0.19408	0.39967	0.11176	0.18086	0.1235	0.054538	0.113	0.28263	0.092514	0.072106	0.23381	-2.525	-2.9542	-3.5083	-2.9583	-3.0875	-3.375	-2.9271	-3.4938	-3.1813	-2.9437	-3.5021	-2.9708	-3.1813	-3.3667	-2.5896	-3.3646	425.590	403.587	257.570	405.782	383.308	201.048	440.021	192.118	270.737	211.508	328.026	353.167	430.822	132.761	395.463	419.589	0.00082309	0.0018149	0.0012291	872.1	2.3931e-05	7.0653e-05	1314.7	362.09	3.2476e-05	2.5523e-05	561.37	180.47	124.49	54.884	2.0118e-05	86.664	0.022562	0.025965	0.0072862	1288	0.00027946	0.00028801	1561.3	456.77	0.00027787	0.00028916	724.54	241.45	184.55	73.762	0.00028561	110.95	233.479	401.737	263.943	115.381	203.348	204.045	115.394	119.401	306.231	438.656	118.750	121.121	121.887	125.320	131.323	123.751	-8191	255	
21623.912	1	1	0	0	0.039472	0.20074	0.0862	0.27216	0.30733	0.02166	0.19725	0.12173	0.19098	0.22314	0.36554	0.36446	0.18766	0.13607	0.093316	0.10752	-2.8063	-2.8479	-3.3979	-2.9604	-3.0687	-3.5583	-2.7896	-3.3625	-3.2833	-2.775	-3.7208	-2.9146	-3.0125	-3.5104	-2.7354	-3.45	310.479	292.070	119.078	397.022	432.620	314.441	166.537	182.167	302.207	418.125	409.657	423.912	404.981	121.973	299.998	269.854	0.00094492	0.0024644	0.00095395	882.94	2.9387e-05	5.5935e-05	1322.1	361.02	6.5217e-06	2.3701e-05	561.4	180.07	124.32	54.45	2.9389e-05	87.277	0.022577	0.026287	0.0073375	1293.8	0.00028289	0.00028857	1567.5	458.61	0.00027968	0.00029049	730.16	241.93	185.24	74.376	0.00028946	111.72	213.281	423.241	392.187	114.607	144.754	358.414	114.954	119.162	239.212	300.140	117.998	120.945	121.656	125.357	108.117	123.787	-8191	255	
21624.010	1	1	0	0	0.42896	0.20364	0.11995	0.22835	0.15963	0.074795	0.22115	0.26486	0.091162	0.17204	0.30451	0.21159	0.061034	0.28923	0.10314	0.31686	-3.0083	-2.8063	-3.4167	-2.9729	-2.8354	-3.2979	-2.8937	-3.5438	-3.2771	-2.6646	-3.4479	-3.1229	-3.0479	-3.5438	-3.0021	-3.3104	380.178	323.796	317.970	421.264	162.165	168.562	385.605	408.043	349.247	372.735	416.341	127.114	215.442	103.403	152.796	386.818	0.00086595	0.0038309	0.00096246	886.27	5.322e-05	1.4551e-05	1330	362.32	1.0523e-05	2.9185e-05	560.05	181.93	123.44	54.198	1.5899e-05	86.656	0.02291	0.026679	0.0074439	1301.2	0.00028427	0.0002906	1572.9	460.71	0.00028243	0.00029298	727.94	241.83	185	73.825	0.0002888	111.36	189.291	418.425	261.704	114.881	244.271	432.353	114.765	119.652	179.619	305.500	118.417	121.429	122.281	125.015	459.661	123.564	-8191	255	
21624.105	1	1	0	0	0.14946	0.16929	0.23552	0.23331	0.16049	0.16588	0.090867	0.11893	0.1015	0.29071	0.38062	0.060921	0.22136	0.023349	0.36838	0.13256	-3.0812	-2.8438	-3.4813	-3.0438	-2.6188	-3.5187	-2.9792	-3.2583	-3.5	-2.7583	-3.5938	-3.3187	-2.8729	-3.4688	-2.8396	-3.0458	111.655	241.048	374.758	459.150	238.625	337.055	421.627	351.725	151.251	433.328	398.457	456.269	122.659	248.085	329.806	332.351	0.00059256	0.0014619	0.00068106	875.94	3.5702e-05	1.3503e-05	1320.1	359.08	3.0403e-05	2.9285e-05	556.15	178.87	123.77	54.599	1.0633e-05	86.43	0.022744	0.026569	0.0074289	1291.3	0.00028473	0.00029109	1566.4	458.93	0.00028443	0.00029579	729.56	241.61	185.49	74.241	0.00029066	111.37	250.574	249.526	149.756	115.384	262.057	441.139	115.283	119.675	365.641	190.071	118.358	120.699	122.310	125.305	373.773	124.007	-8191	255	
21624.201	1	1	0	0	0.073002	0.33221	0.070032	0.099706	0.16699	0.11918	0.27936	0.28831	0.28655	0.11454	0.17136	0.3846	0.14474	0.13737	0.0085157	0.28564	-3.0271	-2.7	-3.3021	-3.2479	-2.8521	-3.4333	-3.0271	-3.2812	-3.55	-2.7979	-3.4062	-3.4792	-2.8792	-3.4313	-2.9042	-2.9792	400.740	437.219	193.613	425.486	440.691	373.532	450.042	430.012	115.779	406.509	121.826	429.710	122.449	277.681	197.368	365.810	0.00055732	0.0035897	0.0006639	886.93	8.7418e-06	9.3762e-06	1332	362.13	1.4345e-05	1.5286e-05	562.63	181.73	124.61	55.045	1.5373e-05	86.385	0.023088	0.026712	0.0074807	1301.7	0.00028789	0.00029317	1577.9	462.08	0.00028616	0.00029673	735.01	243.39	186.53	74.603	0.00029438	112.12	255.655	248.713	327.662	114.925	348.798	156.809	114.574	119.424	234.981	453.123	118.189	121.508	121.990	125.571	393.048	123.465	-8191	255	
21624.299	1	1	0	0	0.049441	0.13898	0.18663	0.194	0.13417	0.097062	0.31168	0.15799	0.23822	0.15797	0.066997	0.31898	0.16253	0.19758	0.028445	0.28964	-3.1771	-2.8458	-3.3521	-3.3812	-2.7917	-3.4479	-3.0833	-2.9396	-3.5812	-2.875	-3.4083	-3.6104	-2.6583	-3.6021	-3.2167	-2.9938	312.121	222.867	368.901	109.486	448.834	456.437	394.815	159.298	428.433	349.719	323.817	411.750	318.606	450.599	222.518	402.062	0.00081402	0.0028875	0.00149	890.01	3.4348e-05	1.4611e-05	1339.7	364.63	2.7064e-05	5.158e-05	557.66	181.1	126.02	55.176	1.8299e-05	86.8	0.023385	0.027188	0.0075445	1313.3	0.00029341	0.00029923	1590.1	466.03	0.00029101	0.00029989	737.91	245.65	188.1	75.505	0.00029962	113.2	173.934	344.857	452.983	115.064	258.455	336.239	114.946	119.544	281.988	134.485	118.288	120.660	121.823	125.711	342.706	123.864	-8191	255	
21624.395	1	1	0	0	0.34368	0.21942	0.19256	0.034759	0.16219	0.2892	0.20928	0.08804	0.09692	0.27466	0.22347	0.099152	0.051962	0.44103	0.037184	0.11382	-3.1479	-2.8708	-3.0438	-3.4979	-2.8167	-3.5271	-3.4479	-3.0104	-3.575	-2.9167	-3.2083	-3.6063	-2.8375	-3.5771	-3.2125	-2.9771	336.094	417.062	338.069	423.467	169.065	417.765	372.808	130.593	410.338	448.889	335.015	434.008	177.332	396.252	272.760	380.808	0.00078355	0.0071797	0.0014479	879.27	1.0524e-05	4.8215e-05	1321.4	360.56	5.9793e-05	3.5679e-05	556.3	181.42	124.84	54.896	2.3781e-05	86.272	0.023821	0.027711	0.0077616	1325.4	0.00030159	0.00030455	1594.8	468.88	0.00029716	0.00030751	742.26	246.37	190.09	75.69	0.00030403	113.26	239.412	120.092	432.319	115.426	218.774	207.033	114.946	119.698	280.698	274.712	118.584	120.998	122.055	125.476	164.644	124.076	-8191	255	
21624.514	1	1	0	0	0.12035	0.02638	0.1012	0.38416	0.11299	0.14951	0.14086	0.060826	0.15589	0.30186	0.27844	0.27463	0.093705	0.07222	0.13914	0.29638	-3.2333	-2.8604	-3.0083	-3.5229	-2.6437	-3.2917	-3.4396	-2.7042	-3.55	-3.0479	-3.0792	-3.5812	-2.6917	-3.4521	-3.2021	-2.8604	277.497	144.334	346.726	441.023	404.793	390.628	327.252	417.110	164.590	139.355	374.512	436.512	406.312	449.803	123.037	448.714	0.0008945	0.0050103	0.00099525	883.83	3.183e-05	5.8206e-05	1332.9	361.43	3.8284e-05	3.1328e-05	562.75	180.53	124.97	54.896	5.4148e-05	84.796	0.024032	0.027956	0.007868	1331.6	0.00030267	0.00030762	1595.2	467.87	0.00029553	0.00030624	741.13	246.22	188.65	75.468	0.00030172	112.56	241.172	149.633	121.820	115.732	382.435	283.529	114.886	119.774	248.283	213.994	118.192	121.014	121.573	125.581	246.060	123.292	-8191	255	
21624.609	1	1	0	0	0.033704	0.20543	0.10318	0.18294	0.19906	0.16122	0.1581	0.021469	0.11353	0.063979	0.32314	0.11652	0.072588	0.33063	0.11645	0.065492	-3.2188	-3.0396	-2.7958	-3.5604	-2.8479	-3.1771	-3.5854	-2.8688	-3.3875	-3.0729	-2.8604	-3.6063	-2.8917	-3.1896	-3.4458	-2.8187	354.994	256.691	151.000	130.276	440.525	445.068	224.468	419.261	149.774	426.605	393.077	439.905	244.735	434.449	378.625	315.298	0.0010679	0.0028019	0.0010906	884.28	1.8914e-05	1.4117e-05	1316.8	360.36	1.8206e-05	3.0381e-05	562.49	179.15	124.7	54.426	2.1859e-05	85.412	0.023772	0.027538	0.007756	1329.8	0.00029737	0.00030387	1587.1	467.07	0.00029408	0.00030081	740.22	244.88	188.22	75.096	0.00029841	111.8	281.963	247.083	447.590	114.883	181.281	335.211	114.748	119.531	413.656	312.408	118.130	120.900	121.958	125.998	375.454	124.080	-8191	255	
21624.682	1	1	0	0	0.17848	0.1438	0.33855	0.10181	0.040684	0.14654	0.23026	0.097411	0.038316	0.018958	0.0565	0.22785	0.25431	0.096867	0.11245	0.089472	-3.0396	-3.1146	-2.7792	-3.5646	-2.9875	-3.0729	-3.3792	-2.8875	-3.2562	-3.1542	-2.8771	-3.5125	-3.0938	-2.8833	-3.3438	-2.7687	373.710	412.619	216.385	123.641	402.045	145.613	415.165	145.410	289.824	336.534	361.255	382.983	422.331	399.279	119.227	345.345	0.0010279	6.4534e-05	0.00066903	888.63	1.6158e-05	1.7497e-05	1320	361.29	3.8773e-05	3.0575e-05	565.33	180.56	125.53	54.663	3.8504e-05	86.124	0.023782	0.027661	0.007775	1324.2	0.00029681	0.00030163	1588.2	465.51	0.00028944	0.00029782	737.06	243.58	186.83	74.746	0.0002941	111.69	263.464	276.057	238.333	115.402	116.609	177.468	114.638	119.170	366.857	116.977	117.969	121.005	121.548	125.306	348.942	123.341	-8191	255	
21624.779	1	1	0	0	0.050166	0.20714	0.27519	0.092106	0.17617	0.068019	0.33012	0.4759	0.21118	0.15267	0.42534	0.19936	0.25898	0.19768	0.10971	0.55534	-2.6771	-3.2333	-2.6896	-3.4188	-2.9813	-2.9542	-3.4667	-2.8292	-3.2667	-3.2729	-2.7125	-3.5396	-2.9792	-2.8708	-3.5312	-3.075	399.559	366.725	329.816	105.165	384.548	110.795	408.282	440.922	358.866	159.994	398.097	405.981	376.077	395.538	305.810	423.760	0.001355	0.0029698	0.0001961	890.04	2.3935e-05	4.1562e-05	1313.5	361.93	3.2122e-05	2.1565e-05	554.98	179.59	124.18	54.172	3.6494e-05	85.473	0.023304	0.026975	0.0075515	1309	0.00028998	0.0002957	1572.7	462.19	0.0002853	0.00029572	728.45	241.48	184.72	74.117	0.00028821	110.55	219.814	102.934	180.481	115.535	444.416	383.674	114.526	119.186	223.856	427.691	118.185	121.149	121.514	124.680	219.543	123.398	-8191	255	
21624.898	1	1	0	0	0.061534	0.083885	0.096309	0.15119	0.22895	0.094558	0.061645	0.2701	0.03575	0.0757	0.29434	0.37365	0.26571	0.088216	0.20615	0.057489	-2.6937	-3.4958	-2.7083	-3.3542	-2.9917	-2.6188	-3.7979	-2.8771	-3.0479	-3.5438	-2.9375	-3.4083	-3.1542	-2.9542	-3.3646	-2.9896	293.543	399.831	343.260	374.411	118.473	140.332	442.001	418.163	126.180	346.159	364.566	455.566	121.127	160.380	128.600	361.615	0.0008259	0.00173	0.0017846	881.17	2.1952e-05	5.9561e-05	1312.2	361.03	1.637e-05	5.5985e-05	558.49	180.26	122.89	54.623	5.0333e-05	85.004	0.022888	0.02657	0.0074446	1297	0.00028458	0.00029232	1563.2	458.46	0.00028103	0.00028965	724.9	241.84	183.64	73.884	0.00028529	110.2	241.262	287.775	310.703	115.060	242.978	390.146	114.933	119.315	211.809	246.366	117.739	120.878	121.544	125.112	108.693	123.324	-8191	255	
21624.994	1	1	0	0	0.11759	0.060522	0.21048	0.14469	0.18621	0.29582	0.08503	0.11911	0.19897	0.37643	0.33062	0.23908	0.18614	0.24237	0.17112	0.19082	-2.4354	-3.4667	-2.6271	-3.3458	-3.275	-2.775	-3.7479	-3.0729	-2.8812	-3.4833	-2.8521	-3.325	-3.3229	-2.6792	-3.3667	-3.2146	306.903	136.166	239.039	163.480	131.628	316.559	378.184	429.221	270.205	306.504	363.397	406.061	288.059	103.640	158.796	339.105	0.0010475	0.0018892	0.0017855	868.66	3.1794e-05	3.0733e-05	1324.2	360.65	3.6927e-05	4.9358e-05	562.02	180.05	124.83	54.707	1.6118e-05	86.73	0.022841	0.026275	0.0073254	1289.4	0.00028246	0.0002868	1565.4	456.19	0.00027502	0.00028236	719.25	237.33	180.93	72.416	0.0002681	108.04	224.223	360.507	442.387	114.813	421.372	213.504	114.878	119.189	266.556	358.593	118.018	120.784	121.263	125.478	371.672	123.378	-8191	255	
21625.090	1	1	0	0	0.05801	0.096878	0.12276	0.072628	0.024869	0.14834	0.23288	0.097881	0.19817	0.093963	0.22715	0.38941	0.12485	0.043854	0.20791	0.17594	-2.6	-3.4042	-2.5417	-3.0979	-3.2396	-2.6437	-3.3417	-3.0958	-2.8583	-3.3979	-2.8729	-3.0667	-3.2771	-2.6521	-3.3563	-3.2083	263.771	184.453	295.692	422.289	377.384	453.396	417.138	344.801	444.281	393.345	401.356	440.756	165.114	201.979	222.555	150.386	0.0013196	0.0033843	0.00047428	877.63	4.1445e-05	2.2306e-05	1318.1	362.23	2.0711e-05	3.3387e-05	560.48	179.88	124.54	54.762	3.3842e-05	85.965	0.02099	0.024239	0.0067085	1241.7	0.0002557	0.00026057	1522.6	442.46	0.00025136	0.00026145	702.56	232.78	176.65	71.36	0.00026251	107.54	222.931	310.790	369.968	115.325	254.817	179.838	114.901	119.018	207.652	300.099	118.224	120.960	122.026	124.998	223.884	123.999	-8191	255	
21625.211	1	1	0	0	0.091688	0.30653	0.15933	0.22771	0.29928	0.27517	0.13383	0.2308	0.20376	0.19287	0.15122	0.24042	0.13671	0.18674	0.09763	0.12008	-2.3271	-3.3979	-2.9208	-3.1937	-3.2521	-2.7375	-3.4813	-3.3667	-2.7292	-3.3979	-3.05	-3.1146	-3.7104	-2.7625	-3.2583	-3.2188	359.940	143.563	227.295	130.794	204.569	239.778	442.056	396.253	442.076	213.067	374.736	422.235	416.141	456.473	438.046	401.557	0.0011068	0.001542	0.00035275	882.19	7.7639e-05	1.2933e-05	1312.5	361.6	2.9985e-05	2.0467e-05	553.98	180.35	124.18	54.134	2.4816e-05	85.521	0.021124	0.024616	0.0069094	1268.3	0.00027108	0.00027916	1553.3	455.03	0.00027927	0.00028809	725.1	242.68	185.87	74.147	0.00030072	112.39	204.931	379.317	299.224	115.494	298.272	137.516	114.677	119.206	349.330	305.215	118.068	121.030	122.092	125.100	366.534	123.756	-8191	255	
21625.281	1	1	0	0	0.20428	0.038867	0.2479	0.19708	0.38089	0.085671	0.25112	0.19358	0.079753	0.094162	0.22723	0.31288	0.2109	0.28246	0.11585	0.10504	-2.1208	-3.4354	-2.8917	-2.7896	-3.4417	-2.7125	-3.2917	-3.4667	-2.6792	-3.4375	-2.9646	-2.9271	-3.4979	-3.0396	-3.1958	-3.5042	319.458	369.780	151.190	295.498	214.188	115.503	408.409	365.389	449.756	189.593	415.119	368.195	148.592	384.410	387.899	432.657	0.00069144	0.002165	0.0004675	871.64	2.1977e-05	4.6211e-05	1302.8	359.67	1.3655e-05	2.775e-05	549.16	183	122.48	53.712	3.7494e-05	84.422	0.024281	0.028434	0.0080352	1345.6	0.00031561	0.00032472	1618.5	478.59	0.00032283	0.0003362	763.86	257.92	197.4	77.982	0.00033663	116.59	170.309	301.871	341.190	115.038	246.457	150.989	114.969	119.014	133.189	304.262	118.117	121.225	121.711	125.028	278.732	123.425	-8191	255	
21625.379	1	1	0	0	0.12401	0.17722	0.22348	0.12434	0.17457	0.095064	0.17398	0.51212	0.30153	0.21391	0.36174	0.20263	0.28466	0.027262	0.051152	0.25143	-2.3542	-3.5333	-2.9313	-2.9354	-3.6375	-2.7396	-3.15	-3.3208	-2.5854	-3.4271	-3.3083	-2.8208	-3.4917	-3.025	-3.0563	-3.55	434.415	119.543	172.279	156.070	411.182	179.848	150.525	458.752	107.522	362.119	427.576	369.748	125.335	333.578	377.251	359.767	0.00085241	0.0048998	0.00079105	869.9	2.356e-05	5.2451e-05	1322.5	357.59	2.7882e-05	1.1321e-05	559.05	184.34	125.36	53.99	4.4664e-06	86.131	0.026758	0.030949	0.0086861	1391.6	0.00033533	0.00034092	1646.3	482.79	0.0003295	0.00033884	766.35	257.35	196.61	77.418	0.00032905	115.71	200.870	201.044	125.567	115.614	173.121	265.178	114.874	119.137	152.887	421.673	118.439	120.662	121.736	124.762	144.708	123.188	-8191	255	
21625.498	1	1	0	0	0.21217	0.20762	0.14592	0.085554	0.19211	0.28724	0.14511	0.36335	0.1584	0.049989	0.17066	0.16936	0.21233	0.26999	0.05751	0.16485	-2.5396	-3.3042	-3.2396	-2.9771	-3.2979	-3.0625	-2.9854	-3.5563	-2.7708	-3.4167	-3.3521	-2.6771	-3.5229	-2.9146	-2.9542	-3.4271	115.546	297.742	232.831	431.639	225.510	325.774	131.187	433.237	331.004	125.146	362.523	378.126	154.562	379.544	280.702	378.177	0.0012034	0.0014758	0.00053341	880.25	1.1181e-05	5.5049e-05	1318.8	358.89	6.8902e-06	4.6589e-05	561.3	182.8	125.18	54.402	2.1962e-05	85.886	0.025791	0.029668	0.0082325	1354.1	0.00031208	0.00031644	1601.3	469.27	0.00030094	0.00031014	741.66	248.07	188.73	74.784	0.00029797	111.91	215.345	232.310	315.314	116.608	396.003	221.279	115.347	119.574	106.114	256.882	118.297	121.016	121.906	124.579	306.449	123.294	-8191	255	
21625.594	1	1	0	0	0.19834	0.21337	0.19321	0.11317	0.14228	0.058837	0.096661	0.30401	0.024498	0.27834	0.22379	0.29453	0.10791	0.24983	0.048877	0.07473	-2.3625	-3.2104	-3.2542	-2.9292	-3.4479	-2.9771	-3.0458	-3.5396	-2.7625	-3.1937	-3.4396	-2.875	-3.5438	-3.2333	-2.6833	-3.6979	358.662	443.711	199.865	442.647	334.177	172.178	361.817	439.787	144.722	227.541	409.358	434.074	440.584	359.821	160.650	140.765	0.00068057	0.0021366	0.0013583	869.18	1.8367e-05	8.509e-05	1322.6	359.41	1.8895e-05	6.2761e-05	563.25	181.77	125.51	54.851	2.6252e-05	85.99	0.023264	0.02709	0.0075351	1309.5	0.00029097	0.00029562	1581.8	460.92	0.00028654	0.00029655	732.36	244.42	186.45	74.235	0.00029053	111.09	230.133	207.567	404.560	115.107	337.061	421.515	115.122	119.303	130.289	231.394	117.723	121.514	121.998	125.448	255.112	123.520	-8191	255	
21625.689	1	1	0	0	0.13667	0.11258	0.17756	0.2281	0.18065	0.11436	0.31525	0.29172	0.099658	0.16212	0.099932	0.25673	0.097888	0.15094	0.0050623	0.15891	-2.4896	-3.0208	-3.3604	-2.7938	-3.5771	-3.1292	-2.9167	-3.6063	-2.9458	-2.9896	-3.5146	-2.8812	-3.3708	-3.1833	-2.8125	-3.6854	373.905	246.224	461.050	373.750	368.397	426.635	352.242	451.608	324.810	233.390	131.043	443.295	383.911	375.720	161.752	270.713	0.00013446	0.0045551	0.0012419	877.55	7.3323e-06	3.8615e-05	1322.2	360.18	8.7456e-06	2.0261e-05	564.96	183.62	125.05	54.482	2.2371e-05	86.783	0.02278	0.026599	0.007433	1296.6	0.00028587	0.00029294	1574.1	460.69	0.00028332	0.00029298	731.92	244.34	185.76	73.911	0.00028828	111.23	294.138	209.537	434.404	115.546	204.737	266.434	114.828	119.452	218.498	387.289	118.110	120.538	122.254	125.799	419.605	123.479	-8191	255	
21625.811	1	1	0	0	0.19899	0.1324	0.13565	0.23348	0.19884	0.30487	0.35788	0.14144	0.31642	0.15207	0.24253	0.14529	0.26332	0.16034	0.025564	0.14598	-2.45	-2.9437	-3.325	-2.7667	-3.3521	-3.2188	-2.675	-3.6	-2.9167	-2.8292	-3.4854	-2.7396	-3.3333	-3.3937	-2.5854	-3.5479	335.722	320.228	441.280	438.479	459.403	141.406	399.031	321.528	344.640	142.762	117.083	113.325	414.086	126.216	426.627	422.362	0.00072944	0.0040619	0.0005236	879.05	1.2696e-05	5.6371e-05	1328.1	362.62	2.2219e-05	2.8971e-05	564.65	183.53	125.91	54.909	7.7656e-06	87.006	0.022619	0.026422	0.0073801	1295.8	0.00028387	0.00029034	1571.8	460.98	0.00028204	0.00029305	732.69	243.48	185.65	73.966	0.00028476	111.31	207.558	194.484	168.814	115.801	386.853	422.798	115.126	119.448	281.300	213.828	118.694	120.698	121.417	125.484	287.538	123.659	-8191	255	
21625.906	1	1	0	0	0.20223	0.17983	0.050165	0.14101	0.11239	0.20229	0.16284	0.013792	0.13062	0.28703	0.41935	0.092719	0.10539	0.17229	0.19647	0.4789	-2.4896	-2.7313	-3.475	-2.9437	-3.1146	-3.3729	-2.8458	-3.4229	-2.9313	-2.8125	-3.6542	-2.8896	-2.8646	-3.3979	-2.6958	-3.4479	256.233	363.261	233.818	256.898	120.290	186.366	383.818	351.347	293.954	394.460	414.958	287.118	152.203	396.688	275.059	383.609	0.00046849	0.0036624	0.00097739	885.98	1.8376e-05	4.8496e-05	1325.2	366.58	4.5016e-05	1.509e-05	566.08	183.6	125.49	54.81	1.9766e-05	86.719	0.022405	0.026111	0.0072776	1289.5	0.00028187	0.00028909	1569.8	461.1	0.00027953	0.00028947	730.24	242.86	184.92	73.875	0.00028378	110.65	262.914	408.246	152.643	114.680	173.174	207.992	115.073	119.867	266.019	371.491	117.999	120.854	122.112	125.390	322.791	124.213	-8191	255	
21625.979	1	1	0	0	0.068331	0.15408	0.20022	0.15369	0.089323	0.17986	0.20198	0.26352	0.030534	0.017039	0.1072	0.12554	0.10773	0.1682	0.1084	0.11817	-2.6167	-2.5604	-3.2875	-2.9188	-2.85	-3.2125	-2.7083	-3.5271	-3.3125	-2.6021	-3.6333	-2.8292	-3.0479	-3.625	-2.6937	-3.5292	300.113	264.378	224.010	422.897	320.881	235.117	408.274	388.229	377.075	420.747	158.782	335.055	336.743	448.386	264.099	423.155	0.0011823	0.0068743	0.00057094	877.23	1.2608e-05	6.022e-05	1324.1	363.54	8.5593e-07	2.6163e-05	565.72	184.94	125.68	54.802	3.5219e-05	87.905	0.02232	0.026271	0.0072599	1287.7	0.00028138	0.0002863	1565.7	459.4	0.00027764	0.00028871	731.87	243.65	184.81	73.839	0.00028552	111.57	239.579	221.298	279.199	114.919	278.420	247.662	114.807	119.796	187.006	387.854	117.748	121.235	122.621	125.396	203.360	123.673	-8191	255	
21626.074	1	1	0	0	0.15179	0.17373	0.11202	0.31541	0.22924	0.12742	0.24299	0.31398	0.049883	0.15521	0.19943	0.073846	0.11917	0.13648	0.25689	0.16519	-2.8146	-2.675	-3.3854	-3.0208	-2.9021	-3.3604	-2.8021	-3.1646	-3.2479	-2.6625	-3.5042	-3.1396	-2.9062	-3.5458	-2.6312	-3.2313	357.104	335.262	208.673	437.341	335.562	376.460	366.798	414.384	385.201	401.630	362.189	394.653	441.751	419.260	384.023	393.006	0.00045265	0.0041056	0.00068196	880.71	3.5432e-05	1.6338e-05	1326.6	362.76	1.8843e-05	6.3156e-05	566.72	184.95	125.86	55.302	4.1313e-05	87.734	0.022518	0.026163	0.0072992	1288.8	0.00028179	0.00028772	1568.9	460.18	0.00027898	0.00028918	730.54	243.19	185.23	73.973	0.00028363	111.8	180.202	140.038	367.372	114.895	222.396	379.984	114.685	119.663	262.763	171.033	117.697	120.783	122.007	126.068	140.507	123.966	-8191	255	
21626.195	1	1	0	0	0.11461	0.15966	0.035373	0.20309	0.072283	0.12848	0.12801	0.32967	0.1288	0.23046	0.18599	0.18031	0.09679	0.029482	0.24892	0.25569	-2.9958	-2.7583	-3.3167	-3.2708	-2.9396	-3.4333	-2.975	-3.1542	-3.3812	-2.6458	-3.3854	-3.2104	-2.7292	-3.6021	-2.9188	-3.025	106.645	420.143	266.547	134.275	258.247	436.782	411.778	434.164	411.532	443.153	448.154	409.643	137.075	201.241	382.342	394.017	0.0004757	0.0045079	0.0021574	890.73	2.2658e-05	2.0014e-05	1337.7	365.5	1.422e-05	1.971e-05	566.46	183.09	126.23	55.111	1.8255e-05	87.965	0.022491	0.026002	0.0072598	1291	0.00028056	0.00028538	1573.4	460.23	0.00027695	0.00028683	730.56	242.37	184.54	73.799	0.00028007	111.03	189.193	161.142	177.510	114.799	308.541	397.496	115.029	119.512	412.850	200.581	118.601	121.460	122.345	125.801	396.273	123.849	-8191	255	
21626.291	1	1	0	0	0.10009	0.086082	0.12153	0.15713	0.0702	0.033512	0.22675	0.20933	0.24889	0.10341	0.057903	0.10187	0.26381	0.24835	0.13906	0.2556	-3.0333	-2.7	-3.1542	-3.4146	-2.6042	-3.475	-3.1375	-3.3	-3.3396	-2.6208	-3.3521	-3.4125	-2.8375	-3.5625	-2.9771	-2.9021	293.322	146.478	133.797	454.925	129.635	193.557	426.727	374.337	395.503	266.870	437.760	416.807	144.228	457.031	161.462	389.092	0.00076529	0.0025565	0.0016667	895.82	4.1907e-05	1.1436e-05	1339.5	365.41	1.3068e-05	6.8532e-05	569.99	185.36	126.74	55.479	6.7921e-05	88.756	0.022102	0.025279	0.0071216	1278.7	0.000272	0.00027594	1555.8	454.13	0.00026547	0.00027234	718.7	238.61	180.24	72.398	0.00026572	109.31	212.930	265.336	215.372	115.029	228.953	230.543	114.629	119.825	342.916	147.712	118.567	120.684	121.862	125.367	169.618	123.588	-8191	255	
21626.387	1	1	0	0	0.091045	0.1214	0.21834	0.27049	0.20461	0.1236	0.18715	0.27865	0.11059	0.22708	0.12856	0.31274	0.16054	0.30035	0.054502	0.25011	-2.7167	-2.6042	-3.1396	-3.3667	-2.4854	-3.2104	-3.1167	-2.9	-3.5187	-2.8521	-3.2729	-3.3438	-2.6271	-3.4375	-3.0354	-3.0333	410.123	363.378	161.844	102.839	444.187	451.931	399.183	154.793	423.733	393.776	361.466	436.239	403.241	110.006	271.652	406.616	0.00071375	0.0045012	0.0010778	896.24	2.3964e-05	5.236e-05	1343.1	365.65	4.0869e-05	2.2394e-05	574.41	185.51	127.14	56.436	2.7859e-05	88.902	0.02084	0.024074	0.0067438	1257.2	0.00025845	0.00026175	1537.2	447.99	0.00024988	0.00025714	707.53	234	176.06	71.426	0.00025003	107.74	219.230	298.542	169.014	115.665	296.229	226.221	115.125	119.444	151.032	171.172	118.588	121.487	122.278	125.615	453.302	123.864	-8191	255	
21626.482	1	1	0	0	0.076239	0.19668	0.1067	0.14605	0.13283	0.11116	0.10979	0.25527	0.088354	0.021578	0.15445	0.16682	0.16201	0.13586	0.24179	0.22594	-3.1229	-2.5854	-2.6875	-3.3667	-2.6979	-3.3146	-3.3083	-2.8958	-3.4271	-2.9062	-3.0896	-3.3937	-2.6688	-3.3187	-3.0792	-2.8063	431.638	248.364	120.248	103.479	212.782	214.045	423.295	433.780	449.006	163.719	394.335	429.985	391.683	424.137	371.803	417.167	0.0013403	0.0040183	0.0009326	895.36	1.0558e-05	4.0674e-05	1348.2	368.33	2.0651e-05	5.8178e-05	570.72	183.59	127.03	56.606	3.3014e-05	89.787	0.019553	0.022626	0.0063248	1225.8	0.00024221	0.00024797	1523.2	443.39	0.0002391	0.00024637	699.04	230.96	174.01	70.964	0.00024006	107.75	206.034	394.477	344.766	114.967	144.897	170.775	115.147	119.798	380.258	296.131	118.445	121.250	122.385	125.203	379.084	123.665	-8191	255	
21626.578	1	1	0	0	0.39855	0.193	0.085767	0.12893	0.12726	0.064672	0.22117	0.19489	0.1564	0.056731	0.17868	0.24111	0.055999	0.22934	0.065467	0.12344	-2.9521	-2.8792	-2.9646	-3.5208	-2.6937	-3.2021	-3.4479	-2.7583	-3.4854	-3.1083	-2.7667	-3.6021	-2.7729	-3.1854	-3.3854	-2.8542	361.271	400.788	411.511	379.822	400.844	363.158	403.532	438.391	313.802	140.379	135.369	406.398	345.266	116.329	169.458	236.967	0.00059607	0.0018417	0.0010865	900.24	3.461e-05	4.199e-05	1364	369.61	1.5195e-05	1.3903e-05	578.2	185.64	127.26	57.217	2.7259e-05	89.559	0.018942	0.022063	0.0061007	1217.3	0.00023579	0.00023897	1516.7	439.03	0.00023102	0.00023939	697.4	229.53	172.5	71.012	0.00023687	106.48	264.191	235.248	116.579	115.155	194.203	273.412	114.710	119.627	395.147	264.730	118.337	121.394	121.798	125.560	244.768	124.135	-8191	255	
21626.674	1	1	0	0	0.18196	0.29331	0.319	0.20199	0.036292	0.066009	0.24484	0.19638	0.12521	0.24816	0.13183	0.16264	0.26859	0.20809	0.15851	0.038471	-2.8563	-2.9646	-2.9417	-3.5438	-2.7521	-2.9562	-3.4938	-2.8688	-3.4104	-3.0771	-2.9208	-3.5917	-2.9146	-2.9958	-3.1729	-2.8479	402.929	103.071	444.269	403.352	302.399	139.531	380.772	109.286	251.272	338.888	364.759	445.796	452.389	378.489	353.908	203.314	0.00084541	0.0020968	0.00078599	887.29	2.5061e-05	1.6883e-05	1349.7	374.4	1.3303e-05	3.9176e-05	574.66	185.64	126.56	56.656	2.1052e-05	88.81	0.018701	0.021497	0.0060498	1202.3	0.00023149	0.0002377	1506.9	438.45	0.00022898	0.00023696	694.23	228.6	171.84	70.495	0.00023556	106.58	209.901	342.417	236.577	115.548	332.621	433.754	114.761	118.975	205.890	425.583	117.800	120.923	121.092	125.549	187.225	124.196	-8191	255	
21626.771	1	1	0	0	0.16182	0.13685	0.25548	0.27392	0.043883	0.13571	0.30072	0.1952	0.15375	0.069086	0.12263	0.048219	0.25778	0.20208	0.20886	0.19958	-2.9479	-3.0833	-2.7042	-3.5708	-2.7354	-3.0208	-3.4979	-2.8146	-3.1771	-3.1708	-2.825	-3.6417	-3.1833	-2.9979	-3.4417	-2.8958	271.639	454.685	366.277	307.680	410.856	245.263	403.777	392.983	276.362	208.545	153.095	199.158	153.310	371.060	320.395	406.259	0.0010383	0.0041864	0.0008147	902.75	3.5463e-05	2.5759e-05	1357.4	370.74	1.5699e-05	1.8207e-05	577.8	183.54	128	56.48	2.3062e-05	89.16	0.018782	0.022031	0.0061799	1217.3	0.00023802	0.00024665	1519.3	442.94	0.00024115	0.00024915	703.67	231.67	175.25	71.673	0.00024796	108.2	233.571	454.254	460.956	115.523	299.756	153.561	114.975	119.356	367.978	403.053	117.856	121.155	121.501	125.126	384.489	123.704	-8191	255	
21626.891	1	1	0	0	0.08255	0.12284	0.092654	0.2999	0.12372	0.071551	0.52958	0.1993	0.14855	0.29069	0.23551	0.14739	0.3293	0.18399	0.12441	0.15764	-2.7729	-3.2042	-2.6354	-3.425	-2.9896	-2.8979	-3.5792	-2.8625	-3.1771	-3.2854	-2.8	-3.4292	-2.9292	-2.6958	-3.4146	-2.9146	313.928	136.288	395.214	152.889	392.385	280.518	405.328	137.879	458.186	277.707	103.599	303.872	139.614	415.914	386.478	419.498	0.0010996	0.0060484	0.00057718	893.82	2.3101e-05	2.0137e-05	1350.1	372.73	1.6838e-05	1.9887e-05	572.82	185.12	126.75	56.968	3.032e-05	91.373	0.019519	0.022456	0.006247	1221.7	0.00023562	0.00023834	1505.7	434.29	0.00021905	0.00022158	674.43	219.96	162.48	67.441	0.00019489	101.58	212.985	193.661	185.169	115.577	233.778	325.868	114.515	118.843	214.050	263.107	117.672	121.426	121.471	125.067	218.958	123.516	-8191	255	
21626.986	1	1	0	0	0.15986	0.26502	0.11223	0.17571	0.083614	0.026344	0.057198	0.070546	0.039163	0.29866	0.20178	0.32956	0.19218	0.18401	0.26706	0.29087	-2.5375	-3.2521	-2.5292	-3.625	-3.1417	-2.6854	-3.4437	-2.9	-2.9604	-3.4938	-2.8896	-3.3667	-3.1146	-2.9583	-3.3208	-2.8917	261.463	293.712	217.422	376.686	397.288	140.103	412.579	126.473	209.798	269.533	401.977	426.886	453.490	422.492	179.690	402.015	0.0011527	0.0056285	0.00041474	900.93	1.1983e-05	3.9503e-05	1355.1	370.69	1.0628e-05	2.1265e-05	574.71	183	127.44	57.401	1.4062e-05	90.927	0.014671	0.016542	0.0044909	1078.5	0.00016704	0.00016752	1396.5	398.13	0.00016016	0.00016624	626.24	205.4	152.97	64.973	0.00017758	100.04	204.069	200.332	166.581	114.948	241.844	211.909	114.915	118.919	143.798	425.913	117.747	121.105	121.755	125.356	437.561	123.365	-8191	255	
21627.082	1	1	0	0	0.064832	0.060155	0.078783	0.015138	0.03859	0.21777	0.37174	0.13449	0.26129	0.17591	0.26688	0.28611	0.14644	0.095536	0.13303	0.15497	-2.5167	-3.3208	-2.6708	-3.2625	-3.2958	-2.5979	-3.5729	-3.1042	-2.7167	-3.3375	-2.9042	-3.2729	-3.2313	-2.6917	-3.2562	-2.9646	443.547	222.809	321.492	384.343	402.980	249.869	373.895	420.151	303.622	125.699	410.136	409.859	408.175	128.726	213.908	401.754	0.00084574	0.0045803	0.0011748	897.13	1.1035e-05	3.6775e-05	1351	371.75	5.7561e-06	1.2596e-05	580.93	183.44	126.61	57.447	1.8959e-05	90.915	0.014514	0.017134	0.0048614	1124.2	0.00019447	0.00019832	1453.3	419.13	0.00019835	0.00020388	662.5	217.32	162.38	68.591	0.00021948	108.02	187.396	202.904	252.237	115.057	409.272	299.145	114.859	119.371	214.715	212.142	117.929	121.112	121.936	124.999	448.588	123.539	-8191	255	
21627.180	1	1	0	0	0.14445	0.10508	0.10868	0.21161	0.0138	0.25297	0.085975	0.14092	0.13361	0.16362	0.1777	0.10086	0.1551	0.14423	0.15196	0.24095	-2.2583	-3.2687	-2.6771	-3.2229	-3.2771	-2.6917	-3.5208	-3.1312	-2.8229	-3.3958	-2.7562	-3.1437	-3.2833	-2.9062	-3.3833	-3.1896	435.486	402.633	431.246	449.401	232.170	293.818	420.302	446.562	387.119	398.534	426.099	345.750	459.272	372.343	249.829	421.623	0.0010999	0.0039675	0.0014073	903.63	5.3167e-05	3.541e-05	1374.3	374.79	4.984e-05	5.1248e-05	580.1	187.22	127.91	58.214	2.1041e-05	91.509	0.019819	0.023947	0.0069013	1296.2	0.0002788	0.0002909	1621.5	478.3	0.00030143	0.00031568	777.52	257.57	199.03	81.127	0.00033128	122.09	256.425	238.468	378.887	114.697	261.546	272.413	114.770	119.120	126.398	186.921	117.587	121.263	121.578	125.356	286.221	123.757	-8191	255	
21627.275	1	1	0	131072	0.079339	0.27322	0.11669	0.16691	0.13383	0.16757	0.23551	0.2816	0.083526	0.17994	0.24843	0.065324	0.34734	0.24316	0.054452	0.28462	-2.3208	-3.4667	-2.9313	-3.0604	-3.425	-2.7458	-3.5104	-3.0833	-2.5792	-3.4688	-3.0958	-3.0062	-3.4375	-2.8063	-3.2583	-3.3521	291.982	161.284	321.398	128.212	140.011	134.285	373.836	416.430	325.619	122.517	405.031	117.243	371.013	392.739	411.034	453.208	0.00082305	0.0026069	0.0010828	918.9	3.5891e-05	2.1128e-05	1377.9	375.8	2.6783e-05	6.8473e-06	580.93	186.28	126.83	57.864	6.6033e-06	92.116	0.026518	0.030887	0.0087482	1429.7	0.00033783	0.00034645	1708.6	504.44	0.00034093	0.00035232	802.03	266.26	205.38	82.982	0.00035164	124.63	229.565	449.216	174.183	114.931	346.891	150.237	114.956	119.214	316.534	330.148	118.112	120.963	120.890	125.432	103.821	123.207	-8191	255	
21627.371	1	1	0	131072	0.1435	0.17122	0.19842	0.075783	0.25842	0.12612	0.30741	0.29246	0.093249	0.23462	0.04587	0.16946	0.065599	0.26795	0.26561	0.385	-2.1396	-3.4167	-2.8771	-3.0646	-3.4292	-2.7104	-3.3542	-3.4271	-2.6542	-3.2604	-3.0958	-2.9562	-3.6271	-2.9646	-3.2917	-3.4813	299.017	356.599	107.396	106.699	169.737	112.889	406.772	444.256	236.374	192.434	445.653	456.804	348.185	107.472	229.887	454.194	0.00043361	0.0029956	0.00098703	896.69	1.99e-05	3.7982e-05	1366.3	368.63	2.2138e-05	3.3475e-05	579.44	182.12	124.24	56.789	4.7073e-05	90.752	0.027885	0.032465	0.0090549	1445.1	0.00034874	0.00035689	1713.9	504.54	0.0003481	0.0003597	804.77	265.7	204.69	82.704	0.00035485	123.96	179.937	451.055	108.515	115.655	256.037	302.502	115.176	119.321	374.951	210.257	117.510	120.826	122.137	125.083	315.362	123.679	-8191	255	
21627.492	1	1	0	131072	0.27497	0.28527	0.32577	0.15496	0.077495	0.15148	0.26255	0.17176	0.18397	0.17411	0.094433	0.16777	0.11478	0.19886	0.22304	0.20005	-2.1604	-3.3979	-3.0438	-2.6917	-3.5271	-2.7583	-3.2188	-3.4958	-2.7146	-3.2646	-3.1937	-3.0708	-3.6479	-3.0208	-3.15	-3.4375	318.878	146.537	353.064	451.531	321.391	368.470	407.132	115.079	450.688	162.436	333.574	436.318	110.211	126.487	243.283	363.140	0.0008724	0.0028554	0.00052903	889.71	3.2634e-05	1.2748e-05	1352.5	366.5	8.8215e-06	1.9716e-05	570.09	182.62	124.78	57.017	1.2356e-05	90.976	0.027973	0.032612	0.0091028	1444.8	0.00035147	0.00036185	1718.6	505.81	0.00035717	0.00037118	814.36	270.07	209.15	84.237	0.00037495	126.48	240.800	125.603	375.962	115.526	448.015	420.205	115.229	119.129	257.162	347.362	117.879	121.463	121.905	124.746	384.968	123.519	-8191	255	
21627.588	1	1	0	131072	0.26076	0.1229	0.15877	0.14426	0.044883	0.19922	0.37846	0.2645	0.11827	0.23714	0.20293	0.060782	0.042545	0.2776	0.16977	0.026766	-2.3542	-3.0958	-3.0708	-2.8	-3.4125	-2.9354	-2.975	-3.5333	-2.675	-3.1854	-3.4417	-2.7146	-3.3458	-3.1937	-2.8208	-3.5875	246.525	134.894	215.996	209.289	405.395	439.116	368.908	343.658	388.169	282.132	395.706	249.407	455.482	103.001	402.297	449.475	0.0010793	0.0033094	0.0014739	897.9	3.3486e-05	3.2955e-05	1356.8	368.9	2.9082e-05	4.9708e-05	571.22	184.37	123.27	56.693	5.645e-05	90.258	0.029594	0.034616	0.0096789	1485.3	0.00037378	0.00038173	1747.4	515.15	0.00036931	0.00038404	824.24	272.85	210.5	84.874	0.00038102	126.92	205.349	396.837	124.943	114.788	253.585	267.646	115.185	119.115	319.632	240.101	117.792	120.614	122.097	125.985	281.530	123.502	-8191	255	
21627.682	1	1	0	131072	0.079248	0.14415	0.1346	0.061451	0.19955	0.15425	0.26147	0.10027	0.15508	0.29606	0.25674	0.16423	0.1149	0.23838	0.1243	0.1942	-2.275	-2.9521	-3.2438	-2.7417	-3.25	-2.9167	-2.9604	-3.5833	-2.8396	-2.9833	-3.5333	-2.7375	-3.3021	-3.1208	-2.6333	-3.4333	351.004	332.441	193.127	193.353	217.660	173.079	416.950	413.725	454.198	174.625	405.036	389.427	412.106	448.077	298.892	438.954	0.00078444	0.0025025	0.0010457	891.11	1.9633e-05	4.7105e-05	1358.5	371.84	2.4982e-05	6.2641e-05	579.28	182.79	125.52	56.829	1.6231e-05	90.085	0.029966	0.03483	0.0097349	1483.4	0.00037177	0.00037984	1740	514.57	0.00036549	0.00037659	819.93	270.07	209	83.635	0.0003671	124.91	237.707	368.059	159.838	115.033	358.362	112.062	114.840	119.665	252.674	183.583	117.896	120.930	121.762	125.111	290.430	123.566	-8191	255	
21627.779	1	1	0	131072	0.22338	0.21767	0.080102	0.15356	0.16799	0.14797	0.097614	0.044169	0.30187	0.15692	0.0047891	0.11765	0.2942	0.1019	0.052651	0.38521	-2.3917	-3.1188	-3.3688	-2.8021	-3.1375	-3.0646	-2.9062	-3.4979	-2.75	-2.9562	-3.5021	-2.6167	-3.2729	-3.1958	-2.7271	-3.5354	421.547	281.502	195.900	448.506	312.699	152.699	126.299	369.716	312.584	137.130	258.534	153.411	345.189	303.080	354.378	392.523	0.0015874	0.0014986	0.00092082	892.98	3.3691e-05	6.1869e-05	1360.7	372.04	2.9255e-05	3.9129e-05	572.15	182.16	124.91	56.488	6.4834e-05	89.826	0.028762	0.033391	0.0093504	1455.1	0.00035964	0.00036764	1718.5	507.73	0.0003552	0.00036592	809.96	266.99	206.21	82.9	0.00036111	124.08	229.098	367.661	145.235	114.132	278.129	231.733	114.503	118.506	121.397	143.630	117.433	121.268	121.800	125.610	279.653	123.802	-8191	255	
21627.875	1	1	0	131072	0.17002	0.29803	0.033788	0.18628	0.021566	0.25838	0.15686	0.1514	0.17394	0.12234	0.14509	0.34672	0.010629	0.1281	0.088342	0.16859	-2.4083	-2.7667	-3.3771	-2.6458	-3.1813	-3.0604	-2.8042	-3.3312	-2.8146	-2.8583	-3.5812	-2.9229	-3.2229	-3.2938	-2.7625	-3.5812	433.300	324.277	327.141	363.235	257.737	116.003	111.420	433.663	159.340	300.384	408.148	455.159	208.736	437.038	415.174	349.072	0.00089266	0.0010374	0.000763	901.95	2.5528e-05	2.3844e-05	1349.9	366.5	3.6109e-05	3.7741e-05	574.81	184.7	123.89	56.041	2.813e-05	89.834	0.028405	0.033108	0.0092335	1450.8	0.00035871	0.00036291	1715.1	506.29	0.00035412	0.00036953	810.1	267.59	206.78	83.135	0.0003653	124.15	218.692	126.417	240.417	115.250	459.160	275.520	114.854	119.358	226.442	423.198	117.688	121.172	121.906	124.834	284.844	123.385	-8191	255	
#DATA ENDS
