BOXY.EXE: ISS Imagent and Oximeter Data Acquisition Program Version 0.80
Ascii Record File

#ACQ INFORMATION
2  Detector Channels 
16  External MUX Channels 
1  Auxiliary Channels 
5000  Waveform (CCF) Frequency (Hz)
1  Waveforms Skipped 
30  Waveforms Averaged 
1  Cycles Averaged 
16  Acquisitions per Waveform 
10.0806  Updata Rate (Hz) 

#FILE INFORMATION
TRUE -- External MUX Channel results are PARSED.
FALSE -- AC DC and Phase are NOT grouped.
TRUE -- Companion Program Settings File CREATED.
FALSE -- AC data not excluded
FALSE -- DC data not excluded
FALSE -- Phase data not excluded
FALSE -- Auxillary Chn. data not excluded
Tab delimiters

#CALIBRATION STATE
TRUE -- Waveform Calibration Values APPLIED.


#AUX CALIBRATION VALUES
Val Type	aux-1	

Term	1.0000e+00	
Factor	0.0000e+00	


#WF CALIBRATION VALUES
A = Detector Channel
Val Type	A-AC1	A-AC2	A-AC3	A-AC4	A-AC5	A-AC6	A-AC7	A-AC8	A-AC9	A-AC10	A-AC11	A-AC12	A-AC13	A-AC14	A-AC15	A-AC16	A-DC1	A-DC2	A-DC3	A-DC4	A-DC5	A-DC6	A-DC7	A-DC8	A-DC9	A-DC10	A-DC11	A-DC12	A-DC13	A-DC14	A-DC15	A-DC16	A-Ph1	A-Ph2	A-Ph3	A-Ph4	A-Ph5	A-Ph6	A-Ph7	A-Ph8	A-Ph9	A-Ph10	A-Ph11	A-Ph12	A-Ph13	A-Ph14	A-Ph15	A-Ph16	

Term	0.00000e+00	0.00000e+00	0.00000e+00	0.00000e+00	0.00000e+00	0.00000e+00	0.00000e+00	0.00000e+00	0.00000e+00	0.00000e+00	0.00000e+00	0.00000e+00	0.00000e+00	0.00000e+00	0.00000e+00	0.00000e+00	0.00000e+00	0.00000e+00	0.00000e+00	0.00000e+00	0.00000e+00	0.00000e+00	0.00000e+00	0.00000e+00	0.00000e+00	0.00000e+00	0.00000e+00	0.00000e+00	0.00000e+00	0.00000e+00	0.00000e+00	0.00000e+00	0.00000e+00	0.00000e+00	0.00000e+00	0.00000e+00	0.00000e+00	0.00000e+00	0.00000e+00	0.00000e+00	0.00000e+00	0.00000e+00	0.00000e+00	0.00000e+00	0.00000e+00	0.00000e+00	0.00000e+00	0.00000e+00	
Factor	1.00000e+00	1.00000e+00	1.00000e+00	1.00000e+00	1.00000e+00	1.00000e+00	1.00000e+00	1.00000e+00	1.00000e+00	1.00000e+00	1.00000e+00	1.00000e+00	1.00000e+00	1.00000e+00	1.00000e+00	1.00000e+00	1.00000e+00	1.00000e+00	1.00000e+00	1.00000e+00	1.00000e+00	1.00000e+00	1.00000e+00	1.00000e+00	1.00000e+00	1.00000e+00	1.00000e+00	1.00000e+00	1.00000e+00	1.00000e+00	1.00000e+00	1.00000e+00	X	X	X	X	X	X	X	X	X	X	X	X	X	X	X	X	

B = Detector Channel
Val Type	B-AC1	B-AC2	B-AC3	B-AC4	B-AC5	B-AC6	B-AC7	B-AC8	B-AC9	B-AC10	B-AC11	B-AC12	B-AC13	B-AC14	B-AC15	B-AC16	B-DC1	B-DC2	B-DC3	B-DC4	B-DC5	B-DC6	B-DC7	B-DC8	B-DC9	B-DC10	B-DC11	B-DC12	B-DC13	B-DC14	B-DC15	B-DC16	B-Ph1	B-Ph2	B-Ph3	B-Ph4	B-Ph5	B-Ph6	B-Ph7	B-Ph8	B-Ph9	B-Ph10	B-Ph11	B-Ph12	B-Ph13	B-Ph14	B-Ph15	B-Ph16	

Term	0.00000e+00	0.00000e+00	0.00000e+00	0.00000e+00	0.00000e+00	0.00000e+00	0.00000e+00	0.00000e+00	0.00000e+00	0.00000e+00	0.00000e+00	0.00000e+00	0.00000e+00	0.00000e+00	0.00000e+00	0.00000e+00	0.00000e+00	0.00000e+00	0.00000e+00	0.00000e+00	0.00000e+00	0.00000e+00	0.00000e+00	0.00000e+00	0.00000e+00	0.00000e+00	0.00000e+00	0.00000e+00	0.00000e+00	0.00000e+00	0.00000e+00	0.00000e+00	-5.59862e+01	-1.37165e+02	-1.09869e+02	-1.83892e+02	-6.46307e+01	-7.36611e+01	-1.56891e+02	-1.62015e+02	-4.00765e+01	-6.46858e+01	-1.74830e+02	-1.70829e+02	-1.79669e+02	-1.77438e+02	-3.40695e+01	-1.50113e+02	
Factor	2.00826e-05	1.16048e-04	2.50199e-05	2.01756e-01	1.04398e-06	1.05918e-06	1.68114e-01	5.33662e-02	9.36267e-07	1.40336e-06	1.25515e-01	3.06584e-02	2.97817e-02	1.00133e-02	1.07325e-06	1.43431e-02	9.95168e-07	1.02890e-06	2.87747e-07	1.00126e-01	1.12210e-08	1.12741e-08	7.94418e-02	2.67727e-02	1.12170e-08	1.12980e-08	5.87010e-02	1.47241e-02	1.47267e-02	4.94447e-03	1.13127e-08	6.80183e-03	X	X	X	X	X	X	X	X	X	X	X	X	X	X	X	X	



#DISTANCE SETTINGS
A = Detector Channel
A-1	A-2	A-3	A-4	A-5	A-6	A-7	A-8	A-9	A-10	A-11	A-12	A-13	A-14	A-15	A-16	

2.5000e+00	3.0000e+00	2.5000e+00	3.0000e+00	2.0000e+00	3.0000e+00	1.5000e+00	3.0000e+00	3.0000e+00	3.0000e+00	3.0000e+00	3.0000e+00	3.0000e+00	3.0000e+00	1.5000e+00	3.0000e+00	

B = Detector Channel
B-1	B-2	B-3	B-4	B-5	B-6	B-7	B-8	B-9	B-10	B-11	B-12	B-13	B-14	B-15	B-16	

1.0000e+01	1.0000e+01	1.0000e+01	1.4400e+00	1.0000e+01	1.0000e+01	1.5100e+00	1.9400e+00	1.0000e+01	1.0000e+01	1.9900e+00	2.4900e+00	2.4100e+00	2.9000e+00	1.0000e+01	2.9800e+00	




#DATA BEGINS
time	group	step	mark	flag	A-AC1	A-AC2	A-AC3	A-AC4	A-AC5	A-AC6	A-AC7	A-AC8	A-AC9	A-AC10	A-AC11	A-AC12	A-AC13	A-AC14	A-AC15	A-AC16	A-DC1	A-DC2	A-DC3	A-DC4	A-DC5	A-DC6	A-DC7	A-DC8	A-DC9	A-DC10	A-DC11	A-DC12	A-DC13	A-DC14	A-DC15	A-DC16	A-Ph1	A-Ph2	A-Ph3	A-Ph4	A-Ph5	A-Ph6	A-Ph7	A-Ph8	A-Ph9	A-Ph10	A-Ph11	A-Ph12	A-Ph13	A-Ph14	A-Ph15	A-Ph16	B-AC1	B-AC2	B-AC3	B-AC4	B-AC5	B-AC6	B-AC7	B-AC8	B-AC9	B-AC10	B-AC11	B-AC12	B-AC13	B-AC14	B-AC15	B-AC16	B-DC1	B-DC2	B-DC3	B-DC4	B-DC5	B-DC6	B-DC7	B-DC8	B-DC9	B-DC10	B-DC11	B-DC12	B-DC13	B-DC14	B-DC15	B-DC16	B-Ph1	B-Ph2	B-Ph3	B-Ph4	B-Ph5	B-Ph6	B-Ph7	B-Ph8	B-Ph9	B-Ph10	B-Ph11	B-Ph12	B-Ph13	B-Ph14	B-Ph15	B-Ph16	aux-1	digaux	

7281.693	1	1	0	768	0.15112	0.026255	0.26025	0.28883	0.094463	0.025227	0.18175	0.056437	0.081115	0.15399	0.13152	0.20312	0.12162	0.14143	0.047064	0.13381	-2.5271	-3.4021	-3.7729	-2.9146	-3.7708	-3.2729	-3.175	-3.8167	-3.1104	-3.2958	-3.7958	-2.8542	-3.5729	-3.2542	-2.9104	-3.7396	102.652	87.885	58.320	192.426	306.182	102.374	292.236	327.467	126.888	192.050	242.187	283.547	300.940	349.834	271.989	295.795	0.0012707	0.001327	0.00018194	356.28	4.5248e-05	1.5074e-05	631.86	133.81	2.0113e-05	4.2343e-05	264.7	117.49	55.651	25.259	2.623e-05	59.053	0.012062	0.01262	0.0034013	1457.2	0.00013699	0.00013889	1517.8	434.44	0.00013873	0.00013831	938.04	277.49	234.74	84.313	0.00013299	133.65	210.080	279.572	231.084	44.860	242.319	317.082	43.157	50.236	216.610	353.920	47.433	52.755	55.095	57.646	115.040	55.904	-8191	255	
7281.789	1	1	0	0	0.06732	0.12864	0.14248	0.17622	0.23395	0.1096	0.13916	0.14712	0.15718	0.036194	0.10894	0.097593	0.07409	0.088911	0.2413	0.059607	-2.6167	-3.0917	-3.6021	-2.7521	-3.4562	-3.4292	-3.0687	-3.8083	-3.1583	-3.2875	-3.8896	-3.0396	-3.6125	-3.6042	-2.9833	-3.8063	128.312	168.743	266.773	241.954	133.020	321.491	333.871	132.738	281.270	146.589	390.077	294.752	171.152	360.474	365.681	356.205	0.0012108	0.00075702	0.0014255	361.38	3.4145e-05	2.8564e-05	639.66	136.15	3.0292e-05	3.6787e-05	263.27	119.25	55.064	24.691	1.1397e-05	59.885	0.012598	0.012583	0.0034308	1502.5	0.00014223	0.00013774	1517.3	441.91	0.00014109	0.00013519	918.56	282.21	234.44	82.519	0.00012911	135.87	197.181	241.947	252.481	44.582	268.597	342.440	43.563	49.326	208.755	56.345	46.340	52.576	54.928	57.562	222.123	55.768	-8191	255	
7281.886	1	1	0	0	0.17096	0.067671	0.087833	0.098291	0.14069	0.16356	0.20298	0.16248	0.29236	0.092464	0.15609	0.14513	0.076056	0.13129	0.16478	0.26146	-2.7979	-3.2229	-3.7812	-2.8354	-3.3167	-3.3729	-2.9917	-3.7938	-3.3708	-3.0312	-3.7687	-2.9625	-3.4229	-3.6312	-2.9146	-3.6917	31.986	350.430	60.626	58.678	95.621	123.069	257.553	153.120	173.057	175.490	313.598	364.908	248.282	129.778	90.428	325.605	0.00057351	0.0020096	0.00071243	360.33	3.9549e-05	3.1615e-05	632.24	135.9	2.0914e-05	1.1315e-05	263.15	117.92	55.172	25.131	3.6724e-05	59.145	0.01248	0.012208	0.0033247	1537.4	0.00014005	0.00013634	1506.6	456.42	0.00014086	0.00013417	917.4	289.93	233	82.168	0.0001298	138.67	388.477	102.247	309.277	45.632	371.905	315.236	43.915	49.668	360.170	388.028	47.534	53.327	54.173	56.990	366.713	55.498	-8191	255	
7281.982	1	1	0	0	0.098213	0.15655	0.060906	0.10196	0.18449	0.026041	0.26184	0.13853	0.17317	0.25863	0.29411	0.14948	0.10391	0.17982	0.19915	0.20075	-3.1479	-3.1104	-3.6771	-3.0792	-3.3771	-3.8229	-2.7917	-3.4729	-3.4104	-2.8417	-3.8542	-3.2292	-3.3688	-3.8229	-3.0125	-3.6979	74.311	386.839	38.875	339.324	225.386	324.530	351.776	305.427	37.649	127.548	74.944	178.903	309.259	347.133	128.821	290.286	0.00035111	0.0016309	0.00041894	358	1.8402e-05	2.5683e-05	633.07	134.26	3.5571e-05	3.4339e-05	263.55	116.96	54.144	24.854	8.0201e-05	59.186	0.012433	0.012132	0.0033431	1574.1	0.00013741	0.00013407	1508.4	462.76	0.00013866	0.00013227	927.1	294.57	229.39	81.536	0.00013327	140.84	367.433	92.820	124.577	43.968	347.432	61.060	43.937	48.869	40.975	377.519	47.460	51.222	54.803	57.531	295.127	55.925	-8191	255	
7282.078	1	1	0	0	0.089453	0.13605	0.19182	0.062781	0.0043787	0.25996	0.060844	0.093874	0.17407	0.097876	0.14041	0.014084	0.2687	0.33237	0.099459	0.17058	-3.0292	-2.6917	-3.6104	-3.0854	-3.1979	-3.7417	-2.9542	-3.6854	-3.4896	-2.7458	-3.5875	-3.3688	-3.2458	-3.975	-2.9375	-3.35	169.952	330.840	218.968	179.840	282.837	369.927	347.412	75.261	35.271	351.697	198.006	196.923	53.569	333.627	286.501	255.181	0.0001795	0.0016459	0.0010398	348.41	3.1313e-06	3.0421e-05	630.04	136.76	2.6118e-05	2.1916e-05	264.6	116.26	55.042	25.205	2.1681e-05	59.779	0.012273	0.012102	0.003474	1618.8	0.00013677	0.00013441	1552.3	468.69	0.00013781	0.00013217	960.69	297.65	228.7	81.333	0.00014	141.32	386.518	382.579	198.363	43.112	267.431	136.314	43.884	48.084	39.612	135.390	48.073	51.973	54.999	57.312	230.920	54.996	-8191	255	
7282.174	1	1	0	0	0.1338	0.08639	0.30061	0.25679	0.03464	0.14806	0.12305	0.13204	0.15391	0.3153	0.21254	0.22651	0.14001	0.028884	0.32178	0.22539	-3.1875	-2.9396	-3.8083	-3.4146	-3.1521	-3.6771	-3.1292	-3.3812	-3.6958	-2.9688	-3.5687	-3.4688	-2.9375	-3.8438	-3.0312	-3.3625	292.476	375.800	64.272	112.057	312.960	345.105	341.799	297.499	194.750	60.738	104.089	374.924	312.576	90.809	81.390	346.625	0.00025483	0.0021186	0.00098635	349	2.9759e-05	3.7523e-06	637.47	134.67	1.7986e-05	9.1769e-06	266.83	117.44	54.74	24.963	2.6226e-05	59.134	0.012226	0.012006	0.003612	1607.8	0.00013573	0.00013309	1600	463.6	0.00013624	0.00013109	979.62	293.56	225.28	81.234	0.00014324	138.25	179.834	123.337	199.780	43.224	315.209	160.458	44.510	49.229	212.754	59.066	48.964	51.600	54.645	58.183	286.449	55.043	-8191	255	
7282.295	1	1	0	0	0.1826	0.12218	0.27359	0.091642	0.32809	0.097444	0.15073	0.11785	0.2037	0.14992	0.008345	0.23636	0.34592	0.14022	0.20299	0.1309	-3.3771	-2.7917	-3.5208	-3.4688	-2.9396	-3.9	-3.0917	-3.3125	-3.6479	-3.0125	-3.625	-3.4125	-2.8312	-3.8312	-3.1188	-3.4583	152.109	300.434	311.862	367.637	136.810	385.349	302.431	43.836	148.259	236.413	118.927	372.776	308.852	49.458	111.807	106.399	0.00068835	0.0038234	0.00086023	344.97	6.0043e-05	2.0254e-05	630.58	131.58	2.7147e-05	7.9784e-05	259.04	116.93	53.697	24.992	2.4188e-05	57.929	0.011954	0.01207	0.0036647	1571.5	0.00013225	0.00013385	1605.1	453.47	0.00013398	0.00013466	988.14	290.51	222.73	82.884	0.00014649	137.23	220.793	191.536	185.247	44.230	34.969	240.740	43.553	47.493	83.275	195.785	47.198	51.931	53.962	57.957	269.307	55.426	-8191	255	
7282.389	1	1	0	0	0.11994	0.2239	0.14617	0.16927	0.070298	0.1154	0.16283	0.15415	0.2044	0.21905	0.1965	0.12569	0.18754	0.18858	0.064695	0.33115	-3.275	-2.9542	-3.2917	-3.4333	-2.9104	-3.7271	-3.2854	-3.0208	-3.8083	-3.0375	-3.5667	-3.4562	-2.9042	-3.6479	-3.2104	-3.1667	154.738	340.432	32.647	126.633	35.779	46.487	32.737	286.560	56.304	356.206	256.753	346.237	153.165	149.104	223.150	347.946	9.127e-05	0.0068234	0.00020993	347.67	1.8264e-05	5.3833e-05	629.97	137.2	5.7955e-06	6.919e-05	254.59	116.28	55.035	24.883	2.874e-05	59.661	0.011908	0.012585	0.0037225	1569.8	0.00013248	0.00014076	1628.2	454.6	0.00013444	0.00014243	996.22	291.71	224.95	86.223	0.00014718	137.92	141.702	125.685	362.444	44.444	125.200	219.559	43.864	48.578	104.057	215.448	47.218	51.334	54.072	57.917	72.954	55.171	-8191	255	
7282.485	1	1	0	0	0.15614	0.063333	0.20611	0.098305	0.10999	0.089236	0.50245	0.15971	0.13159	0.040735	0.1529	0.13367	0.46494	0.091435	0.017679	0.11179	-3.4229	-3.0292	-3.3625	-3.4813	-2.7854	-3.7687	-3.3917	-2.9104	-3.6667	-3.2354	-3.3812	-3.8	-3.0021	-3.5604	-3.3875	-2.8979	380.410	233.731	141.926	147.004	235.988	39.586	83.515	52.829	318.422	251.390	226.502	323.762	384.596	211.109	54.212	384.080	0.00057606	0.0052804	0.00071292	349.03	3.4824e-05	1.7223e-05	638.33	134.69	1.1177e-05	6.8223e-05	265.24	116.68	56.385	25.178	3.455e-05	59.267	0.011982	0.013295	0.003716	1580	0.00013427	0.00014727	1625.8	454.27	0.00013622	0.00014833	985.83	290.19	227.71	87.997	0.00014461	136.66	211.883	129.138	299.100	44.732	293.587	218.166	43.448	48.975	184.988	219.352	45.865	51.656	55.749	57.484	46.270	55.064	-8191	255	
7282.581	1	1	0	0	0.14269	0.051606	0.089586	0.12071	0.45691	0.11312	0.11066	0.052235	0.19753	0.16616	0.22991	0.20282	0.12682	0.15427	0.29044	0.15129	-3.2646	-3.1333	-3.0396	-3.6875	-2.7667	-3.4375	-3.4313	-3.0187	-3.9188	-3.1083	-3.0667	-3.7542	-2.9167	-3.6125	-3.5333	-3	371.178	273.261	197.576	237.757	36.680	275.393	252.105	279.885	189.204	174.673	62.594	148.947	215.389	105.593	312.658	324.610	0.00085775	0.0045111	0.00037032	347.16	3.1353e-05	5.3459e-06	631.83	135.41	2.3586e-05	3.5845e-05	258.62	117	55.341	24.974	1.8368e-05	58.97	0.012162	0.013467	0.0036059	1545.7	0.00013682	0.00014689	1593.9	444.11	0.00013838	0.00014697	961.5	284.33	230.67	86.452	0.00013888	133.29	212.989	198.232	63.943	42.192	236.848	195.924	43.238	48.785	268.042	113.457	47.873	51.536	55.224	57.227	97.150	54.981	-8191	255	
7282.678	1	1	0	0	0.16695	0.21551	0.05946	0.10212	0.1649	0.12575	0.25818	0.21114	0.09814	0.26596	0.2038	0.3017	0.22599	0.22893	0.16919	0.2521	-3.2104	-3.1917	-2.8187	-3.7062	-2.9646	-3.4354	-3.7146	-2.8063	-3.7625	-3.1958	-3.0979	-3.7979	-3.1375	-3.5292	-3.7104	-2.8979	75.237	35.298	329.420	87.566	313.124	68.949	358.372	377.650	137.041	79.294	340.547	203.324	147.010	370.136	155.444	242.619	0.0010654	0.0050422	0.0004691	346.56	7.3423e-05	4.0394e-05	637.09	134.25	3.3115e-05	5.3094e-05	263.88	118.95	55.473	24.887	9.0395e-06	58.834	0.012277	0.013146	0.0034523	1499	0.00013819	0.00014163	1554.7	435.58	0.00014047	0.0001433	942.49	281.98	237.26	85.549	0.00013804	134.11	223.469	319.889	135.301	43.751	218.504	391.173	43.479	49.264	259.476	78.583	47.301	52.011	54.289	57.021	326.909	56.152	-8191	255	
7282.774	1	1	0	0	0.21123	0.28352	0.32229	0.19368	0.23491	0.15162	0.12264	0.15606	0.09041	0.1356	0.048424	0.1301	0.098619	0.092897	0.1157	0.10222	-3.2062	-3.2042	-2.8979	-3.7562	-3.2354	-3.3542	-3.9083	-3.0604	-3.5229	-3.4271	-3.0062	-3.7812	-3.0708	-3.1562	-3.675	-3.0187	201.344	138.767	243.681	347.427	358.414	330.242	193.936	274.491	284.587	93.811	99.113	334.023	120.806	386.440	329.708	140.961	0.0013853	0.0025696	0.0009302	352.35	5.6183e-05	1.3813e-05	635.35	135.61	1.8324e-05	1.3299e-05	261.27	116.84	55.815	25.193	4.9563e-05	60.403	0.01274	0.013018	0.0034595	1522	0.0001444	0.00014115	1556.9	444.59	0.00014501	0.00014212	939.38	288.4	242.49	84.844	0.00013752	138.26	212.822	344.148	336.975	43.398	179.874	43.741	43.363	49.588	297.836	109.783	47.165	52.465	53.940	57.166	339.573	55.903	-8191	255	
7282.894	1	1	0	0	0.11758	0.075853	0.11649	0.19547	0.16622	0.045068	0.15557	0.051706	0.091639	0.12809	0.22457	0.06464	0.092314	0.20954	0.16566	0.21517	-3.0292	-3.2562	-2.8875	-3.7854	-3.2021	-3.0854	-3.775	-2.9271	-3.3688	-3.475	-2.925	-3.6188	-3.1521	-3.1375	-3.8063	-2.875	200.828	123.987	192.209	205.819	189.748	355.841	51.766	49.182	209.244	133.572	215.182	331.767	256.316	328.120	285.931	245.341	0.0002972	0.0027148	0.0011461	360.21	2.3262e-05	3.2152e-05	636.74	137.01	7.3529e-06	2.7407e-05	266.16	119.5	56.615	25.054	2.0377e-05	60.33	0.013031	0.012983	0.0034408	1578.3	0.00014717	0.00014052	1560.6	461.45	0.00014618	0.00014251	943.95	297.85	244.42	84.74	0.000137	141.88	206.071	305.606	314.182	44.673	213.175	52.889	43.380	49.219	142.377	326.623	47.232	52.707	54.918	57.354	346.157	55.481	-8191	255	
7282.990	1	1	0	0	0.13894	0.19647	0.25182	0.20605	0.22215	0.14206	0.24978	0.20699	0.15426	0.09899	0.14709	0.20946	0.064264	0.063004	0.049353	0.29553	-2.8896	-3.4792	-2.8479	-3.6688	-3.3229	-3.0042	-3.9562	-2.8563	-3.2958	-3.6708	-3.0208	-3.4479	-3.3229	-2.9375	-3.8	-3.175	250.795	242.737	206.477	365.029	74.120	105.962	156.537	79.274	34.568	115.573	172.284	386.520	391.022	343.755	152.402	154.066	0.0004072	0.0018828	0.00066287	352.27	3.5866e-05	1.9156e-05	633.43	136.76	1.188e-05	2.7011e-05	267.46	118.45	54.979	24.956	2.6588e-05	59.814	0.012928	0.012892	0.0034363	1619.5	0.00014561	0.00013856	1560	474.12	0.00014405	0.00014062	941.79	301.61	239.82	83.6	0.00013729	143.66	76.290	290.663	156.559	45.002	355.397	152.862	43.625	50.236	146.819	338.517	48.296	52.553	54.117	57.254	312.077	56.109	-8191	255	
7283.087	1	1	0	0	0.050904	0.24207	0.13819	0.074086	0.14891	0.18385	0.22229	0.0936	0.12991	0.11617	0.065641	0.194	0.24625	0.039493	0.18324	0.23842	-2.8354	-3.7958	-2.7771	-3.475	-3.2729	-2.8042	-3.7938	-2.9625	-2.975	-3.7625	-2.9688	-3.5458	-3.4083	-2.8521	-3.6146	-3.3917	300.649	100.092	363.288	230.322	64.030	183.167	370.931	335.899	308.122	114.436	375.480	340.042	102.737	368.029	358.404	225.217	0.00074305	0.0047065	0.001257	356.92	5.063e-05	2.7653e-05	637.45	135.34	2.3906e-05	3.0648e-05	260.51	117.28	54.694	25.195	3.4303e-05	59.177	0.012566	0.012597	0.0034734	1642.8	0.00014218	0.0001363	1573.6	479.07	0.00014017	0.00013863	962.1	302.13	236.14	82.086	0.00014135	144.14	146.980	282.742	151.197	43.695	38.480	378.858	45.033	49.596	63.597	77.217	48.285	52.408	54.705	58.198	257.339	55.117	-8191	255	
7283.183	1	1	0	0	0.14427	0.030593	0.21418	0.23665	0.22231	0.079249	0.18798	0.067788	0.10485	0.098066	0.1002	0.1534	0.18971	0.243	0.16609	0.22098	-2.625	-3.6833	-2.9813	-3.3563	-3.5833	-2.8458	-3.6854	-3.2104	-3.2125	-3.8	-3.0021	-3.4708	-3.6667	-3.0375	-3.6312	-3.3208	183.777	381.259	378.921	131.083	215.839	96.677	34.939	269.076	224.310	101.444	72.191	96.452	144.566	167.352	239.336	364.378	0.00027295	0.0020673	0.00069464	349.19	2.9893e-05	1.7621e-05	640.96	134.43	2.5035e-05	2.3587e-06	265.91	119.01	55.711	24.962	1.6098e-05	60.447	0.012452	0.012507	0.0036343	1639.4	0.00014146	0.00013478	1612.7	477.39	0.0001385	0.000136	987.91	299.43	233.85	81.941	0.0001454	142.66	322.118	301.206	173.971	44.216	44.281	42.001	44.475	48.338	322.723	239.933	48.004	52.269	53.499	58.571	252.252	55.563	-8191	255	
7283.254	1	1	0	0	0.22479	0.12938	0.067772	0.14003	0.25389	0.20404	0.15353	0.10785	0.088997	0.11561	0.15616	0.22631	0.3177	0.26489	0.12554	0.32789	-2.6417	-3.8688	-2.9042	-3.225	-3.5854	-2.9708	-3.7083	-3.2	-2.9813	-3.6167	-3.1542	-3.1312	-3.5771	-2.875	-3.5667	-3.65	47.664	232.733	312.040	362.061	331.503	333.584	364.333	265.139	333.815	179.652	297.858	384.346	351.485	354.059	233.267	344.165	0.00084762	0.0020391	0.00114	356.51	1.8745e-05	1.1233e-05	641.72	136.67	2.4427e-05	0.00010145	269.13	119.53	56.847	25.295	5.148e-05	59.866	0.01217	0.012419	0.0037409	1616.8	0.00013917	0.0001357	1642.7	471.84	0.00013709	0.0001384	1012.4	296.52	232.12	83.189	0.00014844	141.03	234.049	151.846	93.346	43.969	42.217	173.480	44.423	48.234	85.066	208.473	47.362	52.151	55.408	58.252	273.777	55.672	-8191	255	
7283.373	1	1	0	0	0.1372	0.088996	0.10766	0.086231	0.15833	0.048278	0.20589	0.04657	0.19782	0.030983	0.10703	0.13647	0.11859	0.081834	0.039518	0.13498	-2.5917	-3.6458	-2.8937	-3.0354	-3.7208	-2.9958	-3.5667	-3.5333	-2.8875	-3.5667	-3.2687	-3.1375	-3.8167	-2.9313	-3.3104	-3.5375	243.308	303.516	193.564	266.472	317.376	92.464	329.978	86.720	207.309	275.950	135.061	35.998	43.783	373.720	372.827	360.261	0.0004332	0.00448	0.00057183	348.13	2.9874e-05	3.6225e-05	638.18	133.21	2.2525e-05	4.1016e-05	261.93	118.64	56.033	25.745	1.8144e-05	58.95	0.01195	0.01261	0.0037647	1578.3	0.00013643	0.00013889	1636.3	461.62	0.00013284	0.00014051	1000.8	289.57	226.84	85.061	0.00014541	138.91	270.502	133.558	352.032	42.677	82.294	183.354	43.837	49.417	124.837	304.681	48.049	52.003	54.389	58.190	312.245	55.664	-8191	255	
7283.469	1	1	0	0	0.035721	0.11004	0.16562	0.30269	0.10968	0.28478	0.12352	0.21852	0.23437	0.11612	0.14322	0.13866	0.21203	0.24903	0.087047	0.17558	-2.4667	-3.6542	-3.2625	-3.1021	-3.6521	-2.8229	-3.3896	-3.6833	-2.8646	-3.6896	-3.3438	-3.075	-3.9625	-3.0167	-3.2542	-3.7083	269.614	40.379	285.742	195.586	79.056	72.193	286.776	76.845	35.482	162.518	386.897	245.587	252.684	98.771	64.088	338.533	0.00030252	0.0022864	0.00056593	357.62	1.4749e-05	7.2345e-05	638.51	135.73	2.7937e-06	1.7479e-05	263.9	117.38	55.667	25.16	2.3702e-05	60.1	0.011798	0.013071	0.0037333	1557.4	0.00013408	0.00014356	1612.8	458.07	0.00013241	0.0001449	989.5	288.13	227.14	87.156	0.00014378	138.58	176.637	132.555	368.956	42.682	193.490	218.904	43.465	49.231	111.217	234.821	47.365	52.226	55.113	57.960	140.666	55.347	-8191	255	
7283.566	1	1	0	0	0.18018	0.13164	0.025578	0.1523	0.27876	0.23868	0.14126	0.090256	0.14275	0.034976	0.15252	0.15799	0.31567	0.35999	0.021355	0.057674	-2.4062	-3.4771	-3.4062	-2.8104	-3.8583	-3.0833	-3.4938	-3.8937	-2.9479	-3.5938	-3.4188	-2.7979	-3.7229	-3.3729	-3.2729	-3.8667	246.762	292.055	284.456	78.056	299.089	99.148	310.178	304.423	374.954	47.832	50.013	242.064	342.483	369.441	225.402	247.492	0.0013998	0.00074638	0.00050241	360.15	1.8987e-05	5.325e-05	645.19	135.42	3.6815e-05	3.5703e-05	256.51	118.96	56.5	25.847	1.835e-05	60.19	0.011989	0.013484	0.0036887	1547.1	0.0001372	0.00014826	1601.5	455.21	0.00013638	0.00014838	985.29	287.91	234.25	88.715	0.00014173	138.03	230.025	40.175	326.067	43.678	189.201	231.361	43.704	48.864	227.968	380.322	47.134	52.552	55.732	58.048	89.789	54.699	-8191	255	
7283.686	1	1	0	0	0.18144	0.20778	0.1256	0.11729	0.1739	0.11152	0.092218	0.2393	0.017915	0.13142	0.0035804	0.21751	0.25593	0.24909	0.23617	0.16608	-2.4396	-3.3479	-3.2438	-2.7167	-3.5875	-3.2958	-3.1	-3.9167	-2.9729	-3.6917	-3.5458	-2.825	-3.6479	-3.3	-3.2208	-3.9083	227.077	76.130	76.778	86.971	217.861	81.596	370.805	320.720	117.650	251.822	227.772	298.905	182.338	364.039	48.271	314.086	0.0013813	0.0014182	0.00022843	353.17	6.8082e-05	1.8345e-05	640.7	136.7	3.5254e-05	3.6572e-05	260.46	118.41	57.023	25.084	2.1546e-05	59.492	0.012432	0.013589	0.003645	1535.4	0.00014204	0.0001492	1592.4	453.79	0.00014303	0.00014765	977.97	284.66	240.67	87.858	0.00014004	136.43	213.897	254.516	58.228	44.234	206.574	39.427	43.329	48.521	310.893	358.309	46.313	52.323	55.966	57.126	154.842	55.167	-8191	255	
7283.782	1	1	0	0	0.17667	0.12272	0.17968	0.2366	0.1215	0.075634	0.42668	0.17321	0.064988	0.046161	0.16917	0.17431	0.081825	0.23734	0.125	0.068202	-2.6542	-3.4167	-3.8292	-3.0833	-3.6292	-3.2292	-3.1854	-3.8187	-3.2562	-3.3458	-3.5958	-2.8125	-3.6937	-3.5062	-2.8375	-3.9333	238.727	261.940	40.745	354.137	152.872	343.279	289.334	124.030	35.474	333.678	334.026	382.101	63.919	385.763	272.977	316.974	0.00084699	0.0026014	0.0012285	351.48	3.5081e-05	5.3422e-05	627.24	136.26	9.6184e-06	7.4164e-06	260.72	119.31	56.623	24.929	1.3294e-05	59.749	0.01286	0.013225	0.0035842	1528.7	0.00014609	0.00014571	1572.2	452.73	0.00014713	0.0001456	970.48	288.72	246.01	87.371	0.00013872	138.92	194.097	300.993	56.845	45.446	180.586	33.424	44.069	49.279	197.576	350.000	46.731	52.709	55.082	56.733	148.377	55.921	-8191	255	
7283.854	1	1	0	0	0.06945	0.29111	0.071315	0.077662	0.25379	0.21772	0.17164	0.16982	0.17467	0.18821	0.10405	0.3079	0.12767	0.14103	0.32076	0.20338	-2.6896	-3.25	-3.7292	-2.8792	-3.4271	-3.3625	-3.0708	-3.7562	-3.275	-3.1375	-3.85	-3.0083	-3.675	-3.7208	-2.7812	-3.8083	327.841	384.514	97.644	91.244	330.143	130.837	321.822	347.000	311.607	231.558	132.995	359.991	313.464	254.659	363.294	361.267	0.00083055	0.0017711	0.00045799	357.2	1.7862e-05	3.3985e-05	641.14	136.21	1.3202e-05	1.5784e-05	266.35	118.57	55.528	25.292	4.1672e-05	60.272	0.013292	0.013156	0.0035703	1569.1	0.00014914	0.00014449	1563.8	462.5	0.00014825	0.00014187	958.52	293.86	245.24	85.89	0.0001361	141.4	160.473	347.271	111.077	44.646	269.660	386.899	43.389	50.222	38.380	345.672	46.670	52.740	54.746	57.581	45.412	56.060	-8191	255	
7283.975	1	1	0	0	0.16863	0.17556	0.2579	0.19839	0.28677	0.11666	0.26327	0.022351	0.21299	0.10756	0.018526	0.087869	0.084779	0.074446	0.23741	0.16793	-2.9625	-2.8167	-3.5625	-3.0438	-3.5875	-3.5333	-3.0729	-3.8167	-3.2542	-3.0271	-3.8208	-2.8604	-3.1375	-3.5271	-2.7938	-3.6813	128.078	101.637	290.385	107.198	294.701	49.481	355.352	296.301	293.156	323.920	225.698	319.978	294.499	275.207	82.570	359.656	0.00049975	0.0016118	0.00059682	360.02	1.5183e-05	1.3224e-05	643.84	137.53	4.5051e-06	5.6201e-05	269.69	119.58	56.017	25.3	2.4338e-05	60.672	0.013086	0.012792	0.0035004	1608.8	0.00014602	0.00014101	1550.4	473.2	0.00014575	0.00013915	946.89	299.21	238.59	84.471	0.00013397	143.25	147.617	319.224	188.277	44.188	355.622	364.231	44.085	50.408	93.664	67.498	47.794	52.646	53.027	57.716	245.331	56.473	-8191	255	
7284.071	1	1	0	0	0.078791	0.096019	0.12301	0.11511	0.08547	0.13412	0.17468	0.039258	0.28221	0.21304	0.084734	0.074759	0.035997	0.079585	0.20551	0.040167	-2.7958	-2.8354	-3.8063	-3.1833	-3.2438	-3.8854	-3.15	-3.6542	-3.4083	-2.9125	-3.8354	-3.2208	-3.4188	-3.7458	-2.7979	-3.7604	146.613	105.140	299.790	349.677	32.967	170.658	341.981	277.503	133.201	250.884	196.707	240.505	377.416	123.736	272.644	254.573	0.00045501	0.0045934	0.00090308	357.12	4.7572e-05	2.6592e-05	637.19	136.68	3.1037e-05	4.4911e-05	266.86	119.82	55.297	24.911	6.4061e-05	60.234	0.012656	0.012484	0.0034686	1630.3	0.00014188	0.00013898	1550.7	476.64	0.00014192	0.00013541	951.26	300.41	232.75	82.425	0.00013624	142.06	220.184	346.507	195.227	44.793	74.734	300.157	44.161	48.673	348.829	60.120	47.889	52.529	54.340	57.423	236.065	55.432	-8191	255	
7284.167	1	1	0	0	0.12457	0.16318	0.078317	0.030529	0.15538	0.15135	0.14449	0.022177	0.097083	0.084226	0.13582	0.30127	0.088339	0.11609	0.1425	0.1525	-3.1708	-2.9062	-3.7229	-3.175	-3.0021	-3.5958	-2.8	-3.4333	-3.4458	-2.9292	-3.7854	-3.2812	-3.0125	-3.9042	-3.0646	-3.4938	218.691	287.454	89.092	316.483	263.241	339.479	335.121	289.476	388.235	57.050	371.133	146.805	331.495	157.461	351.350	46.498	0.00037148	0.0038773	0.0013659	359.58	2.274e-05	1.768e-05	634.64	136.12	1.5651e-05	2.4976e-05	272.8	118.15	55.669	25.097	2.0609e-05	60.629	0.012345	0.012155	0.0035317	1618.8	0.00013715	0.00013416	1571.4	470.66	0.00013794	0.00013192	966.51	297.33	227.66	81.53	0.00014034	140.91	297.896	295.135	188.100	44.542	206.351	308.686	44.903	48.487	40.457	130.921	49.290	52.602	53.260	57.231	276.469	55.494	-8191	255	
7284.288	1	1	0	0	0.26527	0.078177	0.098437	0.16296	0.28386	0.20181	0.030953	0.10077	0.33623	0.29067	0.34377	0.23386	0.19187	0.071577	0.056035	0.19223	-3.0396	-2.5354	-3.5687	-3.2792	-3.0938	-3.7625	-3.05	-3.3771	-3.475	-2.7292	-3.8333	-3.3875	-2.9813	-3.6813	-3.0208	-3.3604	276.881	179.935	195.136	279.562	278.286	73.766	154.408	67.920	302.123	374.965	80.790	365.934	234.130	288.887	360.129	308.868	0.00017701	0.0028237	0.0011811	351.14	8.0291e-06	3.5233e-05	639.61	136.96	1.5524e-05	8.0778e-05	266.8	117.51	55.145	25.592	9.6428e-06	59.947	0.012062	0.011943	0.0036013	1592.5	0.00013389	0.00013232	1594.9	460.36	0.00013495	0.00013146	985.09	293.89	225.56	81.734	0.00014437	139.16	317.876	170.867	255.272	43.836	180.545	158.709	44.395	49.390	368.596	242.511	48.195	52.134	54.597	57.176	214.220	55.780	-8191	255	
7284.382	1	1	0	0	0.11545	0.066013	0.049477	0.074438	0.026292	0.13718	0.25525	0.24483	0.12462	0.28098	0.1823	0.28386	0.29291	0.19568	0.13188	0.14234	-3.3063	-2.8083	-3.7167	-3.5	-2.9542	-3.8187	-3.1667	-3.2125	-3.7792	-2.8208	-3.65	-3.4938	-2.8792	-3.6792	-3.3854	-3.225	105.386	318.802	245.735	58.069	370.649	320.555	318.804	269.267	281.441	221.612	345.144	336.478	223.996	366.883	62.120	94.324	0.00035066	0.0026512	0.00051634	348.51	3.8128e-05	2.9336e-05	640.07	138.28	2.0886e-05	6.276e-05	268.63	116.98	54.468	25.647	8.6376e-06	59.395	0.011995	0.012204	0.0036945	1579.1	0.00013275	0.00013576	1622.6	456.5	0.00013372	0.00013523	990.32	289.84	221.42	83.329	0.00014458	136.92	200.119	169.510	144.975	42.833	339.310	225.571	43.866	49.544	356.941	216.348	48.064	52.478	55.002	58.997	282.838	56.060	-8191	255	
7284.478	1	1	0	0	0.094862	0.048673	0.34646	0.13813	0.25444	0.23915	0.16965	0.040724	0.09938	0.25158	0.25089	0.13717	0.042259	0.16436	0.16878	0.14422	-3.2333	-2.7917	-3.3063	-3.5125	-2.9292	-3.7208	-3.4333	-3.1208	-3.7896	-2.9146	-3.5021	-3.8292	-3.1083	-3.7833	-3.475	-3.1208	52.325	158.257	139.327	258.490	326.565	98.589	56.088	385.248	146.704	198.756	275.689	78.829	272.539	271.966	306.070	353.872	0.0001958	0.0027845	0.00025686	355.82	2.8326e-05	3.326e-05	638.4	135.63	1.6715e-05	5.2412e-05	259.64	116.07	53.593	25.445	5.6048e-05	59.547	0.011759	0.012596	0.0036731	1563	0.00013117	0.00014054	1614.3	449.88	0.00013247	0.00014096	979.76	286.27	220.57	85.02	0.00014247	135.47	219.663	132.398	391.471	43.965	43.458	203.886	43.931	49.458	175.188	228.084	46.983	52.564	55.370	59.183	69.189	55.659	-8191	255	
7284.574	1	1	0	0	0.073753	0.13639	0.069469	0.17449	0.16735	0.1691	0.14052	0.16764	0.096766	0.16749	0.24597	0.22604	0.19977	0.094999	0.27191	0.20993	-3.3063	-2.8958	-3.3833	-3.7062	-2.9792	-3.5708	-3.4	-2.9125	-3.7979	-3.1208	-3.2833	-3.9313	-2.8292	-3.6583	-3.4708	-3.2812	185.308	139.701	333.444	130.371	101.443	386.286	297.233	282.933	115.438	166.998	282.523	283.858	353.422	57.179	313.797	82.624	0.0004955	0.0052722	0.00025236	353.42	7.3293e-06	4.1922e-05	629.82	133.6	2.3093e-05	2.867e-05	265.87	116.62	54.551	25.123	3.9744e-06	60.146	0.011727	0.013001	0.0035836	1535.1	0.00013093	0.00014287	1585.1	443.97	0.0001323	0.00014379	957.84	284.58	223.73	86.292	0.00013909	134.26	188.072	158.953	320.527	43.164	234.413	184.896	44.384	49.608	276.611	157.679	47.014	52.374	54.351	58.823	221.349	55.669	-8191	255	
7284.670	1	1	0	0	0.25438	0.16623	0.17593	0.052471	0.084174	0.22598	0.31258	0.10935	0.21193	0.19796	0.068178	0.19403	0.26564	0.14133	0.1342	0.10556	-3.3667	-3.1146	-3.0333	-3.7021	-2.8958	-3.55	-3.4042	-2.9583	-3.7979	-3.2396	-3.1688	-3.8917	-3.0771	-3.5083	-3.4917	-3.1063	129.259	44.718	362.385	373.332	36.408	343.539	321.912	264.970	58.229	285.068	86.339	303.869	271.975	312.081	380.326	99.167	0.00098398	0.0030968	0.0011347	356.74	3.8565e-05	1.2104e-05	638.3	137.24	2.6101e-05	1.2274e-05	263.87	117.87	55.622	25.214	1.8839e-05	60.336	0.011841	0.01312	0.003485	1508	0.00013348	0.000142	1560.1	435.99	0.00013556	0.00014337	943.7	281	229.09	85.597	0.00013746	133.28	231.244	154.787	338.023	44.645	201.902	370.878	43.576	48.896	264.214	70.136	47.690	52.258	54.760	57.114	299.484	55.607	-8191	255	
7284.767	1	1	0	0	0.048957	0.15238	0.18755	0.11459	0.16367	0.18622	0.083321	0.10912	0.13196	0.2372	0.23295	0.10532	0.26836	0.17099	0.046697	0.1402	-3.3979	-3.2792	-2.9875	-3.7479	-2.9375	-3.4958	-3.85	-2.8354	-3.7771	-3.3583	-3.0417	-3.7062	-2.9854	-3.0625	-3.6312	-2.9729	390.863	334.812	140.542	165.026	117.310	122.621	140.649	39.843	275.141	374.681	293.497	137.497	43.263	45.069	87.725	298.310	0.00057733	0.0035621	0.00071261	352.31	3.876e-05	2.9355e-05	640.58	135.17	1.1232e-05	1.0591e-05	265.35	116.01	55.438	24.935	5.2836e-06	59.029	0.012303	0.012968	0.0034433	1495.4	0.00013901	0.00014093	1552.9	436.32	0.00014037	0.00014163	933.45	280.26	235.38	83.972	0.00013508	132.91	280.896	80.141	120.082	42.914	222.906	378.944	43.870	50.294	363.939	370.122	46.903	52.726	55.118	58.082	305.250	56.242	-8191	255	
7284.863	1	1	0	0	0.18583	0.17228	0.19085	0.11273	0.15727	0.24554	0.27653	0.097034	0.19845	0.10123	0.33313	0.10574	0.20948	0.037006	0.15372	0.10535	-3.3458	-3.4771	-2.9292	-3.7458	-2.9854	-2.9938	-3.7	-2.8417	-3.5417	-3.3688	-3.0646	-3.675	-3.0229	-3.3042	-3.8542	-2.9729	208.966	101.846	77.493	171.135	219.785	193.773	392.509	261.614	293.441	41.337	53.884	309.931	392.512	142.930	107.435	117.150	0.0003896	0.0049541	0.00013671	359.87	3.7704e-05	2.7647e-05	632.02	137.17	3.8025e-05	5.9998e-05	258.45	116.98	54.827	25.445	1.24e-05	59.293	0.01253	0.012716	0.0033598	1504.6	0.00014146	0.00013649	1531	441	0.00014221	0.00013799	917.85	283.58	237.45	82.845	0.00013336	135.65	171.798	304.932	289.476	44.345	257.037	43.370	43.748	50.515	186.955	390.647	47.848	53.005	54.600	57.413	379.061	56.194	-8191	255	
7284.959	1	1	0	0	0.18254	0.27434	0.1319	0.19152	0.032256	0.21719	0.11579	0.28083	0.18614	0.13161	0.21867	0.12856	0.51755	0.18238	0.11236	0.16057	-3.1542	-3.5687	-2.9875	-3.575	-3.2146	-3.0271	-3.7021	-3.1125	-3.4042	-3.5875	-2.8396	-3.8063	-3.4104	-3.0604	-3.6562	-3.0833	216.055	46.774	211.337	34.837	55.229	196.984	224.288	76.629	344.011	87.164	129.077	290.260	73.491	209.083	290.069	193.311	0.00065288	0.0018155	0.00066502	354.05	5.8572e-06	5.7433e-06	633.62	136.85	1.5539e-05	2.7618e-05	261.43	118.65	54.898	25.47	1.4194e-05	60.259	0.012551	0.01248	0.0033245	1540	0.00014226	0.00013485	1517.9	452.48	0.0001404	0.00013651	913.04	291.21	235.72	82.246	0.00013199	139.27	233.006	309.683	200.011	44.606	204.319	203.014	43.543	50.482	50.556	45.117	46.900	53.361	55.003	58.529	162.041	56.176	-8191	255	
7285.080	1	1	0	0	0.091052	0.20419	0.17224	0.10324	0.32957	0.069921	0.19929	0.068818	0.20157	0.27821	0.32108	0.056721	0.35524	0.18282	0.19886	0.065295	-2.9562	-3.6	-2.8958	-3.8708	-3.2562	-3.0062	-3.7562	-2.9104	-3.0208	-3.4188	-2.9208	-3.7438	-3.2	-2.8646	-3.6229	-3.1417	387.779	70.255	268.651	359.285	384.427	197.543	316.702	342.868	219.501	357.742	385.215	335.195	128.971	137.586	329.726	378.976	0.00015867	0.003434	0.00020992	357.07	4.0597e-05	3.09e-05	637.47	136.66	2.0058e-05	7.0628e-05	263.57	118.79	54.863	25.133	3.4666e-05	59.749	0.01237	0.012347	0.0033112	1579.6	0.0001394	0.00013331	1530.2	465.58	0.00013891	0.00013628	926.82	297	234.53	82.082	0.00013508	141.76	345.059	53.409	51.450	43.828	98.871	43.641	43.837	50.345	75.504	86.990	47.120	52.982	54.338	57.013	186.312	55.579	-8191	255	
7285.151	1	1	0	0	0.24995	0.085361	0.28409	0.15771	0.13798	0.13843	0.13146	0.1417	0.14692	0.093535	0.11617	0.12756	0.14336	0.13627	0.20023	0.041964	-2.7729	-3.5896	-2.9208	-3.6667	-3.5292	-2.9562	-3.8042	-3.3375	-3.1625	-3.7458	-2.7771	-3.3771	-3.4896	-2.7854	-3.6542	-3.1521	55.283	337.291	376.867	92.040	144.267	262.650	272.466	97.582	115.535	267.308	135.866	33.284	310.229	150.049	93.802	345.800	0.00019266	0.0033806	0.00068593	349.42	3.1629e-05	3.216e-05	636.06	136.13	1.6069e-05	9.1951e-06	259.56	116.37	54.694	25.312	4.4324e-05	59.276	0.012226	0.012294	0.0034388	1613.8	0.00013851	0.00013236	1551.3	469.69	0.0001361	0.00013403	943.71	294.4	228.71	80.312	0.00013818	140.48	225.508	344.833	156.671	44.002	340.140	89.335	44.372	49.906	35.535	33.798	48.644	52.264	54.760	58.268	298.789	55.289	-8191	255	
7285.247	1	1	0	0	0.22782	0.15867	0.093763	0.27371	0.13523	0.22519	0.030107	0.12721	0.099882	0.061147	0.055158	0.16592	0.10496	0.077869	0.13095	0.10935	-2.5187	-3.5833	-2.8104	-3.2896	-3.4479	-2.8958	-3.8625	-3.2896	-3	-3.85	-2.9604	-3.4625	-3.7021	-2.5854	-3.6	-3.3292	372.801	167.214	253.235	317.069	362.110	320.743	265.875	386.882	93.863	88.440	232.750	95.397	94.084	185.447	57.094	305.858	0.00028076	0.0028521	0.0013872	347.72	1.8309e-05	1.839e-05	628.51	135.05	3.9509e-05	1.7393e-05	261.65	116.05	53.97	25.413	4.3193e-05	59.478	0.011933	0.012034	0.0035327	1587.8	0.00013534	0.00013014	1577.7	460.99	0.00013255	0.00013061	959.4	288.06	224.8	79.45	0.00014014	137.76	351.013	259.216	178.299	43.430	379.080	45.501	44.839	49.167	117.709	157.870	47.975	52.626	55.122	58.350	231.923	55.565	-8191	255	
7285.368	1	1	0	0	0.084205	0.19134	0.10954	0.21252	0.10394	0.23844	0.11297	0.18854	0.19911	0.12443	0.053727	0.2057	0.39988	0.22498	0.21648	0.12508	-2.3958	-3.6437	-3.0917	-3.1312	-3.6875	-2.9417	-3.8771	-3.3646	-2.8958	-3.7854	-3.1604	-3.1542	-3.7708	-2.9375	-3.3937	-3.4813	374.909	260.142	194.559	376.357	292.658	60.851	353.659	371.037	131.874	388.827	256.019	369.396	371.477	341.722	33.123	90.267	0.00041598	0.001815	0.0010845	347.79	1.4737e-05	5.9029e-05	633.01	136.9	2.5553e-05	1.3725e-05	259.55	116.94	53.808	25.849	3.2635e-05	59.631	0.01163	0.011975	0.0036114	1549.1	0.00013339	0.0001311	1599.6	457.55	0.00013167	0.00013496	986.3	288.91	225.72	82.68	0.00014543	139.37	164.189	302.776	223.603	44.081	36.997	226.685	44.406	48.561	163.274	40.450	48.516	52.769	53.981	59.087	42.006	55.694	-8191	255	
7285.462	1	1	0	0	0.030093	0.23967	0.014905	0.1015	0.070542	0.15427	0.20252	0.12508	0.14605	0.14889	0.2777	0.19831	0.07445	0.10631	0.15143	0.13406	-2.3125	-3.4583	-3.0771	-3.1833	-3.8438	-3.0646	-3.3667	-3.5604	-3.0396	-3.6437	-3.25	-2.9458	-3.6542	-2.9896	-3.425	-3.6646	222.334	318.983	128.498	39.423	42.433	318.824	42.791	293.172	127.628	269.353	356.974	372.793	299.691	362.360	386.266	265.406	0.00039752	0.0056259	0.00049286	348.2	5.0143e-05	4.1734e-05	628.1	136.86	1.8292e-05	4.7438e-05	254.34	115.72	54.891	25.889	2.3888e-05	59.814	0.011763	0.012586	0.0037278	1557.5	0.00013468	0.00013834	1616.2	457.42	0.00013133	0.00014049	994.1	287.13	226.01	85.389	0.00014498	138.48	162.709	127.509	252.658	43.683	39.572	240.931	43.915	49.427	168.496	205.444	47.878	51.903	53.399	58.424	106.929	55.125	-8191	255	
7285.559	1	1	0	0	0.16637	0.13137	0.12312	0.015269	0.24157	0.21324	0.025567	0.11167	0.18928	0.061103	0.030421	0.24233	0.20814	0.093822	0.1324	0.10451	-2.35	-3.5583	-3.0042	-2.8125	-3.7042	-2.8333	-3.2083	-3.6188	-2.825	-3.6688	-3.2083	-3.0062	-3.7062	-2.9396	-3.2229	-3.8	146.194	148.141	78.758	381.743	288.972	118.907	385.106	46.728	226.535	58.375	375.957	346.090	221.713	121.090	345.776	292.825	0.00044929	0.0046461	0.00033436	348.82	1.4176e-05	5.3587e-05	632.01	133.9	4.8672e-05	2.6759e-05	257.08	116.13	55.839	25.764	1.6157e-05	59.55	0.011745	0.013129	0.0037006	1542.5	0.00013347	0.00014287	1587.5	451.21	0.00013084	0.00014356	969.57	283.28	225.52	87.056	0.00014078	136.59	219.762	144.756	66.271	44.912	97.404	194.810	43.370	49.259	239.319	188.200	47.036	53.117	54.561	57.853	344.707	54.680	-8191	255	
7285.655	1	1	0	0	0.12677	0.18829	0.12746	0.19624	0.14109	0.094894	0.26051	0.21096	0.069602	0.11236	0.12165	0.052331	0.18857	0.20127	0.32143	0.16045	-2.4813	-3.6188	-3.4083	-3.0083	-3.6896	-3.2062	-3.1604	-3.8667	-3.0792	-3.4333	-3.3729	-2.9313	-3.6729	-2.9583	-3.0083	-3.7354	238.164	299.884	284.784	60.218	151.241	199.256	336.814	56.360	315.968	199.459	389.566	34.308	268.376	33.834	68.613	332.005	0.0012206	0.003449	0.000694	352.73	1.5587e-05	1.0507e-05	632.03	136.08	5.7625e-05	2.9681e-05	257.04	116.23	57.506	25.863	4.3532e-05	60.171	0.011846	0.013263	0.0036222	1521.3	0.00013643	0.0001457	1570.6	446.73	0.00013543	0.00014517	962.28	281.5	231.06	87.179	0.00013795	135.68	260.871	126.003	329.882	44.890	186.699	177.776	43.823	48.401	235.485	261.173	47.596	52.478	55.097	57.429	388.881	55.805	-8191	255	
7285.751	1	1	0	0	0.12744	0.04699	0.047205	0.17194	0.34701	0.11771	0.32456	0.063563	0.088512	0.13176	0.086735	0.22639	0.093283	0.16472	0.080028	0.065966	-2.5062	-3.475	-3.5583	-2.9	-3.65	-3.0917	-3.0062	-3.7875	-2.7042	-3.2271	-3.6458	-2.8688	-3.6896	-3.3333	-2.9792	-3.6271	344.969	144.766	128.594	82.801	132.280	352.819	380.822	127.754	136.674	357.558	88.086	301.908	337.404	388.514	375.854	336.813	0.00093466	0.0002984	0.00070201	348.04	7.7419e-05	3.2796e-05	629.44	137.14	3.8964e-05	2.5069e-05	260.36	118.12	55.8	25.746	1.2829e-05	60.544	0.012214	0.013187	0.0035388	1502.4	0.00013997	0.00014549	1560.5	445.6	0.00014072	0.00014424	958.06	282.56	237.87	86.745	0.00013636	135.79	209.552	151.497	91.906	44.480	233.867	73.736	43.931	49.594	203.520	385.469	48.014	52.928	56.498	57.127	355.863	56.133	-8191	255	
7285.847	1	1	0	0	0.1409	0.19444	0.20728	0.074071	0.095233	0.077369	0.048042	0.30246	0.16071	0.049073	0.094148	0.089991	0.26336	0.23822	0.081298	0.19805	-2.575	-3.3292	-3.4417	-2.8479	-3.6625	-3.2875	-2.8604	-3.8521	-3.1604	-3.375	-3.8063	-2.7938	-3.5271	-3.3667	-2.9583	-3.7083	198.576	323.267	100.763	294.175	238.243	281.655	259.647	327.652	92.855	254.509	323.169	245.653	94.733	303.846	327.108	165.048	0.001646	0.0033923	0.00019911	347.96	2.7681e-05	5.1374e-05	629.66	136.02	4.5801e-05	1.3202e-05	262.02	117.55	56.272	25.148	2.5024e-05	59.721	0.012647	0.012923	0.0035022	1506.1	0.00014386	0.00014208	1544.3	446.62	0.00014434	0.00014122	947.33	283.55	240.98	85.18	0.00013427	136.52	221.687	369.176	311.239	44.612	218.399	57.484	44.200	50.162	223.897	170.384	47.682	53.040	53.495	57.858	72.728	56.235	-8191	255	
7285.968	1	1	0	0	0.069333	0.19324	0.14288	0.13543	0.013865	0.11016	0.27408	0.15725	0.23018	0.030316	0.1151	0.15934	0.20985	0.17407	0.23889	0.11365	-2.5625	-3.0979	-3.7146	-2.8438	-3.3542	-3.4188	-2.8042	-3.5542	-3.2	-2.9417	-3.6896	-2.9646	-3.3167	-3.5917	-2.8417	-3.7125	347.976	310.982	124.600	298.097	211.518	350.002	381.964	363.574	242.147	227.514	229.278	144.801	383.774	73.424	290.422	101.998	0.00054792	0.0015896	0.00058109	356.68	1.0536e-05	2.1559e-05	633.81	134.14	1.6625e-05	6.3222e-05	258.34	118.67	54.952	25.511	4.0472e-05	60.342	0.012795	0.012563	0.0034192	1530.4	0.00014279	0.00013775	1510.5	449.76	0.00014153	0.00013582	922.43	286.97	236.06	83.498	0.00013005	138.81	248.008	291.760	239.649	45.249	137.245	274.659	44.192	49.520	303.286	110.352	48.062	53.032	54.226	58.084	129.139	56.213	-8191	255	
7286.064	1	1	0	0	0.19826	0.099953	0.12876	0.17183	0.26848	0.3346	0.17303	0.094378	0.15599	0.099587	0.078864	0.16622	0.29703	0.247	0.18082	0.09726	-2.8312	-2.7333	-3.5125	-2.9292	-3.3875	-3.5771	-2.9333	-3.5625	-3.3167	-2.5708	-3.4688	-2.9083	-3.3375	-3.7313	-2.9583	-3.6979	157.828	32.704	339.687	332.626	191.813	134.422	378.181	339.119	80.062	312.703	41.640	273.966	353.170	51.428	186.156	234.729	0.00022813	0.0044993	0.00043503	360.84	2.8327e-05	4.4373e-05	626.79	136.36	1.7321e-05	1.4451e-05	264.86	118.02	55.03	25.426	2.6394e-05	60.642	0.012563	0.012291	0.0033609	1560.6	0.00013999	0.00013547	1508.4	460.8	0.00014029	0.00013378	924.88	293.08	232.21	82.715	0.00013095	140.99	266.409	380.907	36.090	45.818	347.874	362.911	44.626	50.046	260.710	128.608	47.954	53.139	53.782	58.326	227.604	56.176	-8191	255	
7286.160	1	1	0	0	0.1463	0.14303	0.15613	0.064381	0.054345	0.090991	0.1085	0.17551	0.1412	0.097916	0.11976	0.16553	0.32779	0.26481	0.21803	0.074029	-2.9771	-2.8563	-3.6729	-3.0792	-3.1604	-3.7396	-3.0042	-3.6208	-3.3688	-2.8521	-3.7542	-3.0208	-2.9271	-3.6646	-2.7771	-3.7083	140.712	352.010	372.302	120.758	46.028	102.863	303.590	256.345	120.278	290.750	126.947	370.474	210.745	53.421	317.250	216.928	0.00012516	0.0041011	0.00097429	345.66	2.3811e-05	5.5986e-05	634.86	137.02	9.1884e-06	3.4138e-05	264.4	116.92	55.014	25.951	5.8433e-05	60.568	0.01225	0.012059	0.0033954	1597.6	0.00013736	0.00013434	1529	467.92	0.00013782	0.00013248	938.22	296.1	227.77	81.533	0.00013384	140.33	103.378	287.216	131.935	44.923	103.388	32.656	44.517	49.179	108.236	175.478	48.445	52.151	53.489	56.695	272.753	55.142	-8191	255	
7286.254	1	1	0	0	0.075534	0.2298	0.19731	0.15325	0.10694	0.19757	0.06417	0.11421	0.022347	0.31571	0.084807	0.1476	0.22966	0.1644	0.27053	0.057176	-3.1312	-2.7958	-3.5625	-3.0812	-2.9375	-3.7104	-2.9125	-3.4792	-3.65	-2.9625	-3.725	-3.3417	-3.0604	-3.5396	-2.8312	-3.3167	215.447	356.327	165.877	271.279	112.488	237.590	135.306	73.475	250.913	236.000	34.105	84.006	334.598	234.057	57.538	165.462	0.00051388	0.00061054	0.00055843	347.89	1.2515e-05	1.2554e-05	632.55	137.46	1.7611e-05	8.8342e-06	264.01	115.36	55.179	25.608	5.3235e-05	59.85	0.011929	0.011727	0.0034345	1571.1	0.00013202	0.00012895	1539	455.76	0.00013252	0.00012749	944.66	289.34	222.64	80.115	0.00013734	137.82	133.461	131.125	177.090	42.891	323.306	31.221	44.552	48.852	69.851	173.980	47.741	51.995	52.821	57.771	249.896	55.192	-8191	255	
7286.375	1	1	0	0	0.012158	0.23396	0.14195	0.077717	0.21661	0.19402	0.20053	0.22937	0.27515	0.11633	0.15805	0.096613	0.29695	0.33619	0.27875	0.16691	-3.1875	-2.9125	-3.725	-3.4542	-2.8771	-3.625	-3.075	-3.3021	-3.7687	-2.7729	-3.6625	-3.2833	-3.0292	-3.7062	-3.1229	-3.3646	56.949	272.052	195.833	55.352	233.859	40.854	96.497	191.693	71.587	177.668	47.076	290.427	175.300	356.203	271.215	38.656	0.00024094	0.0032048	0.0011795	350.66	1.5866e-05	3.2641e-05	633.05	133.85	3.4298e-05	2.2507e-05	260.15	115.96	54.782	25.676	3.2477e-05	60.359	0.011742	0.011689	0.003537	1551.7	0.00012994	0.00012936	1564.9	448.98	0.0001306	0.0001284	958.24	285.47	218.72	80.698	0.00013971	136.13	126.460	267.690	197.539	43.732	308.040	185.578	44.671	49.725	389.028	318.552	47.747	51.809	53.605	59.199	195.835	54.936	-8191	255	
7286.447	1	1	0	0	0.42998	0.19708	0.24573	0.1352	0.16192	0.067007	0.34896	0.19625	0.12707	0.098565	0.14719	0.29504	0.13016	0.27625	0.14723	0.08199	-3.3979	-2.6958	-3.5958	-3.3542	-2.8521	-3.6958	-3.0417	-3.15	-3.6	-2.7062	-3.5729	-3.5646	-2.8771	-3.7	-3.1375	-3.2583	64.879	221.685	307.871	314.992	68.649	298.458	343.438	189.264	205.154	207.357	230.035	312.020	41.995	377.122	206.352	283.943	0.00040344	0.0012151	0.0004919	350.81	3.7563e-05	4.2619e-05	631.39	135.6	3.5337e-05	5.5168e-05	260.77	118.02	56.363	26.41	1.4048e-05	60.852	0.011507	0.011841	0.0035794	1520.9	0.00012794	0.00013207	1580.5	441.69	0.00012826	0.00013168	962.59	282.83	216.06	82.187	0.00013913	134.64	189.060	147.398	262.204	44.241	121.922	208.445	43.483	49.131	69.170	268.394	47.501	52.088	55.154	58.917	124.340	55.438	-8191	255	
7286.543	1	1	0	0	0.10504	0.21386	0.11576	0.20956	0.20108	0.033778	0.26686	0.15943	0.072284	0.13827	0.075791	0.030448	0.13485	0.1257	0.22617	0.20366	-3.5125	-2.9146	-3.1625	-3.425	-2.6937	-3.4896	-3.0521	-3.1542	-3.8125	-2.9104	-3.25	-3.5417	-2.9396	-3.5604	-3.0875	-2.975	125.575	163.650	361.420	322.976	73.984	258.716	299.136	329.354	341.337	99.599	44.727	344.584	80.617	378.097	150.693	356.985	0.00054727	0.0049052	0.00047765	352.13	2.4594e-05	1.8861e-05	633.5	136.2	2.1298e-05	8.5074e-05	260.02	117.35	55.39	25.836	1.1704e-05	60.556	0.011358	0.012298	0.0035378	1511.6	0.00012642	0.00013715	1569.9	438.96	0.00012816	0.00013726	948.12	280.13	215.09	83.839	0.00013666	132.51	249.465	104.285	93.899	44.307	208.106	165.008	44.346	48.530	349.806	206.371	47.209	52.415	54.961	58.572	339.477	55.219	-8191	255	
7286.639	1	1	0	0	0.14297	0.14681	0.098943	0.054288	0.054753	0.27495	0.24055	0.022179	0.11584	0.14399	0.10572	0.052697	0.10189	0.15712	0.24807	0.048925	-3.4104	-2.9729	-3.3	-3.7938	-2.9917	-3.5333	-3.3167	-2.825	-3.4583	-2.8812	-3.2875	-3.8021	-2.8688	-3.4833	-3.4583	-2.9354	312.093	130.654	347.328	298.522	240.083	267.623	54.205	153.750	144.454	216.448	337.159	52.741	89.840	96.763	196.851	64.894	0.00044428	0.0026388	0.0012665	345.45	4.3341e-05	1.4514e-05	627.95	135.55	2.8106e-05	1.7709e-05	263.87	115.98	55.983	25.669	1.7297e-05	59.859	0.011293	0.012523	0.0034306	1478.9	0.00012644	0.00013779	1534.9	428.79	0.00012802	0.00013843	925.62	275.42	217.71	83.954	0.00013242	130.48	246.516	153.122	381.979	42.882	222.784	48.345	43.610	49.775	233.530	314.145	47.345	52.443	55.313	58.528	71.143	55.295	-8191	255	
7286.760	1	1	0	0	0.38873	0.298	0.10803	0.17046	0.16361	0.11496	0.16297	0.27715	0.25518	0.058234	0.1094	0.081632	0.075281	0.17222	0.10105	0.19683	-3.3229	-3.0875	-3.0875	-3.6604	-3.0292	-3.475	-3.5104	-2.8333	-3.8417	-3.2146	-3.0125	-3.8229	-2.9229	-3.4521	-3.5771	-2.7167	54.475	97.887	321.664	377.330	89.596	213.701	140.000	303.588	261.696	260.724	245.250	242.689	376.772	219.465	188.171	347.134	0.0004199	0.00023031	0.00055716	346.19	3.7528e-05	8.7912e-06	631.68	137.01	2.575e-05	2.6559e-05	263.72	117.43	56.511	25.526	1.8924e-05	60.837	0.011428	0.0125	0.0033034	1444.2	0.00012823	0.00013592	1505	421.59	0.00013042	0.00013668	905.88	273.29	223.31	83.106	0.00013058	129.76	250.990	162.047	164.370	44.422	190.514	163.466	43.469	49.224	216.717	120.278	47.361	51.868	55.020	58.293	101.635	55.706	-8191	255	
7286.856	1	1	0	0	0.31301	0.094334	0.18326	0.12256	0.051215	0.17207	0.16699	0.11061	0.096028	0.072124	0.10764	0.090329	0.16061	0.28241	0.17614	0.027102	-2.9104	-3.2687	-2.825	-3.7083	-2.9333	-3.2313	-3.5187	-2.8083	-3.4646	-3.1688	-3.1333	-3.6375	-3.0646	-3.2687	-3.7687	-3.0083	249.364	268.890	96.830	161.027	336.733	389.983	251.846	51.244	278.506	339.311	209.700	34.686	67.471	272.112	107.184	102.768	0.0012224	0.0037217	0.00063931	350.36	4.1158e-06	1.7545e-05	635.17	135.66	1.0188e-05	4.6661e-05	257.16	117.72	55.036	25.407	6.0096e-07	60.674	0.011813	0.012342	0.0032827	1443.4	0.0001335	0.00013344	1496.8	420.18	0.00013352	0.00013287	892.3	271.27	225.28	80.652	0.00012678	129.87	225.233	335.993	98.394	44.183	346.090	230.649	43.669	50.041	202.407	56.016	47.591	52.734	55.479	57.537	265.302	55.642	-8191	255	
7286.952	1	1	0	0	0.14028	0.19431	0.094804	0.16097	0.24637	0.14307	0.15498	0.062117	0.15919	0.1318	0.13605	0.10773	0.29342	0.18547	0.16304	0.3126	-3.1417	-3.2083	-2.8479	-3.7313	-2.9729	-3.0875	-3.8667	-2.7354	-3.3396	-3.3125	-2.8333	-3.7354	-3.2146	-3.1646	-3.7833	-3.05	384.325	391.096	363.535	293.124	249.790	52.578	39.779	50.518	66.754	59.748	292.531	82.026	250.866	379.054	118.339	298.188	0.00038022	0.0027536	0.00048669	343.53	4.4258e-05	3.26e-05	631.34	137.97	2.6992e-05	3.0254e-05	263.15	117.73	54.95	25.455	3.7942e-05	59.739	0.011852	0.011902	0.0031665	1439.3	0.00013359	0.00012882	1468.5	425.53	0.00013313	0.0001295	874.59	274.04	225.56	79.198	0.00012375	130.65	218.600	292.548	87.484	44.504	166.308	372.356	43.567	49.965	360.370	117.766	46.725	53.114	54.702	57.498	364.993	55.748	-8191	255	
7287.048	1	1	0	0	0.1546	0.13681	0.1512	0.041762	0.12226	0.37404	0.24541	0.28504	0.17297	0.048171	0.038443	0.18773	0.16107	0.34883	0.059705	0.24383	-2.9958	-3.4542	-2.7083	-3.6	-3.1833	-2.8521	-3.6854	-2.8875	-3.2771	-3.4208	-2.6042	-3.8354	-3.3542	-2.9708	-3.5854	-2.8771	162.415	294.809	347.975	293.065	257.078	285.500	326.596	389.411	308.712	161.720	353.239	134.741	143.305	331.261	169.191	388.229	0.00057001	0.0033017	0.00045382	351.11	2.2731e-05	1.9991e-05	621.75	134.49	2.4919e-05	1.2651e-05	261.07	116.48	54.368	25.292	2.3802e-05	60.035	0.011648	0.011541	0.0030841	1457	0.00013098	0.00012466	1444	433.32	0.00013169	0.00012834	875.45	280.94	225.47	79.54	0.00012581	135.91	194.282	67.616	382.480	45.558	84.931	338.819	43.940	50.127	43.265	102.704	47.091	52.375	53.769	57.188	55.724	55.883	-8191	255	
7287.144	1	1	0	0	0.20798	0.30156	0.12895	0.21579	0.24828	0.098575	0.12215	0.20733	0.18281	0.06785	0.18036	0.25167	0.1811	0.25396	0.11207	0.13093	-2.9521	-3.7292	-2.7562	-3.6854	-3.2542	-2.8396	-3.8896	-3.1104	-3.3083	-3.6937	-2.7875	-3.6875	-3.5771	-3.1042	-3.6625	-2.9729	245.774	268.442	55.322	93.020	373.443	327.174	277.796	358.081	37.418	355.107	60.111	347.328	390.486	45.139	56.647	354.042	0.00055225	0.0030558	0.0010317	350.45	2.6628e-05	4.6083e-06	629.94	138.02	1.2859e-05	5.0922e-06	266.7	117.05	53.75	25.205	2.2549e-05	60.808	0.011696	0.011744	0.0031692	1524.2	0.00013252	0.00012669	1475.2	449.13	0.00013034	0.00012784	891	285.94	222.07	78.51	0.0001283	137.53	339.173	340.380	168.673	44.871	309.921	38.559	43.909	49.879	375.227	119.373	48.060	52.590	54.923	57.330	341.749	55.780	-8191	255	
7287.240	1	1	0	0	0.09836	0.27134	0.14114	0.068707	0.060216	0.2361	0.037357	0.27368	0.11936	0.32448	0.038537	0.33973	0.11084	0.34021	0.05426	0.22484	-2.8563	-3.8021	-2.8333	-3.5333	-3.5604	-2.8646	-3.6562	-3.2562	-2.9896	-3.8917	-2.9167	-3.4437	-3.4542	-2.5521	-3.9042	-3.1937	280.575	139.618	285.141	239.661	167.238	232.262	207.896	366.070	208.752	161.608	173.222	283.088	80.414	316.930	127.155	285.411	0.00010174	0.0035168	0.00070945	348.99	1.4479e-05	2.0518e-05	635.35	136.07	4.8748e-05	2.1371e-05	263.8	116.86	53.696	25.585	5.7476e-05	60.167	0.011554	0.011615	0.003293	1540.3	0.00013053	0.00012451	1502.5	448.28	0.00012636	0.00012347	896.97	279.27	214.28	75.933	0.00012746	133.53	100.173	285.005	247.712	44.158	258.718	336.040	44.394	49.354	155.139	93.736	49.163	52.115	54.713	58.292	211.524	55.213	-8191	255	
7287.336	1	1	0	0	0.30616	0.11392	0.23924	0.24923	0.20194	0.060616	0.24776	0.13097	0.11394	0.052178	0.16008	0.094912	0.13497	0.16991	0.19488	0.10766	-2.8604	-3.8042	-2.975	-3.4313	-3.4708	-2.9437	-3.6292	-3.3625	-2.8438	-3.5667	-3.1833	-3.3688	-3.6042	-3.0417	-3.7292	-3.3	378.619	373.822	374.290	114.936	363.943	250.933	362.791	222.247	38.435	126.280	332.139	358.352	275.473	168.236	79.931	252.603	0.00084381	0.0039731	0.00045378	353.41	4.225e-05	4.0883e-05	626.92	135.33	1.3072e-05	1.7547e-05	264.37	115.82	55.006	25.405	2.501e-05	59.806	0.010876	0.011007	0.0032521	1478.2	0.00012388	0.0001197	1492.9	434.25	0.00012206	0.00012137	908.96	273.78	210.51	75.69	0.00013014	131.44	172.612	33.039	190.234	44.285	390.977	198.372	44.303	49.073	51.186	162.180	47.903	52.471	54.300	57.683	131.419	55.099	-8191	255	
7287.455	1	1	0	0	0.073359	0.23281	0.052277	0.15505	0.089027	0.1959	0.19534	0.37092	0.19826	0.053806	0.025398	0.085955	0.18034	0.18331	0.28796	0.061524	-2.2708	-3.7188	-2.9604	-3.2	-3.6479	-2.8458	-3.6937	-3.4917	-2.8021	-3.6646	-2.9417	-3.1958	-3.4792	-2.8292	-3.3896	-3.4062	246.982	38.150	337.562	269.989	51.602	44.603	116.409	342.290	57.185	205.230	318.139	33.614	62.971	384.154	273.092	377.045	0.00080967	0.0038761	0.00060001	342.36	1.9033e-05	5.062e-05	624.06	134.69	1.6945e-05	4.3422e-05	262.19	114.9	55.158	26.086	2.7216e-05	59.994	0.010746	0.011076	0.0033359	1444.1	0.00012295	0.00012226	1522.3	431.59	0.00012231	0.00012578	932.47	274.43	213.59	78.857	0.00013486	132.79	238.869	181.044	102.414	43.562	40.466	227.799	44.126	48.747	193.550	218.020	47.343	52.277	53.559	58.627	259.911	54.538	-8191	255	
7287.551	1	1	0	0	0.26796	0.060172	0.091897	0.16025	0.11178	0.11308	0.20145	0.18121	0.1085	0.15787	0.15092	0.20029	0.062088	0.096135	0.063443	0.28598	-2.55	-3.8729	-3.1896	-3.1792	-3.6417	-2.8604	-3.5292	-3.5333	-3.1813	-3.7042	-3.2646	-3	-3.5792	-3.0563	-3.3438	-3.5271	71.700	154.020	62.049	108.625	383.187	71.415	349.427	62.594	338.380	256.295	79.411	376.409	368.695	194.871	296.489	325.857	0.00032411	0.0020028	0.00022457	344.37	1.4506e-05	3.323e-05	631.7	135.25	1.7678e-05	9.3712e-05	263.08	115.34	55.668	25.868	4.5259e-05	59.966	0.010859	0.011766	0.0034525	1463.1	0.00012389	0.00012935	1530.5	431.95	0.00012167	0.00013127	934.68	272.65	212.12	81.211	0.00013365	132.28	321.736	192.728	224.091	44.706	340.329	201.400	43.640	49.070	68.776	231.147	46.887	51.915	54.632	57.292	86.872	54.764	-8191	255	
7287.648	1	1	0	0	0.055419	0.15484	0.28513	0.40502	0.1518	0.21097	0.092371	0.10229	0.14971	0.17126	0.16167	0.1895	0.13225	0.14792	0.25578	0.031656	-2.4375	-3.5062	-3.3104	-2.9854	-3.7375	-2.9729	-3.4062	-3.6688	-3.0979	-3.7271	-3.3271	-2.85	-3.6917	-3.1312	-3.225	-3.8292	165.383	58.732	120.749	347.584	91.844	376.908	249.669	241.158	282.887	191.909	367.527	331.387	137.868	55.930	135.846	295.888	0.00036656	0.0024768	0.00026939	340.73	9.0128e-06	2.4996e-05	629.66	136.38	2.5008e-05	2.2539e-05	257.12	115.29	54.493	25.756	2.373e-05	59.519	0.010889	0.012167	0.0034122	1443.5	0.00012396	0.00013358	1516.9	428.08	0.00012238	0.00013374	916.41	269.48	212.84	82.33	0.0001293	130.04	267.173	101.688	324.935	42.536	324.039	140.135	43.503	48.582	194.095	317.043	47.503	52.119	55.267	58.055	222.033	54.828	-8191	255	
7287.744	1	1	0	0	0.10969	0.28875	0.15278	0.35861	0.076667	0.2725	0.063025	0.1833	0.27088	0.27457	0.11005	0.049164	0.11974	0.16512	0.31241	0.13961	-2.6417	-3.7562	-3.625	-2.925	-3.6896	-3.2333	-3.2438	-3.8646	-2.9083	-3.4625	-3.5208	-2.8583	-3.7646	-3.05	-3.0896	-3.825	138.347	237.820	133.694	85.779	204.902	93.309	386.171	383.285	99.216	260.094	214.335	353.834	32.417	371.401	80.224	209.804	0.001186	0.0014092	0.00086902	350.22	5.1243e-05	1.1771e-05	619.26	135.78	2.094e-05	6.5362e-05	259.58	113.96	54.396	25.32	4.2744e-05	58.967	0.010947	0.01223	0.0032968	1414.1	0.00012502	0.00013383	1478.8	420.46	0.00012516	0.00013357	899.88	265.08	216.54	81.909	0.00012712	128.64	214.384	368.101	335.426	42.977	228.186	262.235	43.859	48.927	309.607	379.754	47.790	51.879	54.562	57.466	104.041	55.270	-8191	255	
7287.840	1	1	0	0	0.054173	0.21754	0.17555	0.20823	0.088205	0.19565	0.26915	0.11491	0.10476	0.23696	0.12299	0.19886	0.16596	0.24026	0.079432	0.22669	-2.7083	-3.5792	-3.4771	-2.7938	-3.5479	-3.2333	-2.8771	-3.7292	-2.8792	-3.1375	-3.5729	-2.9708	-3.6688	-3.3271	-2.8563	-3.6333	117.543	190.945	334.105	281.021	374.904	42.573	309.706	106.677	228.776	59.855	128.680	117.146	185.545	363.075	141.224	50.964	0.0017158	0.0019113	0.00042097	344.69	2.8855e-05	3.1441e-05	627.23	135.81	5.7755e-05	3.1596e-05	260.39	116.73	54.561	25.257	4.0264e-05	60.305	0.011349	0.012098	0.0032743	1406.2	0.00013027	0.00013349	1476.5	419.12	0.00013047	0.00013268	900.84	267.5	224.13	82.008	0.0001268	130.23	192.575	316.669	285.428	44.958	244.097	307.897	44.280	48.890	240.214	80.054	46.949	52.449	54.650	56.955	113.751	55.967	-8191	255	
7287.936	1	1	0	0	0.1735	0.13758	0.2198	0.28849	0.21978	0.26112	0.24058	0.058358	0.33942	0.21153	0.14214	0.19896	0.11022	0.13079	0.047149	0.084089	-2.5771	-3.25	-3.5146	-2.9188	-3.5333	-3.525	-3.0625	-3.7917	-3.05	-3.1542	-3.6458	-2.8375	-3.4229	-3.3604	-2.8208	-3.9062	367.325	222.113	388.803	345.171	46.620	167.617	60.785	262.065	99.949	32.733	103.153	389.980	225.528	36.580	163.753	201.820	0.00069384	0.0048359	0.00021659	353.64	8.9645e-06	5.7397e-05	630.34	136.54	8.3367e-06	4.1263e-05	259.32	117.06	54.379	25.436	4.189e-05	59.401	0.011894	0.012103	0.0032763	1434.8	0.00013508	0.00013372	1481.1	430.38	0.00013621	0.0001321	901.75	273.76	229.45	81.559	0.00012619	132.23	227.700	335.926	217.069	45.146	68.699	305.920	43.611	49.885	311.239	383.215	47.107	52.995	53.908	56.639	88.037	55.634	-8191	255	
7288.057	1	1	0	0	0.014541	0.14392	0.2357	0.15051	0.035454	0.16871	0.14254	0.11768	0.3446	0.33822	0.070977	0.27403	0.055573	0.31298	0.11053	0.14385	-3.0167	-3.0146	-3.6708	-2.7125	-3.3646	-3.4062	-2.8458	-3.6208	-2.9938	-2.9104	-3.7562	-2.9604	-3.5208	-3.6437	-2.9292	-3.8833	259.605	82.800	245.116	357.577	353.642	94.331	390.159	360.120	108.487	118.895	257.388	55.376	313.033	371.802	318.753	146.570	0.00025246	0.0016555	0.00040133	349.9	1.1029e-05	1.9586e-05	628.41	138.06	1.9194e-05	6.823e-06	257.24	116.7	55.506	25.161	1.2829e-05	59.359	0.01204	0.011821	0.0032355	1463.3	0.00013491	0.00012995	1459.3	435.98	0.00013526	0.00012926	890.43	278.28	226.87	80.567	0.00012421	134.22	264.466	90.275	360.413	45.642	123.064	134.751	43.986	50.730	336.962	58.541	47.381	52.634	54.343	57.256	248.825	55.857	-8191	255	
7288.153	1	1	0	0	0.11799	0.09668	0.15463	0.10171	0.070578	0.036644	0.079897	0.16387	0.096475	0.16701	0.28702	0.06168	0.1358	0.17872	0.066111	0.21947	-2.7042	-2.8646	-3.7146	-3.0521	-3.3979	-3.6896	-2.8042	-3.6167	-3.4062	-2.7625	-3.6979	-3.0625	-2.9667	-3.4688	-2.8271	-3.8021	126.169	80.894	368.815	275.272	297.420	87.284	152.563	359.902	67.800	35.813	317.736	139.750	35.778	38.724	366.105	60.519	0.0010315	0.0011056	0.00050756	349.64	1.2362e-05	1.1411e-05	622.36	135.68	7.7263e-06	1.4622e-05	259.04	115.57	55.295	25.372	4.7006e-05	59.255	0.011905	0.011696	0.0031911	1506.2	0.00013258	0.00012897	1456.2	445.12	0.00013203	0.00012658	884.53	282	221.3	78.928	0.00012425	135.44	137.528	196.903	124.549	45.586	380.242	291.063	44.139	50.627	340.910	348.360	48.201	52.651	54.439	58.480	177.545	55.995	-8191	255	
7288.247	1	1	0	0	0.097453	0.11339	0.16451	0.077814	0.33346	0.1993	0.077327	0.1525	0.1226	0.25108	0.078237	0.209	0.07804	0.14495	0.27012	0.18788	-3.0646	-2.9146	-3.8646	-3.2417	-3.1625	-3.7562	-2.7458	-3.5917	-3.4208	-2.7958	-3.8208	-3.3771	-3.2792	-3.6312	-3.0062	-3.6292	86.184	188.068	319.221	76.218	40.924	241.650	78.626	307.628	204.101	131.144	66.333	201.093	229.147	299.165	207.545	255.054	0.00034424	0.0053837	0.0010838	350.59	4.0699e-05	1.2073e-05	628.16	133.65	2.7791e-05	4.0208e-05	259.79	116.79	54.592	25.312	3.5551e-05	59.669	0.011629	0.011435	0.0032511	1536.9	0.00013053	0.00012759	1483.9	450.78	0.00013109	0.00012557	905.53	285.68	217.93	78.368	0.00012814	135.82	244.934	334.225	218.729	44.182	38.821	369.822	44.904	49.752	49.839	386.247	48.720	51.933	54.567	57.714	190.597	55.724	-8191	255	
7288.321	1	1	0	0	0.17919	0.23949	0.18987	0.11726	0.29277	0.071245	0.16162	0.20917	0.17761	0.22969	0.090935	0.19614	0.15965	0.093558	0.082612	0.20469	-3.1396	-2.7792	-3.5625	-3.1292	-3.0479	-3.5208	-2.9771	-3.3583	-3.6083	-2.8792	-3.8729	-3.425	-3.0354	-3.8187	-2.6792	-3.2687	94.708	276.819	120.853	376.853	314.145	290.571	181.440	367.239	122.339	249.075	237.350	221.681	294.039	131.345	112.218	243.242	0.00071098	0.0025641	0.00068426	349.55	3.1294e-05	9.6417e-06	626.32	135.6	8.5662e-06	3.2764e-05	263.74	115.67	54.712	25.156	3.9819e-05	59.89	0.011308	0.011152	0.0032827	1509.5	0.00012509	0.00012263	1487.9	436.63	0.00012416	0.00011963	902.5	275.73	209.08	75.926	0.0001281	130.65	250.585	348.882	185.594	44.388	62.947	142.398	45.107	49.993	342.035	207.759	48.113	52.218	54.493	58.429	238.641	55.927	-8191	255	
7288.440	1	1	0	0	0.1969	0.071402	0.082877	0.17444	0.14063	0.10664	0.19942	0.10286	0.13913	0.21627	0.081474	0.17231	0.18242	0.27574	0.31426	0.23398	-3.3417	-2.8563	-3.5021	-3.3833	-3.0042	-3.5479	-3.0396	-2.9979	-3.6396	-3.0312	-3.6833	-3.375	-2.8875	-3.5875	-2.8458	-3.1542	148.355	176.983	121.271	141.356	265.405	93.484	137.970	344.921	235.842	187.617	383.302	321.336	330.177	363.383	323.851	292.623	0.0003583	0.0023085	0.00049957	342.8	5.229e-05	7.4003e-06	620.42	134.48	2.8788e-05	4.5933e-05	260.17	113.65	53.777	25.28	2.1068e-05	59.4	0.010769	0.01074	0.0032505	1429.2	0.00011741	0.00011678	1467.6	415.35	0.00011721	0.00011567	882.67	264.1	200.12	74.519	0.00012572	126.47	277.513	98.000	201.255	44.344	68.739	382.125	44.812	48.527	353.660	211.431	48.097	52.839	55.537	57.729	254.607	55.997	-8191	255	
7288.536	1	1	0	0	0.1899	0.062738	0.054466	0.10604	0.089423	0.10994	0.32454	0.17655	0.11851	0.16764	0.2215	0.1851	0.082072	0.04899	0.048167	0.17849	-3.2021	-2.7833	-3.5583	-3.6437	-2.8229	-3.5833	-3.1167	-3.0333	-3.7313	-2.9875	-3.4229	-3.4417	-2.7396	-3.7062	-3.0917	-3.0854	196.295	299.976	137.133	140.940	375.748	305.419	136.983	180.380	217.221	39.535	301.253	52.194	108.829	144.861	85.554	121.370	0.00013367	0.0027654	0.00040196	345.81	3.3193e-05	2.4964e-05	622.22	135.04	5.2738e-06	5.0249e-05	259.61	113.96	54.627	25.48	1.2048e-05	59.576	0.010323	0.010739	0.0032286	1402.2	0.00011556	0.00012019	1477.7	409.93	0.00011571	0.00012009	886.52	261.96	198.56	76.502	0.0001257	125.48	323.976	152.473	95.798	44.847	286.971	159.395	43.943	49.837	58.778	202.389	46.671	52.358	54.632	58.514	32.514	55.775	-8191	255	
7288.632	1	1	0	0	0.1425	0.028111	0.064169	0.073515	0.090567	0.028802	0.040613	0.22253	0.13948	0.040575	0.21768	0.17587	0.1322	0.31237	0.053646	0.14882	-3.4146	-2.7271	-3.3271	-3.3812	-2.8042	-3.7896	-3.3708	-3.1729	-3.7333	-3.0271	-3.3854	-3.6688	-2.9083	-3.6833	-3.3833	-2.9646	103.802	117.216	68.603	31.707	97.132	257.706	138.321	342.516	98.814	244.716	375.415	367.712	328.709	377.114	86.321	366.061	0.00024347	0.0050661	0.00067834	343.01	3.7781e-05	5.714e-05	627.42	134.45	2.7504e-05	9.2454e-06	258.87	115.21	54.05	25.837	3.5368e-05	60.146	0.010239	0.011085	0.00317	1376.9	0.00011381	0.00012366	1461.7	405.86	0.00011505	0.00012405	871.77	261.47	199.09	78.16	0.00012285	124.86	197.783	169.896	36.715	44.324	276.982	216.083	43.254	48.768	88.907	79.884	47.011	52.144	55.196	58.121	88.448	55.569	-8191	255	
7288.728	1	1	0	0	0.26937	0.15037	0.25262	0.22561	0.13969	0.019145	0.093455	0.17672	0.10311	0.17786	0.056082	0.075733	0.37965	0.30714	0.029329	0.21104	-3.2062	-2.975	-3.0896	-3.5583	-2.8417	-3.7646	-3.2354	-2.8333	-3.725	-3.0312	-3.2062	-3.7292	-2.7896	-3.2833	-3.4396	-2.9437	274.321	144.842	200.603	46.203	344.229	120.772	313.532	326.433	161.531	206.941	160.121	193.899	375.371	389.193	77.915	360.102	0.0011551	0.0026386	0.00091152	344.38	2.166e-05	2.979e-05	626.08	135.79	2.9448e-05	1.5161e-05	261.83	114.71	55.504	25.419	4.0568e-06	59.611	0.010228	0.011382	0.0030852	1361.2	0.00011416	0.00012483	1432.2	398.39	0.00011639	0.00012585	858.08	258.3	202.71	78.334	0.0001199	122.81	205.346	117.369	354.844	44.314	305.492	241.081	43.463	49.257	287.954	280.621	47.438	52.329	55.774	59.256	179.611	55.742	-8191	255	
7288.849	1	1	0	0	0.064237	0.22232	0.050684	0.075702	0.13384	0.28872	0.11742	0.12777	0.10612	0.092637	0.17951	0.12804	0.093193	0.11768	0.007493	0.13412	-3.2687	-3.1063	-3.1875	-3.7375	-2.9125	-3.4437	-3.4979	-2.8417	-3.7042	-3.2833	-3.0125	-3.6521	-2.7396	-3.2062	-3.5646	-3.0042	192.187	173.233	335.797	364.225	104.530	347.307	373.465	123.356	376.363	301.460	127.359	212.474	330.530	32.361	221.783	314.374	0.0009771	0.0030634	0.00075402	342.94	4.5844e-05	2.555e-05	628.37	134.37	2.4108e-05	1.0764e-05	255.15	115.08	56.257	25.387	1.8723e-05	59.392	0.010434	0.011301	0.0029836	1333.6	0.00011741	0.00012335	1409	392.52	0.00011874	0.00012328	836.61	255.54	207.28	76.988	0.00011732	122.04	226.358	65.211	350.236	44.631	205.864	384.225	43.930	49.342	255.946	199.487	47.254	52.645	56.551	58.394	225.035	56.141	-8191	255	
7288.920	1	1	0	0	0.1554	0.22436	0.14696	0.27	0.30938	0.18149	0.16034	0.040926	0.29508	0.099737	0.14418	0.15593	0.381	0.16077	0.17901	0.21101	-3.4083	-3.3167	-2.8479	-3.5812	-2.8292	-3.1375	-3.4625	-2.8812	-3.5521	-3.3042	-2.8604	-3.5542	-2.8812	-3.1708	-3.4	-2.9688	237.232	165.020	206.711	70.336	96.691	225.717	206.933	279.599	64.938	97.291	254.154	56.475	290.078	296.333	63.984	296.776	0.0006587	0.0017795	0.00064891	346.82	6.0197e-05	1.3975e-05	617.07	136.27	1.0086e-05	1.9244e-05	257.49	116.09	55.908	25.485	2.579e-05	59.837	0.010744	0.011168	0.0029546	1335.5	0.00012151	0.00012076	1400.8	393.77	0.00012148	0.00012024	827.07	255.35	209.5	75.441	0.00011548	122.94	243.302	276.391	342.600	44.164	197.441	66.547	44.339	50.293	129.219	148.630	47.729	53.425	56.247	58.174	361.335	56.447	-8191	255	
7289.016	1	1	0	0	0.18279	0.23277	0.18319	0.074695	0.097832	0.27421	0.18295	0.24128	0.10279	0.26169	0.14521	0.12289	0.24449	0.2137	0.10632	0.21754	-3.125	-3.3167	-2.4896	-3.7479	-3.15	-2.9562	-3.6167	-2.8896	-3.3208	-3.1979	-2.8146	-3.6396	-3.2125	-2.9854	-3.7687	-3.0104	87.629	383.022	194.124	300.252	306.477	280.761	167.659	122.136	134.318	150.255	45.466	86.643	331.766	291.415	328.677	258.694	0.00048754	0.001769	0.00058313	353.26	2.2905e-05	1.7524e-05	625.34	134.96	9.9044e-06	8.3478e-06	263.91	116.8	54.853	25.562	2.0422e-05	60.231	0.010821	0.010786	0.0028863	1346.8	0.0001226	0.00011728	1388.5	400.53	0.00012195	0.0001181	819.62	260.46	209.8	74.416	0.00011263	124.88	185.422	40.055	36.533	45.889	145.197	123.004	43.961	50.943	85.898	384.159	47.973	52.965	53.601	58.549	339.055	57.037	-8191	255	
7289.137	1	1	0	0	0.23806	0.17964	0.023941	0.026484	0.20185	0.15605	0.05604	0.11855	0.1376	0.11507	0.20327	0.081192	0.12772	0.14966	0.097683	0.19217	-2.8792	-3.35	-2.7062	-3.6604	-3.2333	-2.8542	-3.6188	-2.7396	-3.4437	-3.5771	-2.8438	-3.5312	-3.1958	-2.8542	-3.7917	-3.125	176.238	186.535	386.500	57.267	390.479	157.339	61.059	34.376	249.610	336.141	311.625	341.524	304.528	364.141	301.428	372.933	0.00064803	0.0025946	0.00079455	354.5	1.8572e-05	4.4135e-05	620.26	135.32	8.8026e-06	1.6763e-05	255.04	114.37	53.461	25.387	2.1314e-05	59.742	0.010622	0.010545	0.0028202	1359.8	0.00011897	0.00011355	1361.6	404.86	0.00011858	0.0001153	807.81	262.23	206.43	73.611	0.00011332	127.07	166.737	279.584	100.803	46.201	308.980	33.887	44.499	49.480	247.273	109.229	48.508	53.248	54.765	58.463	227.582	56.338	-8191	255	
7289.233	1	1	0	0	0.098433	0.12144	0.17052	0.28311	0.11785	0.10616	0.083626	0.20548	0.17153	0.092253	0.27023	0.17291	0.14398	0.18586	0.20344	0.10184	-2.9708	-3.6479	-2.6979	-3.6854	-3.2708	-2.8	-3.7042	-2.9875	-3.3042	-3.8729	-2.8937	-3.625	-3.3083	-2.9417	-3.7396	-3.1896	267.425	172.762	99.581	344.744	372.523	342.051	61.149	38.491	349.179	200.292	293.274	347.266	301.591	338.862	363.492	380.664	0.00044289	0.0066101	0.00046248	351.89	2.5708e-05	3.6118e-05	626.05	136.59	3.2296e-05	3.7527e-05	257.26	114.83	53.606	25.253	4.4314e-05	59.761	0.01051	0.010497	0.0028687	1404.2	0.00011968	0.00011464	1387.1	418.97	0.00011891	0.00011688	831.43	267.83	206.45	73.933	0.00011808	130.37	232.825	388.863	211.251	44.637	349.803	386.343	44.683	49.987	39.973	33.937	48.812	53.150	54.214	58.158	245.454	55.928	-8191	255	
7289.329	1	1	0	0	0.11025	0.011221	0.061757	0.10514	0.050386	0.13387	0.19702	0.21984	0.021842	0.030507	0.067766	0.32673	0.17436	0.12634	0.10694	0.10914	-2.7125	-3.7208	-2.7354	-3.5167	-3.4313	-2.7396	-3.6833	-3.325	-3.0812	-3.775	-2.9708	-3.3458	-3.5646	-2.8167	-3.5875	-3.2125	291.392	156.530	138.001	354.083	353.403	383.276	292.433	50.439	340.938	305.649	58.734	337.384	69.618	264.550	216.311	77.974	0.00040437	0.0042619	0.00071618	346.35	1.0463e-05	7.3651e-06	625.43	136.42	9.1376e-06	2.2635e-05	261.78	115.47	54.977	25.119	3.0145e-05	59.451	0.010597	0.010727	0.0030411	1445.3	0.00012152	0.00011643	1444.4	428.61	0.00012029	0.00011796	871.84	271.95	208.93	74.457	0.00012524	131.07	278.593	297.380	152.805	44.861	243.342	309.980	44.621	50.062	67.806	139.889	48.703	52.989	54.661	58.779	215.867	56.047	-8191	255	
7289.448	1	1	0	0	0.19047	0.31154	0.061997	0.15403	0.20046	0.087503	0.10525	0.2442	0.19878	0.055152	0.17942	0.26448	0.22332	0.25483	0.12048	0.18594	-2.4792	-3.475	-3.0083	-3.4771	-3.6	-2.8354	-3.6833	-3.4125	-2.8792	-3.6542	-2.9521	-3.1896	-3.475	-2.8667	-3.5854	-3.6917	206.720	94.264	128.776	267.419	371.767	80.106	275.021	317.742	303.266	166.633	391.273	71.114	353.205	266.251	90.834	367.388	0.00070854	0.0033398	0.0014451	351.82	1.7925e-05	8.2148e-06	620.66	135.03	3.1591e-05	5.986e-05	262.7	114.6	53.538	25.493	1.0157e-05	59.88	0.010643	0.010812	0.0032096	1447	0.00012087	0.00011721	1473.9	426.67	0.00011936	0.00011958	895.02	269	206.94	75.059	0.00012753	129.3	171.990	214.219	138.025	44.256	160.968	112.288	44.472	49.268	58.246	211.180	48.846	52.025	55.179	58.728	200.324	55.841	-8191	255	
7289.544	1	1	0	0	0.38662	0.13228	0.28005	0.082548	0.23179	0.053937	0.21998	0.12095	0.31895	0.22775	0.17707	0.21301	0.21397	0.12057	0.12741	0.20245	-2.2875	-3.5542	-3.0354	-3.0458	-3.5104	-2.725	-3.4625	-3.3208	-2.8604	-3.7708	-3.0542	-3.2354	-3.6417	-2.7771	-3.3	-3.4604	40.404	38.266	289.282	163.856	120.237	352.013	307.674	221.396	122.323	331.583	237.450	311.738	291.515	176.336	268.534	335.600	0.0006645	0.005354	0.0007681	346.25	4.6055e-05	5.9914e-05	615.8	134.72	1.406e-05	2.6704e-05	257.58	113.12	53.685	25.499	3.1179e-05	58.606	0.010399	0.010814	0.0032387	1403.5	0.00011802	0.00011772	1471.3	413.99	0.00011549	0.00011952	892.07	261.83	202.65	75.601	0.00012663	126.78	253.233	123.896	147.024	44.281	372.170	209.684	44.552	50.185	49.568	281.839	48.528	52.939	53.937	59.177	232.552	55.536	-8191	255	
7289.616	1	1	0	0	0.12844	0.10416	0.050758	0.18411	0.11636	0.1237	0.090716	0.039161	0.12643	0.22524	0.15146	0.074807	0.13962	0.09047	0.1483	0.092224	-2.3812	-3.4354	-2.9729	-2.9167	-3.7313	-2.9062	-3.4542	-3.6625	-2.9938	-3.6583	-3.3979	-3.075	-3.9396	-2.9583	-3.1833	-3.5792	195.132	65.692	258.200	312.537	262.765	169.402	300.505	167.026	332.866	73.376	349.959	302.554	55.392	357.998	272.101	365.873	0.00057589	0.0029049	0.00043546	350.84	1.2761e-05	4.6817e-05	622.81	135.28	1.0021e-05	2.3076e-05	260.83	114.06	54.932	25.86	3.043e-06	59.059	0.010221	0.011087	0.0032299	1381.2	0.00011578	0.0001214	1457.8	409.9	0.00011428	0.00012336	880.92	260.23	200.98	77.797	0.00012402	125.92	184.627	174.615	358.878	44.240	205.359	166.505	44.356	48.390	204.928	161.519	47.433	52.922	54.358	58.802	31.815	54.987	-8191	255	
7289.737	1	1	0	0	0.057965	0.074971	0.082435	0.2563	0.067933	0.11486	0.17645	0.048252	0.14533	0.26056	0.095429	0.080746	0.16317	0.083868	0.18857	0.12065	-2.2625	-3.45	-3.1354	-2.7875	-3.8208	-2.9958	-3.3729	-3.6396	-2.9354	-3.6625	-3.3854	-2.9917	-3.7188	-3.0354	-3.2313	-3.7354	224.056	95.614	166.728	35.120	62.981	250.466	326.571	355.434	174.816	237.131	332.637	128.297	290.065	302.438	371.262	204.986	0.00089253	0.0051753	0.00048578	342.66	1.2988e-05	6.6057e-06	622.04	133.17	2.8399e-05	5.1969e-05	258.28	115.02	55.27	25.506	3.6201e-05	60.057	0.010158	0.011357	0.0031515	1365.5	0.00011615	0.0001248	1442.8	405.55	0.00011531	0.00012527	868.35	257.36	202.46	78.077	0.00011964	124.16	209.453	96.609	62.044	43.360	242.308	372.963	44.395	49.615	270.766	284.890	47.135	52.841	55.294	58.646	349.840	55.585	-8191	255	
7289.833	1	1	0	0	0.1807	0.17148	0.014875	0.15624	0.2076	0.041068	0.13363	0.039748	0.23762	0.18479	0.18632	0.091262	0.086066	0.051354	0.34745	0.18316	-2.4729	-3.6875	-3.3646	-2.8208	-3.5812	-3.0979	-3.0958	-3.7292	-2.9375	-3.6229	-3.6021	-3.0229	-3.625	-3.2687	-2.8333	-3.6958	146.709	337.681	363.730	144.231	382.800	377.807	232.428	261.363	249.009	73.889	220.907	258.368	124.942	364.741	322.526	376.721	0.0013016	0.00065865	0.00097637	345.31	4.7484e-05	1.9746e-05	620.45	136.21	3.3549e-05	3.0378e-05	255.81	113.78	54.608	24.965	1.602e-05	58.925	0.010206	0.011285	0.0030367	1328.9	0.00011671	0.00012451	1413.4	400.2	0.00011753	0.00012458	850.04	253.9	205.75	77.583	0.00011738	122.32	212.166	372.575	359.074	43.702	212.190	273.651	44.617	49.237	201.344	32.999	48.003	52.108	55.591	57.291	120.268	55.495	-8191	255	
7289.929	1	1	0	0	0.12292	0.049394	0.17963	0.36829	0.031421	0.25514	0.32749	0.18983	0.14842	0.22543	0.10386	0.055292	0.17784	0.1698	0.21096	0.15243	-2.3271	-3.2438	-3.3042	-2.8521	-3.6813	-3.3312	-3.0292	-3.6771	-2.8375	-3.0646	-3.4542	-2.7292	-3.5833	-3.225	-2.6896	-3.6021	341.354	336.726	253.914	86.667	157.065	116.352	324.736	306.346	238.982	244.556	348.961	164.831	104.715	73.286	167.803	69.394	0.00083203	0.005315	0.00053853	346.57	4.7844e-05	3.9632e-05	620.2	136.52	2.062e-05	3.1553e-05	255.51	114.17	54.209	25.19	3.1321e-05	58.981	0.010559	0.011149	0.0030117	1324	0.00012127	0.00012321	1404.6	397.83	0.00012237	0.00012304	845.53	254.16	211.86	77.286	0.00011766	123.96	231.679	291.282	124.726	44.324	231.880	60.401	43.603	49.706	248.511	376.611	48.083	52.487	55.272	57.739	316.842	55.892	-8191	255	
7290.025	1	1	0	0	0.17899	0.11338	0.16407	0.1581	0.1261	0.018071	0.26834	0.08004	0.06105	0.10497	0.15562	0.088757	0.13556	0.17798	0.08477	0.31155	-2.6813	-3.1521	-3.6104	-2.7271	-3.5167	-3.2917	-3.0333	-3.7417	-2.8875	-3.2438	-3.7292	-2.7167	-3.4437	-3.3542	-2.5917	-3.6063	105.669	151.288	99.474	117.690	304.907	324.887	37.243	170.224	232.713	300.855	114.125	252.612	141.345	60.786	348.829	338.020	0.000798	0.003871	0.00027711	348.61	1.557e-05	6.2428e-06	624.14	134.35	2.1287e-05	4.243e-05	259.21	114.53	53.264	25.108	3.0741e-05	59.462	0.011022	0.011101	0.0030185	1354.2	0.00012513	0.00012306	1402.8	407.59	0.00012597	0.00012163	847.97	260.99	215.37	77.006	0.00011681	127.15	187.488	378.976	211.194	44.729	262.951	276.033	43.619	50.234	304.989	71.662	47.189	53.310	54.716	57.718	161.673	56.044	-8191	255	
7290.121	1	1	0	0	0.20001	0.28723	0.15198	0.31817	0.072535	0.14597	0.2491	0.13253	0.20784	0.22266	0.060982	0.23267	0.14842	0.080324	0.29869	0.3051	-2.6125	-2.8479	-3.6562	-2.6083	-3.2438	-3.3563	-2.7812	-3.7167	-3.0938	-3.0958	-3.7521	-3	-3.2	-3.5104	-2.7417	-3.5875	328.527	192.748	78.053	67.045	35.847	330.324	37.245	192.396	184.522	373.863	346.577	56.390	159.531	271.199	277.725	315.885	0.00070528	0.0035518	0.00035794	351.22	2.6991e-05	3.6378e-05	630.17	137.11	7.5014e-06	1.2517e-05	256.79	115.7	54.982	25.578	2.079e-05	60.118	0.011292	0.011051	0.003027	1403	0.00012707	0.00012236	1406.1	420.59	0.00012729	0.00012101	846.68	267.69	215.22	76.602	0.00011682	129.8	236.683	56.881	230.687	45.234	367.800	348.895	43.660	50.180	38.939	272.171	47.907	53.270	55.063	57.661	387.803	55.567	-8191	255	
7290.217	1	1	0	0	0.052851	0.16404	0.087559	0.064374	0.096819	0.15316	0.15959	0.060988	0.08731	0.15184	0.16557	0.15016	0.17605	0.20048	0.28061	0.11962	-2.4729	-2.7542	-3.6604	-2.9708	-3.3646	-3.675	-2.9396	-3.8021	-3.3458	-2.7146	-3.625	-2.8417	-3.0542	-3.6958	-2.8271	-3.6688	239.581	32.163	295.936	219.775	310.770	232.495	383.380	367.822	170.648	231.757	382.712	385.264	308.479	170.416	248.807	224.607	0.00025457	0.0042347	0.00072906	347.8	7.3572e-06	2.1656e-05	621.7	134.15	1.9648e-05	1.349e-05	260.55	113.92	54.303	25.331	4.0378e-05	58.452	0.011106	0.010882	0.0029964	1438.4	0.00012396	0.00012049	1401.9	426.89	0.00012393	0.00011956	847.31	271.4	209.9	75.57	0.00011807	130.56	336.984	371.807	85.107	44.723	86.114	42.273	44.191	49.938	382.213	86.461	47.919	53.487	54.496	58.102	258.370	56.130	-8191	255	
7290.314	1	1	0	0	0.14405	0.05684	0.13914	0.14965	0.077545	0.096898	0.18677	0.19273	0.077057	0.27421	0.17278	0.39029	0.08269	0.097727	0.19907	0.13128	-3.0854	-2.9729	-3.7438	-3.0854	-3.0229	-3.6979	-2.9104	-3.5	-3.5083	-2.9583	-3.7062	-3.2083	-3.2792	-3.6792	-2.7375	-3.3729	219.266	330.090	379.320	255.112	180.163	138.677	279.781	341.524	390.392	161.034	68.897	292.592	317.279	375.050	328.279	83.055	0.0002684	0.001558	0.00073891	349.13	9.06e-06	4.9698e-05	621.88	135.47	2.5426e-05	2.6431e-05	262.45	113.69	54.024	25.423	4.7586e-05	58.889	0.010874	0.010716	0.0030617	1451.4	0.00012071	0.00011787	1422.9	427.71	0.00012117	0.00011651	863.32	271.51	206.96	74.815	0.00012195	130.13	320.726	376.087	134.527	44.150	150.086	68.374	44.576	50.161	116.536	378.779	48.598	53.087	55.040	57.055	254.977	55.421	-8191	255	
7290.410	1	1	0	0	0.14466	0.10957	0.17196	0.094301	0.19412	0.084257	0.18317	0.041509	0.22778	0.17482	0.062437	0.16785	0.13899	0.056871	0.28056	0.17422	-3.0396	-2.8729	-3.7083	-3.1333	-3.1958	-3.7938	-3.1354	-3.4771	-3.5438	-2.8417	-3.55	-3.2771	-2.8208	-3.7292	-2.9958	-3.2917	296.443	44.939	119.009	326.559	118.700	304.948	267.422	363.057	293.675	254.010	147.345	350.878	275.789	212.513	152.436	384.030	0.00030915	0.0022443	0.0012803	347.97	1.893e-05	6.7317e-06	625.23	134.89	1.6872e-05	3.0331e-05	260.2	114.33	53.48	25.664	3.5974e-05	59.075	0.010746	0.010587	0.0031579	1450.7	0.00011905	0.00011717	1453.8	423.33	0.00011912	0.00011555	881.23	268.88	204.07	74.61	0.00012529	128.63	271.276	163.466	182.472	44.003	92.672	178.674	44.581	49.528	159.585	299.846	48.865	52.245	54.604	58.012	230.756	55.136	-8191	255	
7290.529	1	1	0	0	0.060415	0.16404	0.019272	0.15301	0.27347	0.021593	0.26901	0.17178	0.11312	0.24569	0.23061	0.31708	0.2616	0.059803	0.28954	0.081979	-3.3854	-2.9313	-3.5479	-3.2313	-2.9188	-3.6937	-3.0667	-3.1729	-3.5563	-2.6771	-3.5604	-3.4604	-2.8292	-3.7458	-3.05	-3.1708	59.664	88.746	201.904	155.577	119.153	204.164	40.573	367.166	112.325	178.925	73.794	55.700	144.453	321.023	169.874	191.451	0.00034129	0.0013836	0.00093315	351.12	9.4406e-06	1.9162e-05	624.99	134.44	1.8734e-05	5.1984e-05	252.04	114.3	53.214	25.581	4.9948e-06	58.541	0.010544	0.010579	0.0032196	1420	0.0001169	0.00011798	1478.2	416.71	0.00011831	0.00011812	897.27	265.8	202.76	75.519	0.00012674	126.37	205.960	121.652	167.804	43.296	73.693	269.480	44.279	49.154	143.974	238.429	48.220	52.310	54.593	59.335	268.645	55.305	-8191	255	
7290.625	1	1	0	0	0.20003	0.19232	0.17186	0.28322	0.20809	0.094136	0.16548	0.1451	0.049318	0.082544	0.19679	0.16293	0.20726	0.12763	0.15376	0.22214	-3.0812	-2.7271	-3.4313	-3.5187	-2.8625	-3.7104	-3.3479	-3.1437	-3.7208	-3.0208	-3.5812	-3.6479	-2.9875	-3.5708	-3.1271	-3.1042	204.784	128.996	103.516	355.731	249.274	303.272	53.381	289.934	369.795	46.005	88.913	141.448	366.264	255.446	301.597	337.039	0.0005918	0.0029165	0.00077214	344.06	3.8841e-05	3.222e-05	624.71	135.08	1.1389e-05	5.0614e-05	255.71	112.89	54.302	25.047	6.8765e-05	58.724	0.010352	0.010811	0.0032224	1395.3	0.00011398	0.00012093	1468.4	408.81	0.00011589	0.00012182	885.18	262.53	200.55	77.716	0.00012807	126.11	208.477	187.067	359.445	43.974	68.416	247.779	44.108	49.687	294.725	194.798	47.137	52.255	54.853	58.583	347.963	56.225	-8191	255	
7290.721	1	1	0	0	0.23919	0.30409	0.16506	0.048888	0.026743	0.20642	0.27171	0.20391	0.13808	0.26021	0.14705	0.11261	0.11091	0.10033	0.27128	0.13995	-3.3083	-2.8375	-3.4417	-3.6625	-2.8521	-3.6083	-3.4437	-2.6729	-3.7188	-2.8688	-3.0375	-3.5312	-2.7333	-3.4896	-3.3312	-3.1458	377.025	387.982	33.099	273.222	292.578	212.682	264.138	103.243	168.243	332.433	356.183	210.594	90.037	117.812	79.263	269.588	0.000389	0.0053272	0.0010169	343.26	2.7459e-05	3.3614e-05	621.32	135.03	3.2456e-05	1.9635e-05	258.52	113.25	54.985	25.512	6.2245e-06	58.702	0.01045	0.011476	0.0032323	1403.4	0.00011653	0.00012643	1470.5	407.59	0.00011713	0.00012671	876.97	261.39	201.82	78.933	0.00012434	124.89	208.675	112.136	384.810	44.206	125.937	171.216	44.103	49.511	332.470	182.892	47.541	53.062	55.737	58.312	69.593	55.607	-8191	255	
7290.817	1	1	0	0	0.1375	0.11631	0.009753	0.038567	0.35183	0.10992	0.15316	0.24527	0.081972	0.099614	0.33655	0.22063	0.024979	0.24329	0.15883	0.10386	-3.2604	-3.075	-3.0312	-3.6188	-2.7917	-3.2812	-3.4188	-2.8021	-3.7333	-2.9917	-3.1417	-3.7396	-2.8354	-3.3438	-3.3271	-2.7854	99.748	46.412	212.539	288.294	388.298	161.610	354.239	41.596	118.355	349.814	385.139	55.135	213.514	57.327	131.101	249.399	0.00096743	0.00089952	0.00042065	346.27	2.7533e-05	1.5739e-05	623.68	133.83	5.6439e-05	3.7093e-05	259.92	114.51	54.538	25.453	1.8384e-06	58.534	0.010434	0.011608	0.003116	1378.6	0.00011697	0.0001274	1444.4	403.7	0.0001187	0.0001277	859.23	258.93	206.09	79.014	0.00012119	122.95	213.526	254.296	248.797	44.120	254.696	195.137	43.924	49.560	273.741	315.793	48.263	52.317	56.395	59.117	158.995	55.485	-8191	255	
7290.913	1	1	0	0	0.16575	0.40215	0.18743	0.10293	0.20915	0.11972	0.14904	0.1145	0.22332	0.048065	0.090694	0.11795	0.10007	0.16789	0.2146	0.19866	-3.2562	-2.9833	-2.8688	-3.7396	-2.9146	-3.3854	-3.5396	-2.8937	-3.7583	-3.425	-3.0667	-3.6958	-2.8083	-3.2708	-3.475	-2.8458	178.812	47.538	289.459	80.228	110.884	296.299	50.164	78.825	104.547	188.293	303.494	347.197	246.115	343.261	372.225	238.870	0.0013552	0.001521	0.00039369	346.09	3.6477e-05	1.5744e-05	616.72	134.1	3.0582e-05	2.7705e-05	255.23	112.74	54.028	25.035	3.0792e-05	58.114	0.010669	0.011507	0.0030381	1349	0.00012071	0.00012486	1422.9	395.96	0.0001221	0.0001255	848.22	255.27	210.06	77.374	0.00011894	121.92	213.939	337.780	377.855	44.696	259.054	326.501	43.609	49.833	198.764	59.198	47.831	52.752	56.393	58.115	169.994	56.298	-8191	255	
7291.009	1	1	0	0	0.23622	0.10405	0.17553	0.16706	0.084889	0.068238	0.13656	0.073522	0.11488	0.18045	0.032306	0.1453	0.28232	0.23709	0.031436	0.30553	-3.0438	-3.2917	-2.7646	-3.8125	-3.1271	-3.3021	-3.7542	-2.7542	-3.45	-3.2042	-2.8	-3.8729	-2.8271	-3.0458	-3.625	-2.9854	87.084	162.428	122.863	73.629	146.035	41.791	230.286	347.589	192.112	34.956	354.411	210.417	281.404	302.427	281.572	319.865	0.00080649	0.0014126	0.00086157	348.91	1.5741e-05	1.9266e-05	619.45	133.51	2.5517e-05	3.3468e-05	257.08	112.01	54.754	25.036	2.1148e-05	57.914	0.01098	0.011313	0.0029863	1355.2	0.00012448	0.00012242	1407.6	399.2	0.00012492	0.00012242	832.95	256.85	213.87	76.221	0.00011802	123.74	228.761	352.898	303.299	44.274	176.096	324.805	43.986	50.520	256.028	191.951	47.496	52.974	55.019	57.987	369.333	56.589	-8191	255	
7291.130	1	1	0	0	0.18854	0.11999	0.11055	0.15516	0.22629	0.068888	0.15126	0.16362	0.28517	0.29153	0.2018	0.081217	0.1407	0.32331	0.056201	0.089192	-3.0875	-3.275	-2.725	-3.4271	-3.0479	-3.0875	-3.6625	-2.6729	-3.2438	-3.3979	-2.8	-3.7521	-3.0292	-2.9292	-3.5	-2.8833	211.198	184.580	291.650	187.089	172.918	130.701	97.952	350.228	278.068	191.650	333.643	338.814	83.474	35.070	251.135	252.854	0.00031908	0.0028039	0.00067186	346.15	2.2247e-05	1.7426e-05	619.01	132.9	2.6808e-05	5.9169e-05	254.71	112.18	54.472	24.918	3.0412e-05	58.701	0.011197	0.01115	0.002986	1389.6	0.00012763	0.00012153	1411.1	410.73	0.00012737	0.0001228	835.88	264.37	216.44	76.055	0.00011834	127.83	364.303	299.330	365.999	47.055	382.145	260.213	45.364	50.569	136.696	321.671	49.152	53.636	55.669	57.642	280.153	56.611	-8191	255	
7291.226	1	1	0	0	0.115	0.069952	0.14767	0.068307	0.052295	0.20089	0.30369	0.015742	0.14597	0.219	0.067484	0.27911	0.13705	0.17148	0.22401	0.22461	-2.7646	-3.5229	-2.8229	-3.6833	-3.0438	-2.8521	-3.6396	-2.9188	-3.1104	-3.5083	-2.725	-3.6583	-3.3521	-3.0104	-3.8979	-3.1167	238.494	300.670	260.223	277.807	309.320	348.192	273.454	199.619	120.539	220.457	365.937	311.235	52.983	43.679	190.995	282.478	0.00022421	0.0037717	0.00064416	349.3	2.2681e-05	1.346e-05	622.34	134.67	2.3672e-05	1.2723e-05	252.77	112.66	53.03	25.084	4.0697e-05	57.329	0.011223	0.011151	0.0029782	1445	0.00012797	0.00012199	1420.1	428.54	0.00012689	0.000123	843.98	271.97	215.44	75.634	0.00012023	130.17	82.240	93.779	201.299	46.228	354.211	379.870	44.603	51.257	101.634	119.264	48.045	53.540	54.954	59.527	263.857	56.707	-8191	255	
7291.321	1	1	0	0	0.068288	0.17322	0.052141	0.10877	0.1648	0.068561	0.10916	0.17212	0.26332	0.10406	0.064965	0.09681	0.061505	0.30501	0.3251	0.14703	-2.9375	-3.5938	-2.7188	-3.4188	-3.2146	-2.8563	-3.7771	-3.0375	-3.1458	-3.7479	-2.8708	-3.5729	-3.4396	-2.6667	-3.6042	-3.0292	305.327	298.207	386.247	59.211	261.452	353.587	347.495	233.372	267.988	137.330	118.679	383.482	317.237	327.496	373.691	71.658	0.00014369	0.0013735	0.0011978	345.2	1.8134e-05	2.0953e-05	615.51	132.15	2.3613e-05	2.8629e-05	251.49	111.87	52.292	24.559	4.1461e-05	56.841	0.011119	0.011117	0.0030545	1473.4	0.00012597	0.00011981	1432.1	432.46	0.00012388	0.00012132	853.54	272.22	211.48	74.767	0.00012391	131.06	195.476	39.636	101.576	44.600	82.828	362.423	45.165	49.725	72.047	35.412	49.080	52.398	54.461	58.927	225.467	55.508	-8191	255	
7291.417	1	1	0	0	0.17043	0.20181	0.080657	0.14349	0.038081	0.23341	0.1144	0.17367	0.095475	0.11104	0.13621	0.23764	0.080944	0.040836	0.15395	0.10135	-2.7146	-3.575	-2.8833	-3.5771	-3.4396	-2.7667	-3.6854	-3.0563	-3.2333	-3.8354	-2.9083	-3.4708	-3.6458	-2.9208	-3.6271	-3.2313	195.009	190.177	240.645	205.308	159.231	99.149	256.810	124.994	131.890	285.738	195.389	35.995	131.515	115.753	212.503	229.698	0.00073836	0.0023804	0.0012229	344.83	4.0617e-05	6.9603e-06	621.99	132.21	3.3577e-05	1.8988e-05	256.33	112.17	53.496	24.879	1.7345e-05	57.954	0.010873	0.010985	0.0031536	1476.6	0.000124	0.00011864	1463.9	432.37	0.00012161	0.00011969	882.86	271.87	209.49	74.472	0.00012763	130.01	216.520	319.333	211.229	45.958	316.334	233.372	44.792	49.105	121.262	172.891	48.902	52.551	54.025	59.051	232.576	56.048	-8191	255	
7291.513	1	1	0	0	0.08152	0.1902	0.07441	0.16809	0.31426	0.036514	0.15508	0.090737	0.27217	0.10087	0.16515	0.26008	0.058176	0.030985	0.10462	0.20868	-2.4833	-3.4896	-2.8583	-3.1292	-3.4333	-2.8625	-3.6625	-3.2938	-2.8125	-3.65	-3.1167	-3.0958	-3.5708	-2.8354	-3.6125	-3.4458	33.868	371.301	182.268	62.445	96.146	107.507	86.487	298.799	145.081	210.503	341.350	252.768	35.262	379.220	314.907	381.612	0.00061632	0.00075102	0.0004699	339.66	8.0458e-06	1.7388e-05	615.07	133.72	1.4056e-05	1.6038e-05	254.74	113.41	54.427	25.46	3.832e-05	58.905	0.010679	0.010859	0.0032437	1438.2	0.00012088	0.00011703	1482.1	424.42	0.00011888	0.00011881	895.64	266.26	206.82	75.092	0.00012919	128.61	234.980	380.844	183.014	43.921	338.988	211.989	44.922	49.355	107.125	264.398	48.173	52.903	55.484	59.193	284.646	55.767	-8191	255	
#DATA ENDS
