BOXY.EXE: ISS Imagent and Oximeter Data Acquisition Program Version 0.80
Ascii Record File

#ACQ INFORMATION
2  Detector Channels 
16  External MUX Channels 
1  Auxiliary Channels 
5000  Waveform (CCF) Frequency (Hz)
1  Waveforms Skipped 
30  Waveforms Averaged 
1  Cycles Averaged 
16  Acquisitions per Waveform 
10.0806  Updata Rate (Hz) 

#FILE INFORMATION
TRUE -- External MUX Channel results are PARSED.
FALSE -- AC DC and Phase are NOT grouped.
TRUE -- Companion Program Settings File CREATED.
FALSE -- AC data not excluded
FALSE -- DC data not excluded
FALSE -- Phase data not excluded
FALSE -- Auxillary Chn. data not excluded
Tab delimiters

#CALIBRATION STATE
TRUE -- Waveform Calibration Values APPLIED.


#AUX CALIBRATION VALUES
Val Type	aux-1	

Term	1.0000e+00	
Factor	0.0000e+00	


#WF CALIBRATION VALUES
A = Detector Channel
Val Type	A-AC1	A-AC2	A-AC3	A-AC4	A-AC5	A-AC6	A-AC7	A-AC8	A-AC9	A-AC10	A-AC11	A-AC12	A-AC13	A-AC14	A-AC15	A-AC16	A-DC1	A-DC2	A-DC3	A-DC4	A-DC5	A-DC6	A-DC7	A-DC8	A-DC9	A-DC10	A-DC11	A-DC12	A-DC13	A-DC14	A-DC15	A-DC16	A-Ph1	A-Ph2	A-Ph3	A-Ph4	A-Ph5	A-Ph6	A-Ph7	A-Ph8	A-Ph9	A-Ph10	A-Ph11	A-Ph12	A-Ph13	A-Ph14	A-Ph15	A-Ph16	

Term	0.00000e+00	0.00000e+00	0.00000e+00	0.00000e+00	0.00000e+00	0.00000e+00	0.00000e+00	0.00000e+00	0.00000e+00	0.00000e+00	0.00000e+00	0.00000e+00	0.00000e+00	0.00000e+00	0.00000e+00	0.00000e+00	0.00000e+00	0.00000e+00	0.00000e+00	0.00000e+00	0.00000e+00	0.00000e+00	0.00000e+00	0.00000e+00	0.00000e+00	0.00000e+00	0.00000e+00	0.00000e+00	0.00000e+00	0.00000e+00	0.00000e+00	0.00000e+00	0.00000e+00	0.00000e+00	0.00000e+00	0.00000e+00	0.00000e+00	0.00000e+00	0.00000e+00	0.00000e+00	0.00000e+00	0.00000e+00	0.00000e+00	0.00000e+00	0.00000e+00	0.00000e+00	0.00000e+00	0.00000e+00	
Factor	1.00000e+00	1.00000e+00	1.00000e+00	1.00000e+00	1.00000e+00	1.00000e+00	1.00000e+00	1.00000e+00	1.00000e+00	1.00000e+00	1.00000e+00	1.00000e+00	1.00000e+00	1.00000e+00	1.00000e+00	1.00000e+00	1.00000e+00	1.00000e+00	1.00000e+00	1.00000e+00	1.00000e+00	1.00000e+00	1.00000e+00	1.00000e+00	1.00000e+00	1.00000e+00	1.00000e+00	1.00000e+00	1.00000e+00	1.00000e+00	1.00000e+00	1.00000e+00	X	X	X	X	X	X	X	X	X	X	X	X	X	X	X	X	

B = Detector Channel
Val Type	B-AC1	B-AC2	B-AC3	B-AC4	B-AC5	B-AC6	B-AC7	B-AC8	B-AC9	B-AC10	B-AC11	B-AC12	B-AC13	B-AC14	B-AC15	B-AC16	B-DC1	B-DC2	B-DC3	B-DC4	B-DC5	B-DC6	B-DC7	B-DC8	B-DC9	B-DC10	B-DC11	B-DC12	B-DC13	B-DC14	B-DC15	B-DC16	B-Ph1	B-Ph2	B-Ph3	B-Ph4	B-Ph5	B-Ph6	B-Ph7	B-Ph8	B-Ph9	B-Ph10	B-Ph11	B-Ph12	B-Ph13	B-Ph14	B-Ph15	B-Ph16	

Term	0.00000e+00	0.00000e+00	0.00000e+00	0.00000e+00	0.00000e+00	0.00000e+00	0.00000e+00	0.00000e+00	0.00000e+00	0.00000e+00	0.00000e+00	0.00000e+00	0.00000e+00	0.00000e+00	0.00000e+00	0.00000e+00	0.00000e+00	0.00000e+00	0.00000e+00	0.00000e+00	0.00000e+00	0.00000e+00	0.00000e+00	0.00000e+00	0.00000e+00	0.00000e+00	0.00000e+00	0.00000e+00	0.00000e+00	0.00000e+00	0.00000e+00	0.00000e+00	-6.59245e+01	-1.24734e+02	-1.31290e+02	-1.83070e+02	-4.71720e+01	-6.49150e+01	-1.56663e+02	-1.62015e+02	-3.94459e+01	-6.42214e+01	-1.71114e+02	-1.71480e+02	-1.80686e+02	-1.76770e+02	-5.03157e+01	-1.49850e+02	
Factor	1.94318e-05	1.90944e-04	4.49887e-05	1.63081e-01	1.59961e-06	1.69595e-06	1.94177e-01	5.42487e-02	1.28390e-06	1.65075e-06	1.08414e-01	3.13847e-02	2.95052e-02	9.61121e-03	1.53840e-06	1.41149e-02	5.54059e-06	6.76180e-06	1.88700e-06	8.26207e-02	7.18682e-08	7.45135e-08	9.21061e-02	2.75920e-02	7.18242e-08	7.41166e-08	5.30887e-02	1.54427e-02	1.51454e-02	4.92050e-03	7.23774e-08	6.95805e-03	X	X	X	X	X	X	X	X	X	X	X	X	X	X	X	X	



#DISTANCE SETTINGS
A = Detector Channel
A-1	A-2	A-3	A-4	A-5	A-6	A-7	A-8	A-9	A-10	A-11	A-12	A-13	A-14	A-15	A-16	

2.5000e+00	3.0000e+00	2.5000e+00	3.0000e+00	2.0000e+00	3.0000e+00	1.5000e+00	3.0000e+00	3.0000e+00	3.0000e+00	3.0000e+00	3.0000e+00	3.0000e+00	3.0000e+00	1.5000e+00	3.0000e+00	

B = Detector Channel
B-1	B-2	B-3	B-4	B-5	B-6	B-7	B-8	B-9	B-10	B-11	B-12	B-13	B-14	B-15	B-16	

1.0000e+01	1.0000e+01	1.0000e+01	1.4400e+00	1.0000e+01	1.0000e+01	1.5100e+00	1.9400e+00	1.0000e+01	1.0000e+01	1.9900e+00	2.4900e+00	2.4100e+00	2.9000e+00	1.0000e+01	2.9800e+00	




#DATA BEGINS
time	group	step	mark	flag	A-AC1	A-AC2	A-AC3	A-AC4	A-AC5	A-AC6	A-AC7	A-AC8	A-AC9	A-AC10	A-AC11	A-AC12	A-AC13	A-AC14	A-AC15	A-AC16	A-DC1	A-DC2	A-DC3	A-DC4	A-DC5	A-DC6	A-DC7	A-DC8	A-DC9	A-DC10	A-DC11	A-DC12	A-DC13	A-DC14	A-DC15	A-DC16	A-Ph1	A-Ph2	A-Ph3	A-Ph4	A-Ph5	A-Ph6	A-Ph7	A-Ph8	A-Ph9	A-Ph10	A-Ph11	A-Ph12	A-Ph13	A-Ph14	A-Ph15	A-Ph16	B-AC1	B-AC2	B-AC3	B-AC4	B-AC5	B-AC6	B-AC7	B-AC8	B-AC9	B-AC10	B-AC11	B-AC12	B-AC13	B-AC14	B-AC15	B-AC16	B-DC1	B-DC2	B-DC3	B-DC4	B-DC5	B-DC6	B-DC7	B-DC8	B-DC9	B-DC10	B-DC11	B-DC12	B-DC13	B-DC14	B-DC15	B-DC16	B-Ph1	B-Ph2	B-Ph3	B-Ph4	B-Ph5	B-Ph6	B-Ph7	B-Ph8	B-Ph9	B-Ph10	B-Ph11	B-Ph12	B-Ph13	B-Ph14	B-Ph15	B-Ph16	aux-1	digaux	

1431.712	1	1	0	256	0.10854	0.09802	0.15413	0.09978	0.22431	0.22958	0.27033	0.25173	0.22899	0.26202	0.010172	0.16009	0.37344	0.12911	0.14114	0.18934	-1.6917	-2.2333	-1.8104	-2.2104	-2.1562	-2.1208	-2.3729	-2.2062	-2.2	-2.3021	-2.0125	-2.4792	-1.8937	-1.8792	-2.2896	-1.8646	169.697	363.065	450.571	118.633	141.117	249.957	440.984	327.303	163.652	258.565	313.380	385.746	377.681	443.784	336.140	421.882	0.00026189	0.00077	0.00014273	209.68	5.9868e-06	3.6711e-06	406.76	57.953	5.9159e-06	6.1218e-06	133.49	63.82	26.429	8.7911	6.0298e-06	22.88	0.0023182	0.0027463	0.00076621	234.56	2.9233e-05	3.02e-05	427.06	67.527	2.9433e-05	3.0282e-05	149.57	68.207	31.607	10.672	2.9377e-05	25.13	240.650	409.187	403.695	125.916	159.427	385.194	126.077	133.305	439.549	472.183	131.674	136.478	139.068	143.978	238.471	141.190	-8191	255	
1431.808	1	1	0	0	0.10825	0.16222	0.19351	0.14687	0.23024	0.047192	0.11691	0.42708	0.16873	0.26667	0.10514	0.15227	0.10734	0.30399	0.11017	0.13371	-1.6625	-2.3042	-1.7083	-2.2271	-2.1271	-1.9958	-2.2938	-2.0438	-2.1792	-2.3271	-1.8646	-2.1188	-1.9583	-1.7979	-2.5104	-1.9312	399.232	196.785	455.431	321.028	353.148	329.060	281.175	211.192	143.339	346.578	162.034	325.637	450.594	454.636	162.375	163.458	0.00022988	0.00078389	0.00014084	211.36	1.0905e-05	1.0504e-05	404.43	58.363	8.6124e-07	5.3575e-06	131.91	63.778	26.398	8.8213	7.1297e-06	22.93	0.0023334	0.0027584	0.00075412	236.88	2.9474e-05	3.0294e-05	427.8	67.676	2.9283e-05	2.9943e-05	149.02	68.138	31.461	10.648	2.8895e-05	25.139	239.571	249.294	152.731	126.360	318.419	274.471	126.441	133.636	402.415	193.935	131.610	136.592	138.824	144.396	298.062	140.823	-8191	255	
1431.904	1	1	0	0	0.010867	0.10542	0.098217	0.26039	0.15279	0.19728	0.08702	0.26869	0.15458	0.18054	0.14056	0.0086831	0.16404	0.19059	0.048777	0.25699	-1.7854	-2.1917	-2.0687	-2.2396	-2.3396	-1.9354	-2.3187	-2.1437	-2.1917	-2.4042	-2.05	-2.2604	-2.0667	-1.9417	-2.2938	-2.0792	147.820	255.110	187.827	396.492	231.347	420.874	373.268	373.187	324.177	117.170	464.878	359.511	280.253	425.841	165.081	269.793	0.00020169	0.0009466	1.0105e-05	211.63	6.7943e-06	8.5342e-06	409.17	58.92	5.349e-06	8.5568e-06	134.28	63.815	26.638	8.837	6.5815e-06	23.096	0.0022793	0.0027205	0.00075698	237.48	2.9243e-05	2.9834e-05	432.66	68.138	2.939e-05	3.0136e-05	150.45	68.633	31.771	10.716	2.9147e-05	25.192	234.023	212.572	413.608	126.169	368.834	297.758	125.623	133.214	271.466	160.900	131.919	136.745	138.845	144.274	335.072	140.931	-8191	255	
1431.976	1	1	0	0	0.31212	0.17807	0.12854	0.10803	0.081463	0.21663	0.10395	0.15354	0.14323	0.11621	0.16664	0.069211	0.085741	0.12314	0.12439	0.17551	-1.4438	-2.5062	-1.7896	-2.1417	-2.4333	-1.9292	-2.3438	-2.0042	-1.9292	-2.4188	-2.0208	-2.2667	-2.3958	-1.8979	-2.4771	-1.9562	329.524	446.634	447.850	169.579	399.518	155.587	397.846	249.614	388.078	182.663	274.372	427.970	279.655	331.322	213.244	409.258	0.00025618	0.00081932	0.00016952	212.12	3.2822e-06	8.8266e-06	409.4	58.394	4.5836e-06	4.0482e-06	132.01	63.365	26.419	8.8687	5.0471e-06	22.875	0.0022757	0.0027042	0.0007581	238.54	2.8496e-05	2.9375e-05	430.68	67.605	2.8698e-05	2.924e-05	149.14	67.959	31.445	10.663	2.8638e-05	25.054	253.916	459.316	296.038	126.626	441.157	195.192	125.412	132.315	400.838	151.398	131.341	136.251	138.369	144.240	327.195	141.225	-8191	255	
1432.097	1	1	0	0	0.24108	0.058372	0.34369	0.1706	0.17898	0.37849	0.22046	0.089097	0.09365	0.38589	0.086855	0.31467	0.36605	0.15119	0.17715	0.10379	-1.5729	-2.4667	-1.9375	-2.175	-2.2188	-1.6812	-2.2646	-2.2792	-1.8375	-2.4083	-2.0687	-2.1229	-2.2708	-1.8792	-2.2583	-2.2562	255.897	373.492	397.405	469.242	372.839	267.655	119.986	263.588	230.509	373.398	366.899	321.972	430.403	401.864	395.352	449.084	0.00023212	0.00036182	0.00010113	216.52	4.9671e-06	3.2812e-06	410.57	58.329	4.1747e-06	6.0073e-06	131.01	63.391	26.107	8.79	1.0525e-05	22.707	0.0022473	0.0026633	0.0007592	239.36	2.8733e-05	2.954e-05	432.79	67.43	2.9312e-05	2.994e-05	148.05	67.817	31.517	10.685	2.9327e-05	25.023	225.317	279.504	199.568	126.057	330.184	197.206	125.908	132.988	370.210	219.846	131.823	135.848	138.642	143.809	324.852	140.858	-8191	255	
1432.193	1	1	0	0	0.25632	0.19318	0.1484	0.20225	0.1484	0.11472	0.25042	0.20516	0.19534	0.25614	0.18489	0.2037	0.19011	0.22073	0.21829	0.1973	-1.3958	-2.3646	-2.0854	-2.1667	-2.3271	-1.9083	-2.4292	-2.1875	-1.9688	-2.5458	-1.9625	-2.0521	-2.4042	-1.8396	-2.2875	-2.4625	350.945	270.623	414.964	430.492	320.949	311.887	371.500	227.338	474.725	467.982	187.371	173.912	127.563	124.249	260.894	318.779	0.00022573	0.0012114	1.0817e-05	213.12	2.948e-06	4.4113e-06	411.8	58.325	5.0516e-06	9.8474e-06	130.93	63.308	26.478	8.8888	1.4709e-05	22.722	0.0022954	0.0027597	0.00076715	239.25	2.9124e-05	3.0353e-05	432.14	67.578	2.9327e-05	3.0085e-05	148.24	67.895	31.517	10.687	2.9751e-05	25.042	238.919	287.699	187.323	126.031	193.671	135.680	125.854	133.020	174.185	164.540	131.159	136.462	138.567	144.134	310.356	141.112	-8191	255	
1432.289	1	1	0	0	0.28163	0.14631	0.21295	0.19267	0.22609	0.072593	0.08138	0.11431	0.18009	0.20424	0.20343	0.20525	0.18787	0.21295	0.17242	0.1392	-1.6187	-2.3146	-2.0646	-2.05	-2.4625	-1.9792	-2.2792	-2.2375	-2.0187	-2.3563	-2.2542	-2.1667	-2.45	-1.9854	-2.3417	-2.3479	372.896	384.208	465.175	471.350	266.913	372.233	289.512	330.498	463.972	242.714	456.848	131.201	466.513	161.605	167.354	115.624	0.00019315	0.00069174	0.00016132	213.44	4.9596e-06	8.9141e-06	411.67	59.118	7.6019e-06	3.7557e-06	130.86	63.298	26.04	8.7571	2.9986e-06	22.645	0.0023174	0.0027473	0.00077444	239.58	2.9274e-05	3.0357e-05	434	67.96	2.9054e-05	3.024e-05	147.91	67.812	31.51	10.631	2.9277e-05	24.905	247.188	118.502	214.491	126.539	305.491	257.471	126.042	133.287	295.108	256.093	131.169	136.590	137.839	144.343	190.785	141.254	-8191	255	
1432.385	1	1	0	0	0.096315	0.12918	0.26534	0.048654	0.10661	0.099222	0.084839	0.16767	0.34674	0.2503	0.046344	0.1556	0.14901	0.1028	0.27996	0.13461	-1.5438	-2.4771	-2.2771	-1.8813	-2.3812	-2.1063	-2.0729	-2.2417	-1.8771	-2.3396	-2.2479	-2.0771	-2.4958	-2.15	-2.0417	-2.3479	464.415	222.716	216.864	399.236	264.446	464.646	289.824	257.229	224.585	148.870	330.156	212.758	184.280	434.866	342.889	163.024	0.0002951	0.00069076	0.00022565	213.71	5.8578e-06	2.899e-06	409.7	58.173	7.3786e-06	5.6077e-06	130.3	62.541	26.226	8.726	1.5493e-06	22.405	0.0022764	0.0027628	0.00076787	237.89	2.9121e-05	3.0002e-05	431.22	67.432	2.9063e-05	3.0097e-05	147.39	67.099	31.316	10.599	2.9171e-05	24.621	246.252	148.870	383.946	125.956	344.029	313.517	125.781	133.442	280.100	235.866	131.467	136.972	138.801	144.288	424.217	141.008	-8191	255	
1432.504	1	1	0	0	0.18052	0.2073	0.10772	0.047022	0.049653	0.15435	0.07594	0.12689	0.23892	0.10638	0.06671	0.20185	0.19171	0.062724	0.13821	0.21425	-1.5396	-2.1417	-1.9979	-1.9646	-2.5458	-1.9479	-2.1271	-2.3917	-1.8875	-2.2104	-2.2771	-2.0083	-2.1854	-2.0229	-1.9583	-2.0833	269.859	229.695	376.135	196.273	388.828	316.724	167.098	284.410	158.336	235.336	316.666	351.402	262.800	208.619	225.162	447.270	0.0003068	0.00090689	0.00010398	210.46	2.1519e-06	8.719e-06	405.21	57.931	4.1003e-06	3.4399e-06	130.13	62.65	25.957	8.7016	7.3658e-06	22.216	0.0022661	0.0027396	0.00075952	238.16	2.8751e-05	3.0039e-05	429.94	67.296	2.9041e-05	3.03e-05	147.17	67.321	31.388	10.57	2.9186e-05	24.584	257.660	281.181	180.956	126.095	289.038	166.364	126.165	132.745	404.949	136.444	131.414	137.084	139.281	144.487	266.423	141.286	-8191	255	
1432.600	1	1	0	0	0.20363	0.35278	0.29282	0.24546	0.20109	0.17245	0.064313	0.17139	0.14304	0.15751	0.095066	0.11213	0.35342	0.057545	0.25747	0.10616	-1.2917	-2.0896	-2.3729	-1.9854	-2.2771	-2.1417	-2.0583	-2.3917	-2.0667	-2.1188	-2.4062	-2.0312	-2.2625	-2.1437	-1.9854	-2.3896	319.964	131.813	332.965	371.116	175.150	367.081	243.491	193.631	196.292	148.951	117.372	294.296	332.715	213.187	272.506	300.626	0.00029026	0.00089827	7.4456e-05	213.44	2.9037e-06	3.2795e-06	410.63	58.418	6.7261e-06	1.1686e-05	129.77	63.189	26.441	8.6815	7.3248e-06	22.541	0.0022725	0.0027388	0.00075712	238.15	2.902e-05	2.9788e-05	429.77	67.503	2.8751e-05	2.9696e-05	147.51	67.214	31.376	10.563	2.9331e-05	24.759	245.404	133.029	328.157	125.967	453.011	438.485	126.209	133.131	356.038	301.592	131.306	136.647	138.472	144.268	225.113	141.068	-8191	255	
1432.696	1	1	0	0	0.05107	0.13762	0.3092	0.23383	0.076055	0.35727	0.16946	0.19679	0.13883	0.095112	0.30503	0.07601	0.32968	0.34963	0.21001	0.21053	-1.4375	-2.0812	-2.1042	-1.9604	-2.4479	-2.4167	-1.9104	-2.2667	-2.1229	-2.2375	-2.3063	-1.8792	-2.3042	-2.1771	-1.8396	-2.5187	180.181	169.843	327.356	260.707	199.712	439.033	402.027	412.755	409.230	194.698	432.941	319.940	309.787	471.672	364.421	446.691	0.00025912	0.0011818	0.00013326	212.57	2.0464e-06	5.1403e-06	408.96	58.658	2.7326e-06	9.5615e-07	129.76	62.811	26.235	8.7518	8.2425e-06	22.362	0.0022775	0.0027574	0.00075731	238.14	2.8966e-05	3.041e-05	429.96	67.571	2.96e-05	3.036e-05	146.78	67.267	31.451	10.617	2.959e-05	24.548	238.608	380.797	244.574	126.065	424.843	136.179	126.017	133.566	279.356	304.043	131.675	136.542	138.283	143.770	333.922	141.170	-8191	255	
1432.792	1	1	0	0	0.30128	0.060413	0.20847	0.16962	0.084771	0.2795	0.14802	0.14083	0.010508	0.16258	0.24778	0.2058	0.24573	0.07267	0.072138	0.25874	-1.6208	-1.8667	-2.4688	-1.8771	-2.2479	-2.2396	-1.9417	-2.1729	-2.1271	-2.0021	-2.4125	-2.0729	-2.1958	-2.2292	-1.9833	-2.4979	272.724	362.535	472.908	342.847	230.710	409.021	402.576	176.395	192.785	468.450	264.427	132.519	438.275	213.139	196.253	379.006	0.00016588	0.0013734	0.00013883	212.55	5.5405e-06	2.8964e-06	404.35	58.181	1.8796e-06	2.3806e-06	129.32	62.282	26.244	8.6805	8.5346e-07	22.229	0.0023201	0.0027735	0.00076936	237.72	2.9737e-05	3.0559e-05	428.94	67.618	2.958e-05	3.0516e-05	147.2	66.991	31.465	10.612	2.9791e-05	24.633	254.326	182.301	126.166	126.081	449.715	321.399	125.730	133.277	437.380	134.177	131.286	136.449	139.123	143.698	375.630	141.513	-8191	255	
1432.888	1	1	0	0	0.31069	0.14437	0.13554	0.09753	0.16743	0.085921	0.38242	0.13547	0.41496	0.27159	0.09761	0.18187	0.36888	0.08915	0.16583	0.15497	-1.7	-1.9854	-2.3021	-1.8729	-2.1771	-2.4854	-1.9833	-2.3521	-2.0687	-1.9625	-2.45	-2.1083	-2.1542	-2.3937	-1.9417	-2.2917	293.845	121.963	304.943	446.222	199.955	349.133	167.753	426.303	196.132	121.585	398.004	461.956	351.162	467.598	167.184	451.984	0.00019779	0.00011942	0.00024897	214.02	6.14e-06	7.1956e-06	407.4	58.245	3.8888e-06	8.7523e-06	129.59	62.844	26.263	8.8092	6.0704e-06	22.37	0.0023522	0.0027839	0.00077391	239.35	3.0045e-05	3.0679e-05	430	67.773	2.9549e-05	3.0667e-05	147.07	67.242	31.531	10.637	2.9566e-05	24.67	230.167	293.151	195.992	126.698	206.455	124.333	125.837	133.137	159.560	228.318	131.818	136.338	138.087	144.092	397.806	141.219	-8191	255	
1432.985	1	1	0	0	0.10683	0.10605	0.21374	0.41385	0.098961	0.1959	0.27247	0.18024	0.078884	0.11663	0.2086	0.17773	0.079455	0.10614	0.14403	0.2527	-1.9521	-1.9625	-2.4458	-2.0875	-2.2	-2.6271	-1.8917	-2.2375	-2.2146	-2.0604	-2.3667	-2.1333	-2.05	-2.4208	-2.1729	-2.2771	182.689	334.650	351.268	324.674	342.556	280.160	218.433	420.810	376.270	235.053	475.689	268.130	117.008	202.935	162.862	453.346	0.00030039	0.00063134	0.00019141	212.67	4.8187e-06	7.2547e-06	407.03	58.204	3.2226e-06	4.2951e-06	129.76	62.811	26.172	8.9336	1.2443e-06	22.456	0.0023393	0.0027776	0.00077707	238.14	2.9783e-05	3.0599e-05	430.2	67.978	2.9913e-05	3.0407e-05	148.2	67.317	31.545	10.699	2.9957e-05	24.704	274.868	366.469	195.411	126.167	441.199	437.187	126.507	133.890	186.631	301.844	131.376	136.046	137.871	144.155	156.708	141.124	-8191	255	
1433.105	1	1	0	0	0.099206	0.1601	0.052755	0.088034	0.16822	0.10026	0.15761	0.29021	0.1603	0.05842	0.16194	0.089246	0.16312	0.24093	0.18856	0.18392	-1.8333	-1.9542	-2.2583	-2.1167	-2.3	-2.5729	-2.1104	-2.1708	-2.25	-1.9917	-2.3625	-2.2438	-1.9292	-2.5208	-2.0604	-2.4021	408.647	432.766	206.144	385.706	122.787	472.848	211.876	134.182	375.478	344.937	432.017	340.905	371.122	197.948	378.778	442.529	0.00020101	0.001133	0.00026261	212	1.7065e-06	3.6918e-06	405.88	58.24	7.6028e-07	4.7995e-06	130.71	62.815	26.179	8.7867	4.6949e-06	22.202	0.0023444	0.0027939	0.00077523	237.93	2.9877e-05	3.0598e-05	427.84	67.694	2.9632e-05	3.0294e-05	147.07	66.934	31.451	10.604	2.9355e-05	24.452	265.235	269.858	271.311	126.253	292.283	166.861	125.478	133.296	400.638	295.106	131.232	136.370	138.698	144.011	184.914	140.814	-8191	255	
1433.200	1	1	0	0	0.11314	0.30162	0.16353	0.1329	0.23508	0.23712	0.2612	0.18888	0.071883	0.049576	0.19621	0.10421	0.2984	0.25624	0.36016	0.2355	-1.8146	-1.7958	-2.1708	-2.0542	-2.1229	-2.5604	-2.0479	-2.0458	-2.2792	-2.1	-2.4188	-2.2854	-2.0042	-2.3083	-2.0021	-1.9542	127.622	454.456	257.406	332.825	230.546	142.247	239.377	326.094	363.863	164.762	274.400	283.936	457.185	307.392	173.975	280.332	0.00023704	0.00035332	0.00013134	212.25	5.5422e-06	6.4652e-06	406.09	58.68	7.6824e-07	5.5484e-06	129.53	62.7	26.484	8.6883	4.1104e-06	22.1	0.0022893	0.0027188	0.00076619	236.17	2.8916e-05	2.9817e-05	425.28	67.453	2.8891e-05	2.9657e-05	146.57	66.857	31.443	10.519	2.8951e-05	24.32	246.558	473.294	308.885	126.021	419.306	368.417	125.812	133.439	188.702	177.098	131.691	136.709	139.245	144.074	307.357	140.990	-8191	255	
1433.273	1	1	0	0	0.089107	0.14233	0.15637	0.14339	0.29824	0.29434	0.30295	0.13434	0.08325	0.20429	0.29283	0.27703	0.060716	0.090158	0.27288	0.10612	-1.8896	-1.9646	-2.125	-2.3312	-1.875	-2.3563	-2.0542	-2.1042	-2.5104	-2.1292	-2.1937	-2.3333	-2.0187	-2.3	-2.1458	-2.2562	424.774	170.331	282.172	341.107	310.914	307.365	426.415	286.526	317.053	269.150	163.195	283.083	229.855	377.450	367.217	297.685	0.00022806	0.00024339	0.00014837	209.97	1.1246e-05	1.6503e-05	404.47	57.503	1.3065e-06	7.6613e-06	130.08	62.447	25.929	8.7221	2.7404e-06	22.274	0.002257	0.0027006	0.00075788	235.87	2.8557e-05	2.9394e-05	425.06	67.118	2.8341e-05	2.938e-05	146.62	66.74	31.267	10.554	2.8989e-05	24.389	260.221	213.800	162.581	126.087	380.043	231.417	126.096	133.116	135.952	310.296	131.640	136.075	138.725	144.160	445.160	140.858	-8191	255	
1433.392	1	1	0	0	0.20781	0.14532	0.2159	0.31064	0.12058	0.10771	0.30511	0.09328	0.22432	0.21024	0.20573	0.24896	0.13335	0.095431	0.315	0.29493	-1.7917	-2.0958	-2.1188	-2.1979	-1.725	-2.2708	-2.1333	-1.9354	-2.4604	-2.1188	-2.2833	-2.3521	-1.9188	-2.3167	-2.1771	-2.0146	359.309	337.011	122.375	411.226	466.957	234.298	428.733	334.209	219.709	137.261	199.246	299.671	116.392	238.866	217.349	437.883	0.0001965	0.00030591	8.3403e-05	211.84	7.6371e-06	4.5111e-06	402.34	58.255	2.8722e-06	6.3743e-06	129.1	62.716	26.312	8.5513	8.495e-06	21.873	0.0022488	0.0026968	0.00075589	235.95	2.8726e-05	2.9624e-05	423.98	67.621	2.8793e-05	2.9553e-05	146.78	66.874	31.279	10.444	2.9037e-05	24.192	237.306	118.498	317.378	126.595	169.485	279.024	126.267	133.610	237.809	239.569	131.736	136.535	138.596	144.396	228.068	141.293	-8191	255	
1433.488	1	1	0	0	0.25087	0.13813	0.21321	0.20769	0.11639	0.13471	0.20675	0.15682	0.10519	0.069138	0.19602	0.12187	0.23888	0.088213	0.12862	0.03704	-2.1396	-2.0438	-2.0333	-2.2208	-1.9333	-2.0458	-2.2604	-1.8729	-2.2062	-2.1437	-2.1604	-2.2875	-1.9583	-2.2938	-2.15	-2.1125	170.470	366.743	170.728	412.391	234.159	314.820	311.034	460.778	187.624	165.199	331.955	194.034	347.639	387.505	199.837	389.036	0.00030054	0.00042196	0.0001977	208.65	9.3223e-06	9.565e-06	402.56	58.153	9.1539e-06	3.7095e-06	128.99	62.493	26.106	8.7631	4.5636e-06	22.019	0.0022458	0.0026843	0.00076153	234.62	2.8503e-05	2.9741e-05	422.29	67.014	2.8289e-05	2.9257e-05	145.66	66.544	30.985	10.474	2.8729e-05	24.1	235.979	379.825	170.041	126.297	296.683	131.950	125.741	133.497	448.325	359.743	130.693	136.732	138.678	143.993	221.766	141.021	-8191	255	
1433.584	1	1	0	0	0.26951	0.35734	0.12077	0.26992	0.12562	0.23443	0.040186	0.20012	0.0099809	0.18592	0.23618	0.10732	0.38119	0.15443	0.12075	0.3182	-2.0083	-2.2083	-1.9833	-2.425	-1.95	-2.175	-2.2375	-1.9167	-2.3771	-2.2438	-1.9937	-2.3896	-1.9771	-2.2375	-2.4896	-1.8708	220.358	367.701	222.960	282.594	387.815	255.093	142.286	350.763	284.733	443.931	305.896	160.116	146.180	324.188	313.937	337.600	0.00026602	0.00027948	0.00030848	210.06	3.7896e-06	4.8933e-06	397.37	57.985	6.5717e-06	6.2899e-06	129.84	62.3	25.81	8.8213	1.1214e-05	21.955	0.0022256	0.0026605	0.00073704	234.28	2.8497e-05	2.9401e-05	421.49	67.167	2.8445e-05	2.9759e-05	146.3	66.675	31.344	10.546	2.9047e-05	24.22	244.824	327.003	164.652	125.950	394.164	375.005	126.025	132.696	202.942	326.690	131.672	136.745	138.156	143.395	240.131	141.435	-8191	255	
1433.680	1	1	0	0	0.11138	0.064504	0.13341	0.1493	0.19848	0.056527	0.31203	0.16412	0.029529	0.40567	0.095468	0.10438	0.078602	0.039907	0.21199	0.19777	-1.8687	-2.0521	-1.975	-2.4771	-1.9521	-2.1229	-2.3083	-1.5604	-2.3021	-2.2188	-2.0854	-2.4229	-1.7917	-1.9458	-2.3771	-1.8375	248.950	157.705	180.141	235.889	298.411	230.554	187.098	376.839	235.134	131.889	332.726	416.777	291.946	309.738	314.513	406.156	0.00029085	0.00062385	0.00026027	209.81	5.6108e-06	4.8502e-06	404.31	58.083	2.5262e-06	7.979e-06	130.77	63.089	26.324	8.7715	6.1298e-06	22.082	0.0022768	0.0027163	0.00075816	235.2	2.9106e-05	3.0185e-05	423.78	67.501	2.9569e-05	2.9986e-05	147.42	67.188	31.569	10.56	2.9104e-05	24.266	241.310	251.296	429.836	126.808	222.672	290.202	126.122	133.728	296.517	303.027	131.021	136.017	138.590	143.732	427.381	141.580	-8191	255	
1433.801	1	1	0	0	0.11521	0.25868	0.28132	0.26992	0.19187	0.19616	0.063388	0.28009	0.062732	0.12834	0.065644	0.12512	0.18826	0.1949	0.18096	0.13151	-1.9208	-2.2854	-1.8479	-2.3646	-2.0958	-2.1312	-2.4188	-1.9146	-2.2771	-2.2708	-2.1333	-2.4896	-2.1729	-2.1729	-2.5125	-2.1604	340.634	349.257	372.368	404.209	283.111	379.963	313.801	272.427	289.409	382.001	366.158	456.884	317.901	159.319	326.774	347.742	0.00029665	0.00022019	8.0154e-05	209.96	8.4595e-06	2.9301e-06	402	58.918	4.9793e-06	5.675e-06	130.85	62.563	26.22	8.5919	4.5175e-06	22.105	0.0022762	0.0027499	0.00076396	234.9	2.9165e-05	3.0543e-05	422.78	67.937	2.9338e-05	3.0324e-05	147.73	66.89	31.633	10.542	2.951e-05	24.205	247.947	382.782	292.516	126.276	301.786	326.130	126.033	132.655	419.558	273.320	131.278	136.470	138.600	144.253	276.465	140.881	-8191	255	
1433.897	1	1	0	0	0.18862	0.21495	0.075277	0.059978	0.21716	0.25614	0.32353	0.12372	0.1148	0.20107	0.21804	0.23325	0.0781	0.13704	0.22403	0.3367	-1.9062	-2.2583	-1.9333	-2.3271	-2.0667	-2.0812	-2.4083	-1.9792	-2.3917	-2.4771	-1.9333	-2.4479	-2.1521	-1.9979	-2.4729	-2.0771	115.982	404.601	191.748	142.989	190.234	298.901	450.035	322.978	256.643	339.151	409.225	387.837	228.392	472.246	402.243	363.352	0.00022988	0.00037135	0.00029058	206.61	6.0707e-06	1.8217e-06	400.28	58.361	6.3706e-06	3.4915e-06	130.18	61.82	26.287	8.594	4.7868e-06	21.764	0.0023277	0.0027675	0.00077107	233.42	2.9706e-05	3.0524e-05	420.17	68.305	2.9042e-05	2.9846e-05	147.69	66.715	31.404	10.458	2.8853e-05	23.989	232.985	143.987	414.013	126.597	408.768	363.276	126.131	133.490	331.609	213.779	131.561	136.218	139.250	144.076	319.076	140.843	-8191	255	
1433.969	1	1	0	0	0.30262	0.16396	0.038629	0.046006	0.021304	0.36293	0.062769	0.29574	0.18231	0.2249	0.066938	0.38946	0.33796	0.062709	0.26023	0.077513	-1.6396	-2.2687	-2.1417	-2.2958	-2.0167	-2.0187	-2.3563	-2.175	-2.1688	-2.2958	-1.9896	-2.3479	-2.2208	-1.8875	-2.4375	-2.0333	454.127	344.572	467.264	127.760	124.752	306.759	396.582	165.221	451.718	131.076	295.016	395.403	342.342	140.617	272.649	210.888	0.00019465	0.0004675	0.00021563	209.76	7.3125e-06	1.8428e-06	399.12	59.038	2.317e-06	3.7538e-06	131.35	62.303	26.296	8.7011	3.0614e-06	21.9	0.0022646	0.0026601	0.00074801	233.78	2.8401e-05	2.921e-05	420.09	68.008	2.8236e-05	2.8754e-05	147.51	66.516	31.334	10.433	2.7827e-05	23.893	241.665	266.344	233.093	126.244	270.303	417.481	126.060	133.910	239.106	261.973	131.798	136.917	138.809	144.395	436.457	141.195	-8191	255	
1434.065	1	1	0	0	0.19116	0.215	0.13234	0.098756	0.2238	0.12128	0.19357	0.045463	0.10535	0.18428	0.13664	0.10605	0.14812	0.35008	0.15627	0.34142	-1.4833	-2.1625	-1.95	-2.1417	-2.375	-2.0458	-2.4854	-2.0583	-2.2938	-2.5687	-2.0812	-2.0667	-2.2521	-2.0646	-2.5812	-2.0021	258.660	165.642	342.741	235.522	146.565	128.923	388.130	156.306	323.158	186.729	465.161	143.999	276.931	466.020	154.950	460.435	0.00023857	0.00028783	7.6076e-05	207.33	1.8298e-06	7.6921e-06	402.48	59.115	4.2699e-06	2.9701e-06	132.04	62.8	26.547	8.6876	8.6634e-06	21.706	0.00221	0.0025563	0.0007166	232.98	2.7707e-05	2.8481e-05	421.01	67.964	2.7629e-05	2.8361e-05	147.34	66.821	31.28	10.468	2.7878e-05	23.96	237.307	396.033	365.827	126.494	268.251	240.991	126.006	133.322	200.914	166.890	131.954	136.343	138.626	144.006	276.451	141.152	-8191	255	
1434.186	1	1	0	0	0.16023	0.061428	0.074997	0.079608	0.23799	0.13468	0.17093	0.1683	0.080318	0.08565	0.12718	0.17013	0.073742	0.13318	0.11076	0.29817	-1.6208	-2.3438	-1.8937	-2.2583	-2.3396	-1.9729	-2.3333	-2.2375	-2.0354	-2.5271	-2.2354	-2.1688	-2.3667	-1.8625	-2.475	-2.2208	366.562	168.799	379.895	403.136	173.023	276.844	266.578	376.711	153.899	257.443	324.948	414.657	436.064	285.218	135.934	324.128	0.00025927	0.00028063	0.00025632	208.97	2.1881e-06	5.1795e-06	401.41	58.97	3.1399e-06	7.8852e-06	131.77	62.247	26.348	8.5763	1.0229e-05	21.544	0.0022013	0.0026122	0.00073702	233.83	2.7974e-05	2.8963e-05	420.67	67.858	2.7948e-05	2.8676e-05	146.56	66.51	31.374	10.444	2.8384e-05	23.871	225.335	364.653	216.837	126.134	394.501	259.149	125.841	133.217	303.574	282.750	131.394	136.367	138.759	144.210	280.242	141.009	-8191	255	
1434.280	1	1	0	0	0.21224	0.13649	0.063758	0.090101	0.052399	0.18699	0.16171	0.38201	0.31794	0.1248	0.27869	0.17731	0.13763	0.20436	0.57899	0.025228	-1.6	-2.4437	-1.9125	-2.1021	-2.2729	-1.975	-2.1271	-2.2375	-1.9646	-2.3812	-1.8042	-2.2042	-2.4562	-2.1312	-2.3729	-2.1562	313.368	387.060	411.795	188.215	389.737	213.805	308.975	371.619	457.193	354.310	454.105	420.841	212.548	296.029	343.317	146.952	0.00019848	0.000508	0.000339	213.71	5.6389e-06	7.9294e-06	402.27	59.447	2.108e-06	8.0321e-06	129.77	62.101	26.396	8.7191	9.5415e-06	21.786	0.0022033	0.0026513	0.000748	236.86	2.832e-05	2.9404e-05	424.47	68.434	2.8846e-05	2.9423e-05	147.58	66.476	31.501	10.559	2.8985e-05	23.923	259.658	163.162	345.877	126.039	340.573	305.151	126.039	133.721	374.184	216.336	131.745	136.540	138.811	144.113	325.500	140.586	-8191	255	
1434.378	1	1	0	0	0.080282	0.082176	0.040139	0.054067	0.15818	0.18355	0.20795	0.29043	0.18995	0.10141	0.048894	0.037473	0.06461	0.18351	0.16619	0.10515	-1.5938	-2.3875	-2.0521	-1.9229	-2.4708	-2.0938	-2.2167	-2.3854	-1.8708	-2.5062	-2.2062	-2.2208	-2.4271	-1.9438	-2.1188	-2.2417	450.768	230.034	322.537	200.672	192.837	448.979	444.549	407.095	181.490	206.935	294.697	123.935	350.687	415.761	244.277	414.629	0.00017305	0.00053493	0.00017475	211.95	2.4426e-06	2.3464e-06	399.81	59.739	7.7424e-06	7.6868e-06	131.71	61.691	26.425	8.8045	6.2081e-06	22.03	0.0022515	0.002698	0.00075349	237.33	2.8619e-05	2.9891e-05	424.7	69.216	2.904e-05	3.0054e-05	148.16	66.712	31.72	10.64	2.9845e-05	24.093	254.408	359.564	250.196	126.054	344.229	429.430	125.820	132.950	199.232	389.339	131.011	136.688	139.042	143.687	162.710	140.890	-8191	255	
1434.497	1	1	0	0	0.37811	0.37666	0.19646	0.22073	0.3742	0.11202	0.25271	0.24949	0.10141	0.23029	0.02417	0.26868	0.36631	0.18743	0.2259	0.073636	-1.5458	-2.4	-2.125	-1.8813	-2.2812	-2.0229	-2.1417	-2.2417	-1.8292	-2.425	-2.0979	-2.0771	-2.4188	-1.8354	-2.1854	-2.3396	238.703	377.112	127.491	326.378	326.167	302.713	145.381	451.721	413.454	408.074	172.063	121.283	425.036	128.046	169.259	136.494	0.00027361	0.00071877	0.00014607	213.09	5.285e-06	8.7092e-06	406.06	60.044	4.3284e-06	4.4803e-06	130.49	62.506	26.594	8.8523	6.8697e-06	21.81	0.0022866	0.0027655	0.00076796	238.26	2.926e-05	3.0329e-05	427.27	69.456	2.9476e-05	3.0849e-05	148.61	67.102	31.975	10.728	3.0418e-05	24.112	236.882	181.722	174.011	126.531	271.519	138.163	125.802	133.774	232.849	255.905	131.529	136.288	138.459	144.355	411.660	140.774	-8191	255	
1434.568	1	1	0	0	0.22619	0.2145	0.074612	0.029761	0.13056	0.23306	0.15356	0.086899	0.13701	0.27149	0.15159	0.11001	0.20758	0.1001	0.20941	0.11529	-1.4229	-2.4021	-2.0563	-1.9958	-2.2875	-2.0479	-2.2292	-2.2979	-2.0125	-2.3438	-2.2708	-1.8979	-2.6208	-2.1771	-1.9333	-2.3271	298.646	189.672	380.145	342.983	247.027	193.890	287.284	413.411	450.652	416.279	344.363	399.297	126.861	442.556	371.142	143.740	0.00023344	0.0004094	0.00012223	212.45	5.0084e-06	4.9029e-06	408.38	60.031	6.4619e-06	4.0784e-06	131.93	61.902	26.439	8.7868	5.9327e-06	21.645	0.0023284	0.0027867	0.00078416	238.89	2.9659e-05	3.0983e-05	427.57	69.377	2.9957e-05	3.0683e-05	148.24	66.775	31.884	10.659	3.008e-05	24.007	250.498	383.155	196.296	126.293	258.457	302.177	126.211	133.701	393.387	363.668	131.639	136.493	138.502	144.361	316.129	141.103	-8191	255	
1434.665	1	1	0	0	0.10536	0.026767	0.11883	0.031535	0.10333	0.46539	0.088572	0.11403	0.18907	0.14798	0.24482	0.19957	0.10054	0.27404	0.061671	0.18901	-1.4229	-2.2021	-2.3604	-1.9292	-2.4292	-2.2271	-2.225	-2.45	-2.1146	-2.2521	-2.3729	-1.9937	-2.4625	-2.1667	-2.1937	-2.4979	350.101	392.097	299.891	245.509	353.820	292.773	402.368	395.852	460.538	335.145	468.348	406.545	383.154	264.311	300.641	374.915	0.00021639	0.00025947	0.00012589	212.37	1.8907e-06	6.7246e-06	402.96	60.137	8.2231e-06	1.1235e-05	129.54	61.934	26.639	8.8037	7.8845e-06	21.758	0.0023214	0.0027746	0.00077092	238.56	2.9141e-05	3.0561e-05	425.53	68.942	2.9109e-05	2.9919e-05	146.92	66.526	31.847	10.641	2.8743e-05	23.919	273.462	233.746	116.651	126.640	344.940	427.029	125.814	133.430	331.311	273.931	132.059	136.313	139.492	144.061	265.082	141.067	-8191	255	
1434.785	1	1	0	0	0.11084	0.14578	0.10357	0.39894	0.054361	0.24453	0.11844	0.087186	0.16839	0.27082	0.15686	0.1007	0.23374	0.21829	0.10697	0.039144	-1.6229	-2.2479	-2.4188	-1.875	-2.4062	-2.0812	-1.9104	-2.4479	-2.0646	-2.1937	-2.3042	-1.8917	-2.3042	-2.0938	-2.0687	-2.3708	129.848	158.710	401.736	200.520	209.715	419.442	228.407	188.458	439.603	360.933	339.990	400.768	395.926	410.959	449.410	457.776	0.00031508	0.00031422	0.0001148	213.48	3.2778e-06	2.7905e-06	408.56	59.52	2.6856e-06	8.4045e-06	131.01	61.958	26.618	8.8456	2.2776e-06	21.701	0.0022594	0.0027144	0.0007512	238.49	2.8798e-05	2.9972e-05	428.39	68.694	2.8724e-05	2.963e-05	146.71	66.534	31.723	10.668	2.8782e-05	24.064	234.534	362.923	346.090	126.309	163.994	268.864	126.259	133.958	131.924	224.781	131.745	136.322	138.671	144.431	178.692	140.723	-8191	255	
1434.881	1	1	0	0	0.31187	0.1309	0.10078	0.19107	0.17208	0.1677	0.23485	0.15686	0.22003	0.060124	0.15972	0.24267	0.21231	0.082887	0.20691	0.09021	-1.5083	-2.0521	-2.3458	-1.825	-2.3646	-2.2188	-2.0354	-2.4458	-2.3604	-2.1312	-2.3708	-2.1333	-2.2104	-2.075	-1.7771	-2.5	251.945	266.790	422.176	164.665	299.870	258.169	345.081	176.331	304.410	426.445	361.885	357.421	160.866	128.457	415.932	220.758	0.00028179	0.0015774	0.00012293	213.73	5.6587e-06	5.174e-06	408.3	59.832	3.6291e-06	6.6685e-06	129.63	62.321	26.453	8.8501	1.9383e-06	21.785	0.0022896	0.0027117	0.00075178	239.94	2.8985e-05	3.0254e-05	428.94	69.115	2.9481e-05	3.0245e-05	146.73	66.257	31.776	10.719	2.9286e-05	23.985	234.963	232.024	408.259	126.649	295.905	281.550	125.963	132.852	329.158	348.892	131.424	136.341	138.645	144.692	120.912	140.834	-8191	255	
1434.978	1	1	0	0	0.31154	0.088267	0.021522	0.074252	0.18938	0.15519	0.17155	0.23667	0.15265	0.10156	0.14508	0.26804	0.15303	0.1054	0.16526	0.1983	-1.5667	-2.1146	-2.5167	-2.0563	-2.2604	-2.3646	-2.0979	-2.3458	-2.3208	-2.1167	-2.425	-2.0312	-2.1271	-2.1125	-1.8042	-2.2708	263.092	269.244	429.308	365.077	412.848	431.988	406.698	270.953	308.925	156.657	119.497	395.036	267.401	465.542	137.470	285.352	0.00036159	0.0008228	0.00022168	216.24	1.8649e-06	3.5434e-06	408.08	59.431	1.4518e-06	5.0023e-06	127.71	61.285	26.849	8.8478	1.4234e-06	21.393	0.0023177	0.002776	0.00076141	240.23	2.9452e-05	3.0086e-05	428.72	68.912	2.954e-05	3.0283e-05	145.84	65.954	32.117	10.754	2.9542e-05	23.762	239.306	224.158	199.229	126.057	219.589	414.962	125.896	133.380	416.606	157.118	131.996	136.924	139.610	144.029	264.742	141.263	-8191	255	
1435.098	1	1	0	0	0.14952	0.11616	0.22086	0.055192	0.23012	0.077957	0.050631	0.1432	0.31647	0.0522	0.20813	0.23528	0.16426	0.099473	0.2769	0.1596	-1.6708	-1.9521	-2.4938	-1.9229	-2.1063	-2.3312	-1.8646	-2.2146	-2.2792	-1.9625	-2.3292	-2.0771	-2.0438	-2.4042	-1.7833	-2.2125	461.300	351.692	294.655	295.337	246.185	389.233	160.538	171.595	167.841	212.641	468.912	381.812	427.473	398.325	361.362	430.920	0.00031662	0.00015952	0.00013624	214.05	5.498e-06	9.1944e-06	406.69	59.463	3.6316e-06	8.43e-06	130.14	61.255	26.58	8.9288	7.5051e-06	21.558	0.0022908	0.0027276	0.00077019	240.37	2.962e-05	3.0333e-05	427.71	69.413	2.913e-05	2.9881e-05	146.19	65.823	32.021	10.737	2.9182e-05	23.885	245.546	346.231	217.074	126.291	346.088	299.047	125.622	133.650	229.877	368.917	131.366	136.309	139.003	144.190	385.403	141.048	-8191	255	
1435.170	1	1	0	0	0.11445	0.21346	0.25511	0.18742	0.3369	0.085485	0.25848	0.27477	0.40114	0.29656	0.14939	0.29267	0.12266	0.37108	0.39205	0.18428	-1.775	-1.8417	-2.1292	-1.925	-1.9562	-2.35	-1.9146	-2.1917	-2.2146	-2.0187	-2.4271	-2.0542	-2.0333	-2.4313	-2.1437	-2.2167	173.014	217.825	212.960	423.601	440.015	455.198	182.773	400.353	190.624	455.569	292.221	442.735	405.766	465.744	199.233	340.333	0.00024849	0.00042484	0.00014591	217.12	1.7572e-06	1.1052e-05	408.99	60.48	7.7543e-06	9.1774e-06	127.75	61.306	26.881	8.993	2.809e-06	21.751	0.0022777	0.0027351	0.00075585	242.25	2.9446e-05	3.0238e-05	430.22	69.726	2.9194e-05	3.0381e-05	146.09	66.183	32.323	10.846	3.0167e-05	24.021	260.459	291.865	467.715	126.302	336.516	193.234	125.983	133.498	215.038	233.861	131.325	136.642	139.003	143.235	206.328	141.190	-8191	255	
1435.266	1	1	0	0	0.22586	0.20435	0.29593	0.19416	0.40284	0.18388	0.15689	0.099076	0.17491	0.1293	0.14407	0.14902	0.10086	0.19164	0.089344	0.27375	-1.8729	-1.9792	-2.1688	-2.4167	-2.1917	-2.5625	-2.075	-2.2021	-2.2354	-1.975	-2.4062	-2.1771	-2.0583	-2.3521	-1.9146	-2.1083	195.019	329.412	461.779	429.802	277.913	216.228	219.664	208.888	218.384	306.000	280.224	364.216	186.396	263.940	399.484	437.122	0.00019435	0.0014715	0.00018532	215.69	5.62e-06	1.1703e-05	411.89	59.587	4.3162e-06	7.1908e-06	127.85	61.423	26.917	8.9761	4.9362e-06	21.623	0.0023689	0.0028411	0.00078846	243.89	3.0114e-05	3.096e-05	432.53	69.802	2.9835e-05	3.1034e-05	146.43	66.109	32.306	10.873	3.028e-05	24.039	256.935	231.463	201.555	126.419	325.674	260.428	125.944	133.753	329.368	364.068	131.421	136.618	138.852	144.427	180.850	141.226	-8191	255	
1435.362	1	1	0	0	0.1634	0.104	0.068289	0.33353	0.26259	0.34357	0.18128	0.20762	0.084494	0.1884	0.31426	0.14642	0.08341	0.28357	0.029206	0.1985	-1.8729	-1.9104	-2.3833	-2.2167	-1.7521	-2.2417	-1.9833	-2.0792	-2.4625	-1.9396	-2.2042	-2.3771	-2.0687	-2.325	-2.0771	-2.1292	220.450	462.304	128.262	457.193	228.125	127.656	395.572	175.297	238.265	420.070	465.360	234.089	339.355	148.722	353.980	387.135	0.00023342	0.00018049	0.00024698	216.05	1.929e-06	6.8647e-06	409.97	60.67	9.3088e-07	1.0578e-05	129.15	61.749	27.067	9.0923	6.4732e-06	21.63	0.0023604	0.0028018	0.00078418	243.31	2.9544e-05	3.0479e-05	431.47	69.921	2.9421e-05	3.0151e-05	146.6	66.272	32.358	10.901	2.9768e-05	24.028	250.588	179.022	253.168	126.547	224.403	412.306	125.796	132.897	335.747	272.022	131.892	136.476	138.132	144.633	429.980	140.883	-8191	255	
1435.458	1	1	0	0	0.23209	0.13397	0.20972	0.21433	0.013023	0.17217	0.096743	0.54294	0.22625	0.079886	0.11941	0.19831	0.24041	0.043925	0.15467	0.012639	-1.8937	-2.05	-2.1708	-2.3625	-1.9458	-2.5083	-2.0771	-2.275	-2.3438	-2.0083	-2.2896	-2.3646	-1.8646	-2.3729	-2.1375	-2.0938	362.791	232.752	262.715	328.961	340.360	440.087	314.425	345.303	254.644	399.862	234.430	165.551	469.196	388.144	202.896	267.153	0.0003312	0.00049617	0.00018194	215.09	5.866e-06	6.6008e-06	410.34	60.593	3.4061e-06	3.6721e-06	130.86	61.773	27.237	9.1376	3.8548e-06	21.788	0.0023018	0.00276	0.00077372	242.39	2.9173e-05	3.0406e-05	431.63	70.076	2.9428e-05	3.0338e-05	146.81	66.296	32.359	10.968	3.0102e-05	24.093	235.647	125.212	260.151	126.523	161.792	348.433	125.941	133.739	213.947	340.126	131.502	136.419	139.271	144.710	427.027	141.386	-8191	255	
1435.577	1	1	0	0	0.19109	0.11895	0.078579	0.13977	0.17763	0.13377	0.11069	0.16716	0.29728	0.19225	0.17609	0.082406	0.24759	0.1646	0.22437	0.095254	-2.1188	-2.1396	-2.1604	-2.1896	-1.9438	-2.2083	-2.2417	-1.9625	-2.3458	-2.2354	-2.2229	-2.425	-2	-2.1125	-2.2687	-1.9896	247.287	302.832	267.753	465.101	160.377	162.573	414.976	462.152	120.583	287.226	456.028	154.132	433.625	419.397	344.998	230.483	0.00021723	0.0009042	3.4538e-05	217.9	1.7329e-06	7.4868e-06	409.94	60.794	3.1122e-06	6.2798e-06	129.58	62.23	27.266	9.1184	6.6028e-06	21.673	0.0023341	0.0027723	0.00078444	243.92	2.9932e-05	3.1085e-05	433.43	70.164	3.002e-05	3.1445e-05	147.76	66.889	32.772	11.089	3.1098e-05	24.152	247.022	227.896	278.943	126.832	221.880	275.921	125.693	133.842	340.421	173.844	131.885	136.322	138.587	144.436	308.947	141.507	-8191	255	
1435.673	1	1	0	0	0.24053	0.11633	0.11441	0.13048	0.087739	0.16282	0.17753	0.20627	0.19035	0.22651	0.16043	0.31237	0.059557	0.26127	0.19497	0.088553	-1.9208	-1.9271	-2.2167	-2.2375	-1.9104	-2.3792	-2.1979	-1.9438	-2.5021	-2.2062	-1.9792	-2.3937	-1.7729	-2.2792	-2.1375	-1.925	213.574	184.511	310.023	306.930	188.479	274.894	459.727	453.207	442.928	202.243	449.993	397.555	150.999	387.567	393.173	404.395	0.00024685	0.00097473	0.0001165	218.68	3.3746e-06	4.5427e-06	411.97	60.278	3.825e-06	2.4515e-06	128.65	60.985	27.267	9.0433	6.5732e-06	21.758	0.0024165	0.0029122	0.0008084	246.14	3.0771e-05	3.2357e-05	435.26	70.631	3.0902e-05	3.2057e-05	147.24	66.42	32.85	11.088	3.1524e-05	24.096	242.779	457.826	169.794	127.018	380.019	243.774	125.860	133.357	234.354	389.619	131.824	136.285	138.332	144.370	308.753	141.108	-8191	255	
1435.769	1	1	0	0	0.18458	0.20163	0.10579	0.15778	0.093842	0.32399	0.12873	0.29782	0.06874	0.21578	0.14549	0.11296	0.27695	0.085069	0.20485	0.1696	-1.7958	-2.1542	-1.8958	-2.4625	-1.9458	-2.1667	-2.35	-1.8687	-2.3	-2.1625	-1.8354	-2.3729	-2.0292	-2.0667	-2.3333	-1.7708	464.153	420.110	357.696	183.754	234.811	469.287	164.300	191.308	139.316	468.861	163.421	215.483	335.196	220.262	221.592	159.547	0.00024737	0.001228	7.8029e-05	220.29	1.5047e-06	9.3257e-06	411.81	61.566	8.9869e-06	1.1232e-05	126.71	61.558	27.406	9.224	5.0785e-06	21.697	0.0024559	0.0029794	0.00083146	248.14	3.1747e-05	3.3193e-05	436.28	71.504	3.2191e-05	3.3131e-05	147.11	66.797	33.177	11.205	3.2391e-05	24.273	233.260	214.348	153.599	126.598	418.261	208.720	126.065	133.657	301.658	330.696	131.553	136.242	138.751	144.169	138.876	141.199	-8191	255	
1435.866	1	1	0	0	0.16519	0.060427	0.27783	0.32059	0.05444	0.11775	0.11444	0.12949	0.12976	0.15173	0.36338	0.073588	0.11287	0.11332	0.052522	0.17131	-1.7458	-2.1667	-2.0542	-2.4542	-2.0792	-2.075	-2.3083	-2.025	-2.3104	-2.2125	-1.7979	-2.4146	-2.1167	-2.0542	-2.325	-1.8271	416.100	433.970	398.040	344.256	461.071	221.349	431.425	263.974	357.635	174.808	281.299	137.528	316.847	317.115	144.250	259.821	0.00024507	0.00071909	0.00018502	218.69	5.9586e-06	1.8424e-06	411.72	62.042	2.1641e-06	6.8559e-06	129	61.971	27.242	9.236	7.2862e-06	21.684	0.0025326	0.0030707	0.00085288	248.76	3.2444e-05	3.4226e-05	439.2	72.023	3.2872e-05	3.3818e-05	149.04	67.243	33.506	11.353	3.3089e-05	24.422	236.171	349.086	362.896	126.561	388.148	125.516	125.919	133.633	437.669	256.072	131.724	136.397	138.719	144.174	229.196	140.785	-8191	255	
1435.962	1	1	0	0	0.23122	0.12667	0.218	0.084846	0.14732	0.13288	0.24464	0.027295	0.18772	0.14153	0.093492	0.21093	0.10012	0.11104	0.2542	0.25608	-1.9375	-2.225	-1.8937	-2.3	-2.0708	-2.0687	-2.35	-1.8333	-2.3312	-2.1396	-1.9354	-2.3792	-2.1542	-1.9167	-2.35	-1.8604	438.349	422.105	336.433	438.302	194.705	324.011	305.522	127.614	354.852	177.587	242.984	360.567	416.891	432.075	343.447	453.220	0.00023003	0.00073524	0.0001786	219.24	3.557e-06	7.8348e-06	412.76	62.002	6.0858e-06	5.3238e-06	129.63	62.001	27.478	9.1707	2.7895e-06	21.85	0.0026179	0.0031367	0.0008689	250.49	3.3402e-05	3.4555e-05	441.03	72.822	3.3349e-05	3.4351e-05	149.62	67.474	33.617	11.356	3.3005e-05	24.613	231.175	174.875	175.826	126.544	328.636	269.431	125.299	133.158	244.178	406.205	131.696	136.134	138.798	144.619	138.408	140.951	-8191	255	
1436.058	1	1	0	0	0.13866	0.089655	0.19583	0.25546	0.13785	0.074994	0.051366	0.056929	0.18606	0.20529	0.23377	0.087041	0.1217	0.18726	0.17421	0.18402	-1.7417	-2.1083	-2.0979	-2.275	-2.3583	-1.9792	-2.3542	-2.075	-2.2229	-2.3	-2.0563	-2.4833	-2.0687	-2.0312	-2.6271	-2.0167	360.851	374.955	248.837	457.202	261.766	263.247	268.807	360.158	202.417	331.087	266.726	136.117	191.132	134.084	442.578	416.979	0.00028671	0.00014052	0.00016934	218.47	1.1491e-06	6.0504e-06	412.33	62.495	2.7148e-06	3.308e-06	131.52	62.88	27.878	9.2555	7.7755e-06	21.943	0.0026239	0.0030895	0.00085589	250.22	3.2919e-05	3.4128e-05	439.31	72.572	3.2643e-05	3.3599e-05	149.67	67.52	33.676	11.314	3.1997e-05	24.395	230.964	311.663	170.108	126.554	233.774	278.041	125.763	133.520	440.292	163.183	131.273	136.731	138.459	144.508	253.400	140.949	-8191	255	
1436.179	1	1	0	0	0.037206	0.21936	0.099784	0.19092	0.39217	0.17805	0.19683	0.10542	0.42342	0.048848	0.17332	0.04311	0.31634	0.21854	0.19761	0.31533	-1.6979	-2.2438	-2.0187	-2.2292	-2.4021	-2.2396	-2.475	-2.2021	-2.05	-2.4625	-2.0292	-2.2979	-2.1458	-1.9667	-2.5604	-2.1625	167.341	370.862	177.112	200.885	123.407	171.946	147.803	160.178	172.891	345.350	303.398	160.359	137.302	357.554	367.970	434.956	0.00021157	0.0011817	0.00012996	222.51	5.0951e-06	4.6823e-06	415.49	62.524	3.8659e-06	3.2081e-06	129.06	62.384	27.557	9.2964	4.4098e-06	21.848	0.0024981	0.0029545	0.00082198	248.96	3.1814e-05	3.222e-05	437.97	72.242	3.1262e-05	3.2192e-05	148.72	67.462	33.305	11.289	3.1218e-05	24.391	241.709	250.928	263.378	126.540	175.242	198.907	125.971	133.135	335.628	204.146	131.171	136.858	138.744	144.538	281.834	140.989	-8191	255	
1436.273	1	1	0	0	0.08571	0.11872	0.067662	0.33011	0.12914	0.11322	0.10944	0.20092	0.19008	0.14258	0.13787	0.065377	0.20178	0.23564	0.24093	0.18444	-1.6125	-2.3167	-1.9188	-2.3854	-2.2938	-1.9333	-2.5167	-2.2354	-2.0021	-2.5083	-2.1229	-2.2042	-2.3688	-1.8937	-2.5208	-2.4313	343.749	360.826	247.922	378.316	126.861	339.598	298.457	212.253	393.082	384.591	364.696	464.589	366.248	136.385	153.802	141.871	0.00024498	0.00065853	0.00013072	221.66	1.0598e-05	7.5462e-06	413.95	61.538	5.4239e-06	7.7177e-06	130.82	63.049	27.615	9.3412	2.952e-06	21.775	0.0024519	0.002938	0.00081209	249.86	3.1411e-05	3.2589e-05	439.09	72.172	3.1772e-05	3.2478e-05	149.87	67.963	33.448	11.344	3.2259e-05	24.472	240.374	189.841	326.727	126.518	458.447	269.841	125.836	133.490	328.613	250.702	131.788	136.456	138.248	145.078	328.015	141.054	-8191	255	
1436.369	1	1	0	0	0.073143	0.068294	0.21279	0.17055	0.13851	0.076051	0.19079	0.25203	0.17491	0.22355	0.11365	0.043296	0.10537	0.18538	0.050929	0.27192	-1.5479	-2.3229	-1.9229	-2.2146	-2.2938	-2.0042	-2.5187	-2.0104	-1.8854	-2.3896	-2.2438	-2.3229	-2.2167	-1.8958	-2.2687	-2.3667	445.845	389.441	421.768	433.022	289.998	413.625	437.023	252.083	392.813	416.790	180.087	283.713	284.477	344.146	335.788	412.378	0.00017969	0.00081704	0.00027339	220.26	4.4441e-06	6.2302e-06	414.72	61.504	3.1154e-06	2.9344e-06	129.48	63.015	28.078	9.2405	1.2278e-05	21.868	0.0025537	0.0030374	0.00084982	250.87	3.2326e-05	3.3362e-05	441.62	72.396	3.247e-05	3.3e-05	149.51	67.725	33.554	11.3	3.2692e-05	24.415	254.485	328.646	236.015	126.585	281.232	217.288	125.985	133.603	452.196	388.973	131.675	136.287	138.837	144.236	340.088	141.161	-8191	255	
1436.467	1	1	0	0	0.50346	0.036556	0.10945	0.16516	0.20303	0.19412	0.08142	0.27676	0.21178	0.19599	0.45357	0.089452	0.17316	0.16357	0.093158	0.23913	-1.5896	-2.3187	-2.2083	-1.8896	-2.4938	-1.9604	-2.4917	-2.2125	-2.1042	-2.5438	-2.2062	-2.2042	-2.3979	-2.0479	-2.2979	-2.2917	126.352	263.215	238.857	390.515	234.523	415.572	389.793	174.029	296.888	311.310	417.354	382.251	438.700	136.776	192.959	344.859	0.00027412	0.0010134	0.00013843	220.73	5.1692e-06	6.5975e-06	417.43	62.627	5.2757e-06	4.9209e-06	130.94	62.275	27.333	9.3876	1.2394e-05	21.884	0.0025135	0.0030159	0.00084346	250.83	3.2079e-05	3.3496e-05	442.05	72.679	3.2407e-05	3.3512e-05	150.27	67.525	33.707	11.351	3.3164e-05	24.402	239.570	319.253	347.357	126.340	170.706	319.192	125.650	133.677	303.444	344.343	131.748	136.879	138.821	143.916	279.598	141.050	-8191	255	
1436.561	1	1	0	0	0.30071	0.28867	0.064988	0.31076	0.13707	0.16202	0.11809	0.18836	0.31362	0.13416	0.14687	0.21317	0.085445	0.038924	0.090636	0.31553	-1.4167	-2.4125	-2.0542	-2.1396	-2.3771	-1.9583	-2.3396	-2.2667	-1.9458	-2.5812	-2.2896	-1.9604	-2.3542	-2.0563	-2.1958	-2.2812	335.269	277.290	259.078	413.625	116.837	286.105	281.817	135.779	195.914	393.615	197.498	469.001	335.874	341.239	164.736	463.519	0.00016692	0.0012128	0.0001272	219.33	2.5405e-06	2.5241e-06	414.1	62.93	7.9247e-06	5.5141e-06	131.76	62.837	28.375	9.4371	4.1731e-06	21.858	0.0025363	0.0030498	0.00085724	250.76	3.2363e-05	3.3626e-05	441.08	73.164	3.2693e-05	3.364e-05	151.35	68.156	34.024	11.429	3.3195e-05	24.55	244.443	374.948	280.529	127.093	392.469	206.901	125.970	133.213	420.889	245.120	131.076	136.133	139.158	144.849	435.565	141.243	-8191	255	
1436.658	1	1	0	0	0.13399	0.17149	0.083628	0.078902	0.17645	0.29096	0.38594	0.25604	0.16567	0.15661	0.15269	0.12822	0.3468	0.10456	0.1077	0.10261	-1.3687	-2.2	-2.0396	-2	-2.4292	-2.1437	-1.9729	-2.3792	-2.0354	-2.6396	-2.3146	-1.8438	-2.4062	-2.2188	-2.0542	-2.4083	399.838	233.506	440.372	452.476	385.527	358.927	423.304	162.118	306.960	311.172	226.844	127.022	125.861	239.605	317.387	157.510	0.00011181	0.001086	0.00029177	222.66	6.8748e-06	6.9293e-06	417.82	63.307	1.2872e-06	1.3713e-06	132.27	63.121	28.132	9.4152	4.3063e-06	21.918	0.0025889	0.0031253	0.00087081	251.7	3.2965e-05	3.472e-05	444.66	74.008	3.3112e-05	3.4538e-05	152.44	68.537	34.111	11.487	3.3936e-05	24.634	269.489	316.797	218.701	126.352	200.377	258.718	125.601	133.992	434.880	392.318	131.605	136.926	138.065	144.236	236.204	141.130	-8191	255	
1436.778	1	1	0	0	0.037405	0.14836	0.095202	0.11459	0.026161	0.053188	0.24609	0.1057	0.021978	0.19064	0.22429	0.050627	0.1999	0.061695	0.26105	0.26792	-1.6771	-2.2271	-2.2479	-1.8292	-2.4479	-2.175	-2.0979	-2.3083	-2.0229	-2.3937	-2.2167	-1.8104	-2.2583	-2.1937	-2.2562	-2.375	374.027	327.336	307.263	137.481	412.626	142.905	410.818	215.021	406.004	250.178	414.655	130.158	386.553	180.067	216.376	132.987	0.00020893	0.00067033	0.00019461	219.75	7.9442e-06	9.2361e-06	420.25	62.631	5.2507e-06	4.7758e-06	131.62	62.31	28.146	9.3871	7.0854e-06	21.99	0.0026146	0.0031289	0.00087881	252.02	3.3414e-05	3.4797e-05	445.89	73.936	3.4365e-05	3.5259e-05	152.51	68.404	34.373	11.568	3.5021e-05	24.715	253.613	214.631	139.250	126.383	439.787	217.162	126.050	133.168	139.719	231.664	131.872	136.612	138.892	144.471	326.543	140.830	-8191	255	
1436.874	1	1	0	0	0.15188	0.17111	0.10416	0.098017	0.075121	0.049721	0.40188	0.12702	0.18393	0.12846	0.29402	0.10537	0.10519	0.080171	0.24591	0.14729	-1.525	-2.0375	-2.1937	-2.1354	-2.2812	-2.3167	-1.9979	-2.4167	-2.1562	-2.1896	-2.5729	-1.8479	-2.2979	-2.3271	-2.0125	-2.5396	126.299	245.422	381.307	339.758	241.177	260.296	432.080	209.620	151.461	129.194	326.904	415.685	153.987	416.547	339.998	166.476	0.00025156	0.00096208	8.877e-05	222.65	4.9706e-06	4.9405e-06	419.85	62.528	5.6384e-06	9.9543e-06	131.87	63.008	28.091	9.343	5.7623e-06	21.865	0.0027164	0.0032853	0.00091883	255.3	3.4774e-05	3.619e-05	447.31	73.741	3.4802e-05	3.5865e-05	152.17	68.56	34.336	11.649	3.5405e-05	24.87	249.583	226.206	219.150	126.483	279.551	222.129	125.874	134.126	395.384	392.043	131.338	136.570	138.735	144.969	417.582	140.706	-8191	255	
1436.971	1	1	0	0	0.20731	0.34458	0.14966	0.30667	0.079032	0.051776	0.13907	0.2235	0.12689	0.03526	0.046553	0.16512	0.15988	0.066981	0.15653	0.13539	-1.6479	-2.0729	-2.3646	-2.1229	-2.2396	-2.2979	-1.9292	-2.3417	-2.0542	-2.0042	-2.3271	-1.9208	-2.2917	-2.1542	-2.0812	-2.3375	356.609	325.333	441.813	161.964	289.930	233.056	235.839	132.155	231.966	453.214	428.319	375.000	474.152	399.014	303.433	271.258	0.00022227	0.00038298	0.00018096	221.83	4.446e-06	5.9081e-06	422.7	62.284	9.5838e-06	7.2658e-07	130.33	62.639	27.904	9.3939	4.2342e-06	22.152	0.0027946	0.0033493	0.00092253	255.18	3.6042e-05	3.7243e-05	450.9	73.834	3.6047e-05	3.738e-05	152.85	68.729	34.653	11.703	3.6278e-05	25.002	231.292	126.712	472.284	126.729	343.888	296.556	126.106	133.406	248.340	308.995	131.262	137.157	138.932	144.594	221.985	141.148	-8191	255	
1437.067	1	1	0	0	0.32869	0.24061	0.29013	0.1989	0.027452	0.38777	0.31508	0.1165	0.19923	0.12823	0.27319	0.21291	0.2038	0.060772	0.11525	0.0090188	-1.5771	-1.9229	-2.3521	-1.9771	-1.9813	-2.2708	-1.9354	-2.2562	-2.1354	-1.9354	-2.4583	-2.1708	-2.3292	-2.3125	-1.9688	-2.2875	372.954	370.596	283.212	143.452	415.621	314.422	263.869	442.276	448.595	384.444	407.283	356.580	248.030	138.317	386.153	143.398	0.00015822	4.3659e-06	5.9578e-05	222.03	7.039e-06	2.2854e-06	421.5	62.219	4.8983e-06	8.9668e-06	130.12	62.681	27.855	9.4842	5.5811e-06	22.075	0.0028335	0.0034107	0.00095572	255.88	3.6471e-05	3.7923e-05	451.88	74.428	3.6589e-05	3.7551e-05	153.57	68.928	34.701	11.804	3.6122e-05	25.087	247.326	276.207	182.777	126.813	294.567	413.773	125.817	133.597	311.126	192.984	131.574	136.726	138.864	145.123	347.633	141.367	-8191	255	
1437.138	1	1	0	0	0.12999	0.015821	0.085026	0.0818	0.21706	0.11926	0.37907	0.052643	0.081733	0.24629	0.14042	0.061189	0.18576	0.1795	0.30978	0.19439	-1.6125	-1.8312	-2.6396	-1.9917	-2.1396	-2.3479	-2.025	-2.4458	-2.2021	-2.0667	-2.4771	-2.0417	-2.1833	-2.2062	-2.1208	-2.5354	269.670	237.092	260.596	381.565	407.217	469.966	471.113	422.461	235.778	332.336	471.131	356.626	429.763	232.556	340.786	461.062	0.00022584	0.0011369	8.1791e-05	224.58	6.4486e-06	7.402e-06	422.18	62.168	3.7533e-06	1.5799e-05	129.87	62.953	27.974	9.3912	3.8378e-06	22.278	0.0028182	0.0033419	0.00092714	256.54	3.5865e-05	3.6575e-05	450.31	74.326	3.6101e-05	3.694e-05	152.68	68.896	34.693	11.744	3.5612e-05	25.031	257.633	226.617	166.149	126.332	221.965	394.527	125.829	133.853	436.688	297.396	131.215	136.604	138.049	144.920	333.335	141.122	-8191	255	
1437.259	1	1	0	0	0.15837	0.14426	0.10345	0.067748	0.14718	0.26478	0.14692	0.14544	0.13713	0.15395	0.13482	0.018217	0.045518	0.17153	0.24815	0.074694	-1.5208	-1.9396	-2.3604	-1.9417	-2.0167	-2.3917	-2.1042	-2.1208	-2.175	-1.9562	-2.3583	-1.9625	-2	-2.4062	-1.9375	-2.2979	282.355	184.050	277.906	386.318	326.320	154.848	232.636	211.052	361.119	203.286	135.705	146.927	156.813	131.937	338.189	425.264	0.00016211	0.00068301	0.0001746	225.44	5.1452e-06	3.8369e-06	421.25	62.52	5.7413e-06	7.136e-06	132.19	63.353	28.259	9.5229	5.6934e-06	22.231	0.0027762	0.0033522	0.00092096	257.58	3.5525e-05	3.647e-05	450.28	74.207	3.5485e-05	3.6726e-05	153.41	69.245	34.799	11.802	3.6929e-05	25.176	237.952	233.617	194.153	126.901	391.559	283.113	126.042	133.716	159.588	381.072	132.018	136.325	139.024	144.445	424.773	141.356	-8191	255	
1437.353	1	1	0	0	0.18866	0.078429	0.27075	0.11528	0.25059	0.29011	0.19322	0.2054	0.070294	0.12272	0.087741	0.32779	0.15985	0.10026	0.3626	0.14559	-1.7417	-1.8312	-2.1896	-1.9875	-2.1688	-2.1688	-1.9917	-2.0521	-2.2812	-1.9271	-2.1979	-2.1208	-1.9771	-2.3833	-1.9958	-2.1188	378.749	177.315	313.389	264.671	263.661	122.704	377.607	227.734	210.944	447.195	320.431	452.555	140.440	402.271	310.326	440.127	0.00022529	0.0011473	0.0002472	222.99	1.5818e-06	3.1441e-06	422.06	61.713	7.2867e-06	4.8719e-06	129.59	63.211	28.471	9.5427	4.1956e-06	22.111	0.0029058	0.0035115	0.00097958	258.39	3.7372e-05	3.8513e-05	453.78	74.603	3.7201e-05	3.8277e-05	153.67	69.652	35.107	11.895	3.7555e-05	25.307	251.474	275.730	272.900	126.582	298.202	352.117	126.073	133.691	234.045	214.872	131.838	136.490	139.025	144.374	211.011	141.108	-8191	255	
1437.450	1	1	0	0	0.16938	0.084962	0.11361	0.25883	0.10293	0.34552	0.19175	0.21364	0.19752	0.23146	0.20429	0.090236	0.13835	0.17998	0.029841	0.34263	-2	-2.0187	-2.5708	-2.1646	-2.0125	-2.4583	-2.0667	-2.0812	-2.2687	-1.9937	-2.2917	-2.1396	-2.0146	-2.4396	-2.0375	-2.1937	177.573	423.653	292.300	139.870	229.481	433.580	277.807	187.792	344.117	318.579	382.510	161.420	137.644	328.982	203.678	446.659	0.00035051	0.0010023	6.9391e-06	226.19	5.9882e-06	5.8744e-06	426.17	62.888	2.5945e-06	4.1636e-06	129.78	64.066	28.354	9.5321	5.9646e-06	22.403	0.0029223	0.0035221	0.00098266	259.65	3.7179e-05	3.8316e-05	455.27	74.641	3.6694e-05	3.7768e-05	153.92	69.595	34.874	11.929	3.6977e-05	25.358	235.855	333.861	389.627	126.742	147.121	203.777	125.785	133.864	375.320	232.799	131.327	136.751	138.874	144.558	293.942	140.759	-8191	255	
1437.546	1	1	0	0	0.22547	0.021141	0.2514	0.34681	0.033039	0.16203	0.089462	0.054094	0.3019	0.18926	0.097253	0.2154	0.16933	0.11242	0.18427	0.34438	-1.9062	-1.9833	-2.175	-2.2438	-1.8542	-2.3063	-2.15	-1.9458	-2.4167	-1.975	-2.15	-2.1896	-2	-2.5	-1.9917	-2.0396	334.816	322.073	278.340	429.563	439.974	216.262	128.878	241.429	410.512	313.017	343.849	175.448	442.267	170.812	268.112	448.367	0.00025621	0.00039425	0.0002714	223.6	1.7582e-06	3.1318e-06	421.85	62.698	5.7167e-06	1.0533e-06	131.96	63.148	28.12	9.5842	4.1932e-06	22.465	0.0028702	0.003458	0.00096118	258.36	3.6447e-05	3.7512e-05	454.34	74.717	3.5595e-05	3.7233e-05	154.14	69.468	34.715	11.837	3.5882e-05	25.313	234.903	354.449	227.546	126.201	290.016	383.421	125.936	133.497	226.023	141.125	132.369	136.916	138.589	144.754	145.386	141.042	-8191	255	
1437.666	1	1	0	0	0.093059	0.28766	0.15277	0.33849	0.17806	0.20474	0.22103	0.11793	0.25971	0.091675	0.09657	0.17285	0.34743	0.17225	0.13234	0.23601	-1.8813	-1.7021	-2.1583	-2.2958	-1.9333	-2.1562	-2.3208	-1.9875	-2.4375	-1.9688	-2.3042	-2.5646	-1.9979	-2.4	-2.1479	-2.1104	118.609	364.950	171.122	425.549	147.582	273.208	238.026	322.810	304.107	294.488	134.314	129.810	122.003	198.650	236.982	170.560	0.00028825	0.00016515	0.00018618	223.69	1.3698e-06	3.064e-06	422.63	62.931	8.0625e-06	7.4651e-06	131.68	63.618	28.152	9.5304	1.1956e-05	22.613	0.0027514	0.0033352	0.00094138	256.73	3.5142e-05	3.6597e-05	452.34	74.337	3.4939e-05	3.6123e-05	153.04	69.502	34.599	11.836	3.5479e-05	25.319	242.466	407.295	306.748	126.617	368.199	265.501	125.772	133.021	409.695	187.311	131.036	136.462	138.626	144.106	335.915	141.125	-8191	255	
1437.738	1	1	0	0	0.18921	0.17797	0.2019	0.21068	0.14269	0.11491	0.009926	0.16666	0.2157	0.15241	0.15957	0.19832	0.056215	0.013562	0.23355	0.186	-1.8771	-1.9813	-2.1312	-2.3479	-1.8417	-2.3937	-2.2521	-2.0333	-2.3917	-2.1708	-2.1333	-2.3688	-1.9604	-2.2146	-2.2625	-1.9062	356.329	318.835	178.101	416.440	143.983	236.285	138.904	300.942	345.934	354.845	151.262	128.336	335.980	271.760	302.113	443.700	0.00020484	0.00072804	0.00010883	223.5	3.8778e-06	3.2752e-06	423.71	62.887	6.6719e-06	5.3485e-06	131.96	64.407	28.155	9.5483	1.8236e-06	22.713	0.0027543	0.0033536	0.00092122	256.96	3.4816e-05	3.6231e-05	451.63	74.227	3.4816e-05	3.6161e-05	153.56	69.675	34.66	11.825	3.5579e-05	25.424	219.976	291.112	198.465	126.541	137.941	170.907	125.850	133.558	190.177	229.189	131.932	136.896	139.460	143.930	246.792	140.992	-8191	255	
1437.859	1	1	0	0	0.19485	0.27054	0.2236	0.23887	0.14332	0.27266	0.12623	0.10273	0.19302	0.15501	0.048317	0.070519	0.17028	0.080765	0.23167	0.2697	-1.9604	-2	-1.9542	-2.2062	-1.9312	-2.3604	-2.2875	-2.0229	-2.2958	-2.0229	-2.0292	-2.3729	-2.0042	-2.0667	-2.1771	-1.8104	152.557	320.204	367.066	358.438	402.723	264.582	295.000	159.016	307.922	293.639	430.640	142.527	125.392	289.428	120.602	464.330	0.0002948	0.00037871	0.00044035	224.29	1.0681e-05	8.1709e-06	421.36	63.287	7.4612e-06	6.0606e-06	130.79	63.923	28.294	9.4269	3.7229e-06	22.134	0.0027709	0.0033113	0.00093647	256.54	3.5627e-05	3.7005e-05	450.86	74.509	3.5979e-05	3.7196e-05	153.71	69.378	34.693	11.739	3.5967e-05	25.102	254.418	161.378	228.236	126.442	275.359	257.733	125.804	133.221	291.218	295.391	131.765	136.413	138.986	144.675	249.464	141.276	-8191	255	
1437.955	1	1	0	0	0.23895	0.21528	0.055974	0.27542	0.092383	0.14022	0.26722	0.17463	0.075	0.1047	0.17132	0.13745	0.26656	0.28745	0.11771	0.23954	-1.8542	-2.1312	-1.9333	-2.3458	-2.0062	-2.25	-2.1188	-1.8833	-2.1271	-2.2812	-2.1813	-2.375	-2.1333	-2.0104	-2.3417	-1.9312	244.900	235.735	409.828	132.889	262.789	429.192	475.102	398.134	377.016	282.351	430.765	336.187	402.370	335.573	122.803	279.530	0.00028978	0.001021	0.00029182	221.46	5.4207e-06	6.8024e-06	421.46	62.911	5.95e-06	6.0374e-06	132.94	63.58	28.241	9.3862	6.3774e-06	22.182	0.0027671	0.0033495	0.00092027	255.29	3.5238e-05	3.6965e-05	449.85	74.662	3.5372e-05	3.6687e-05	154.5	69.354	34.749	11.684	3.5789e-05	25.013	219.344	205.647	134.359	125.916	181.784	311.067	125.851	133.412	214.115	268.746	131.583	137.054	138.744	144.866	322.676	141.633	-8191	255	
1438.051	1	1	0	0	0.26399	0.21602	0.064648	0.099913	0.077998	0.087859	0.062587	0.15101	0.29886	0.15578	0.30793	0.12347	0.17478	0.3779	0.14159	0.061534	-1.6896	-2.1125	-1.9208	-2.4146	-2.2604	-1.9208	-2.2646	-2.0417	-2.35	-2.3625	-1.7521	-2.4417	-2.0479	-2.0208	-2.3063	-1.9729	172.951	351.860	249.094	144.002	274.880	386.457	429.195	256.331	471.422	383.457	340.169	307.362	418.235	117.546	167.833	420.729	0.00024273	0.0007374	5.439e-05	224.51	3.8785e-06	1.8422e-06	421.43	64.032	6.1672e-06	3.3567e-06	134.04	64.102	27.912	9.3669	7.2883e-06	22.411	0.0027746	0.0033724	0.00093426	255	3.5939e-05	3.71e-05	450.97	75.184	3.5808e-05	3.6533e-05	155.28	69.497	34.734	11.728	3.6064e-05	25.2	242.887	156.306	270.318	126.422	176.471	376.838	125.679	134.138	353.716	239.927	131.537	136.826	139.274	144.751	261.569	140.773	-8191	255	
1438.147	1	1	0	0	0.23526	0.15591	0.27128	0.084402	0.18719	0.041814	0.15786	0.049107	0.11361	0.12488	0.33974	0.12974	0.1907	0.14599	0.22261	0.12006	-1.8021	-2.2417	-1.9625	-2.2771	-2.0667	-2.0542	-2.5771	-2.0958	-2.2083	-2.2583	-1.9438	-2.3396	-1.9042	-1.9646	-2.5563	-2.0104	251.691	399.036	457.976	376.907	151.880	332.732	464.507	388.264	250.808	385.097	356.959	454.049	320.503	126.276	344.041	184.683	0.00031682	0.00055691	8.3783e-05	223.99	5.9502e-06	4.8252e-06	426.58	63.052	6.869e-06	7.2928e-06	133.04	64.139	27.943	9.467	1.062e-05	22.512	0.0028531	0.0034276	0.00093945	256.11	3.6405e-05	3.7201e-05	452.66	75.114	3.6204e-05	3.7076e-05	154.9	70.18	34.801	11.763	3.5503e-05	25.337	267.346	365.680	277.199	126.736	316.906	455.741	125.976	133.853	373.437	313.981	132.275	136.932	138.931	144.300	145.176	141.218	-8191	255	
1438.268	1	1	0	0	0.23477	0.056914	0.10165	0.04718	0.22248	0.042735	0.13097	0.21411	0.063795	0.06575	0.050999	0.21367	0.35493	0.15014	0.20052	0.095389	-1.5688	-2.2958	-2.0104	-2.2812	-2.0354	-2.2542	-2.4062	-1.9875	-2.0917	-2.4458	-1.9042	-2.3854	-2.1604	-1.7875	-2.3479	-2.1792	257.485	160.216	200.137	438.643	461.159	342.250	422.497	152.850	293.073	175.407	375.744	158.389	402.118	245.690	418.824	238.093	0.00011494	0.00036694	0.00019729	226.53	9.4117e-06	6.7643e-06	427.39	64.059	4.6566e-06	2.395e-06	133.34	64.55	28.279	9.5025	5.8756e-06	22.785	0.0027968	0.0033067	0.00091792	257.24	3.5543e-05	3.6673e-05	453.85	75.298	3.5336e-05	3.6031e-05	154.28	70.139	34.825	11.794	3.4965e-05	25.516	222.089	456.948	156.398	126.245	231.625	363.114	126.120	133.433	277.315	231.079	131.865	137.053	139.015	144.257	128.774	141.087	-8191	255	
1438.339	1	1	0	0	0.18598	0.096363	0.25425	0.13166	0.033722	0.17882	0.092215	0.32109	0.2149	0.13832	0.46376	0.18609	0.27742	0.1589	0.21478	0.11007	-1.5562	-2.2854	-1.9604	-2.25	-2.2771	-2.0687	-2.2979	-2.0521	-1.9708	-2.275	-1.9813	-2.1104	-2.2667	-2.0833	-2.1521	-2	272.624	424.797	221.061	349.970	464.226	183.682	393.858	412.849	381.413	289.771	437.780	433.992	248.071	368.990	406.986	135.005	0.0001633	0.00052585	0.00010769	225.35	2.1215e-06	1.0641e-05	423.42	63.304	2.1815e-06	4.6498e-06	134.47	63.996	28.401	9.5627	1.9777e-06	22.632	0.0027328	0.0032756	0.00092025	257.14	3.5624e-05	3.6551e-05	452.85	75.392	3.6598e-05	3.7797e-05	155.78	70.427	35.238	11.936	3.6966e-05	25.719	233.966	444.985	235.656	126.673	117.447	467.270	126.060	133.860	316.053	318.770	131.645	136.759	139.230	144.315	171.432	141.576	-8191	255	
1438.434	1	1	0	0	0.093486	0.33554	0.11761	0.21432	0.12635	0.19602	0.15162	0.075065	0.11682	0.14893	0.21595	0.023806	0.021203	0.16016	0.19615	0.20358	-1.4875	-2.2771	-2.0125	-2.3708	-2.2687	-1.8062	-2.3896	-2.0833	-1.9542	-2.425	-2.0521	-2.1646	-2.1292	-2.0021	-2.3042	-2.1542	237.782	190.047	269.829	425.863	284.505	377.734	129.071	470.366	130.340	152.591	304.107	175.783	285.743	237.536	369.879	186.931	0.00016773	0.0012852	8.2766e-05	225.01	1.7756e-05	6.1441e-06	427.85	63.357	1.7591e-05	1.0625e-05	134.52	65.763	28.461	9.6193	7.5699e-06	22.851	0.0028466	0.003431	0.00096657	259.36	3.6461e-05	3.7145e-05	456.13	75.8	3.5508e-05	3.6772e-05	156.34	71.084	35.167	11.896	3.6109e-05	25.788	248.884	276.016	162.062	126.721	350.710	155.150	125.953	134.095	310.814	193.602	131.416	136.624	139.095	144.839	328.695	140.680	-8191	255	
1438.554	1	1	0	0	0.27017	0.088279	0.10113	0.055461	0.17576	0.13596	0.11408	0.084349	0.42791	0.052117	0.095442	0.23983	0.15158	0.22033	0.41598	0.20273	-1.3729	-2.3146	-1.9583	-2.3812	-2.475	-2.0521	-2.3521	-2.4167	-2.0542	-2.4396	-2.0833	-2.2438	-2.2917	-1.9792	-2.2313	-2.3958	380.291	334.114	405.327	381.603	395.323	194.849	393.359	412.470	251.987	341.696	172.063	402.329	221.170	434.069	121.070	336.838	0.00017388	0.0002786	0.00016135	223.62	9.7101e-06	6.1883e-06	429.1	63.331	5.5207e-06	3.8034e-06	133.87	65.69	28.405	9.7939	6.8848e-06	23.025	0.0027765	0.0033242	0.00091885	256.55	3.4963e-05	3.6506e-05	457.24	75.305	3.4648e-05	3.5597e-05	155.71	70.943	34.907	11.843	3.3951e-05	25.614	241.033	378.822	272.330	126.813	258.708	286.155	126.220	133.183	148.616	336.191	131.970	137.333	138.357	144.259	138.840	141.259	-8191	255	
1438.651	1	1	0	0	0.25845	0.24117	0.16786	0.107	0.07771	0.10573	0.073066	0.12682	0.37497	0.16353	0.24902	0.077922	0.22496	0.013871	0.26791	0.048502	-1.5979	-2.2854	-2.2438	-2.1667	-2.4917	-1.9708	-2.4854	-2.3104	-1.9875	-2.4875	-2.3063	-1.9396	-2.3604	-1.9708	-2.1917	-2.4521	414.359	399.286	152.402	163.918	464.002	362.349	420.388	414.794	355.932	353.153	424.093	347.978	335.727	238.736	232.737	144.939	0.00023198	0.00048369	0.00023519	225.82	2.2013e-06	1.5749e-06	422.81	64.821	2.5652e-06	7.7236e-06	134.64	64.948	28.39	9.597	3.0355e-06	22.852	0.0026314	0.0031235	0.00088038	255.04	3.3123e-05	3.4489e-05	451.33	74.913	3.2781e-05	3.379e-05	154.51	70.29	34.596	11.75	3.4124e-05	25.61	230.798	154.680	238.485	126.821	368.152	182.370	126.151	133.690	307.096	328.827	131.990	136.685	139.121	144.738	379.531	141.377	-8191	255	
1438.747	1	1	0	0	0.13344	0.23713	0.12168	0.1748	0.23854	0.23076	0.3323	0.14957	0.32286	0.11871	0.22844	0.29473	0.15237	0.30802	0.025054	0.066403	-1.4958	-2.0708	-2.1979	-1.8937	-2.3333	-2.1521	-2.1875	-2.5021	-1.6604	-2.3958	-2.0875	-2.0708	-2.3146	-1.8333	-2.0687	-2.4208	429.023	324.419	338.159	465.083	430.961	400.669	310.162	282.661	224.767	413.047	430.743	405.481	116.813	333.715	342.275	419.758	0.00016757	0.00072881	0.00025703	220.41	3.0106e-06	4.9628e-06	425.92	64.81	6.2714e-06	1.0115e-05	134.95	65.129	28.356	9.5577	7.5253e-06	22.752	0.0026313	0.0032193	0.00090745	254.55	3.4242e-05	3.5437e-05	454.14	75.165	3.3873e-05	3.5605e-05	155.87	70.573	34.779	11.772	3.4692e-05	25.54	235.030	193.984	228.635	126.644	410.304	180.525	125.939	134.274	236.083	196.446	131.412	136.495	138.856	144.732	232.136	140.971	-8191	255	
1438.843	1	1	0	0	0.30379	0.19556	0.10089	0.1112	0.2583	0.094062	0.27155	0.14297	0.1852	0.19867	0.036321	0.1107	0.1741	0.064258	0.13805	0.28359	-1.4188	-2.2938	-2.1708	-1.9771	-2.3375	-2.2104	-2.2271	-2.3063	-1.9667	-2.275	-2.2479	-1.9833	-2.5021	-2.0979	-2.0687	-2.3917	171.270	189.840	419.489	149.880	159.649	353.407	371.200	400.350	468.856	281.245	120.562	129.468	172.952	126.444	234.127	155.787	0.00034726	0.00061452	0.00015629	222.66	8.162e-06	1.1709e-05	430.27	64.596	5.0448e-06	2.7347e-06	135.92	65.557	28.729	9.6151	2.3793e-06	23.186	0.0026973	0.0032586	0.00090038	254.62	3.4506e-05	3.5822e-05	456.04	75.579	3.4316e-05	3.5178e-05	156.11	70.964	34.795	11.79	3.4181e-05	25.771	224.970	469.970	225.302	126.554	158.917	349.227	126.151	133.495	183.122	242.133	130.844	136.529	139.414	144.509	307.874	141.465	-8191	255	
1438.963	1	1	0	0	0.16467	0.14971	0.076238	0.15598	0.1379	0.18451	0.10589	0.18638	0.29534	0.061273	0.080846	0.36121	0.14205	0.043092	0.035017	0.23232	-1.5438	-2.2542	-2.2062	-2.0396	-2.2354	-2.1625	-1.9417	-2.3917	-1.9979	-2.0583	-2.3417	-1.7271	-2.125	-2.0167	-1.8542	-2.5271	321.353	233.901	447.718	364.585	358.286	440.548	409.567	212.173	329.582	122.103	376.136	435.423	356.738	336.519	290.500	472.079	0.00022432	0.0015124	0.00011472	225.94	9.2369e-06	4.9675e-06	426.53	65.603	5.5658e-06	2.0584e-06	137.45	65.8	28.96	9.5837	2.8995e-06	23.06	0.0026262	0.0031793	0.00088421	255.26	3.3542e-05	3.4641e-05	454.55	75.689	3.3399e-05	3.4395e-05	156.39	70.987	34.847	11.745	3.3614e-05	25.609	241.412	148.365	270.110	126.442	249.504	253.688	126.531	133.801	281.123	134.310	131.931	136.775	139.381	144.079	463.202	141.366	-8191	255	
1439.035	1	1	0	0	0.099395	0.075748	0.25585	0.058944	0.15586	0.23931	0.18604	0.17975	0.12093	0.14116	0.3123	0.18046	0.28108	0.15939	0.22726	0.1011	-1.3771	-2.2438	-2.1417	-1.9	-2.2625	-2.2167	-1.9604	-2.5104	-2.0542	-2.0354	-2.3	-1.8521	-2.3937	-2.1688	-1.9438	-2.3896	128.227	432.391	308.937	422.417	151.772	190.944	409.553	117.197	263.040	360.828	314.263	318.720	118.438	370.151	137.675	134.940	0.00021007	0.00084985	0.00014706	225.39	6.5898e-06	7.1703e-06	431.19	65.464	1.9644e-06	4.9965e-06	139.02	65.808	28.982	9.7053	7.0134e-06	23.044	0.002621	0.0031396	0.00086572	255.04	3.3051e-05	3.4244e-05	453.88	75.64	3.2478e-05	3.3476e-05	157.43	70.975	34.862	11.74	3.2412e-05	25.547	226.707	146.473	255.949	126.003	195.322	289.445	126.001	133.603	116.793	382.293	131.885	136.901	138.885	144.410	284.290	141.550	-8191	255	
1439.131	1	1	0	0	0.11195	0.13193	0.18573	0.24467	0.28782	0.063735	0.33664	0.16986	0.14883	0.2306	0.036968	0.25069	0.047376	0.27276	0.21861	0.18542	-1.725	-2.1125	-2.3333	-1.8563	-2.4229	-2.4167	-1.9083	-2.3604	-2.0729	-2.1854	-2.2875	-2.0021	-2.3708	-2.3146	-2.0542	-2.425	143.897	219.112	200.554	186.854	264.099	208.366	414.220	391.526	328.072	157.179	408.816	343.127	409.583	317.399	328.376	118.369	0.00021603	0.00096671	0.00012681	225.51	7.1302e-06	1.5021e-05	432.56	65.028	7.7388e-06	4.5916e-06	139.27	66.538	28.892	9.7677	1.146e-05	23.2	0.0025261	0.003006	0.00082996	253.59	3.2064e-05	3.3068e-05	454.6	75.7	3.1803e-05	3.3115e-05	157.11	71.685	34.852	11.845	3.2628e-05	25.77	245.864	415.335	251.535	126.543	148.300	298.245	125.693	134.022	161.874	198.587	131.931	136.813	139.030	144.453	274.640	141.080	-8191	255	
1439.227	1	1	0	0	0.077882	0.29871	0.27355	0.043417	0.24392	0.045032	0.065695	0.065174	0.15833	0.17602	0.16891	0.33261	0.03685	0.020977	0.1454	0.27643	-1.6667	-1.9042	-2.4688	-2.1125	-2.1708	-2.3604	-1.9333	-2.4729	-2.1583	-2.0146	-2.4896	-2.0021	-2.0896	-2.4562	-2.0604	-2.3708	333.703	470.446	311.941	448.853	204.147	220.327	209.391	317.587	396.464	163.560	127.662	451.809	309.110	446.261	286.098	129.813	0.00024156	0.001176	9.9616e-05	228.67	5.3548e-06	5.0773e-06	431.06	64.838	6.2989e-06	7.9041e-06	139.56	66.394	29.11	9.7999	2.9175e-06	23.177	0.0025683	0.0030652	0.0008471	256.1	3.2407e-05	3.3634e-05	456.87	76.051	3.2867e-05	3.4023e-05	158.06	71.755	35.041	11.878	3.3833e-05	25.846	258.184	250.477	319.244	126.878	256.467	396.884	126.120	134.135	445.216	320.729	131.772	136.772	138.758	144.298	415.513	141.186	-8191	255	
1439.346	1	1	0	0	0.19738	0.25052	0.096329	0.035501	0.11303	0.14647	0.099597	0.18522	0.1289	0.35527	0.035084	0.12239	0.17523	0.18111	0.072485	0.1216	-1.8146	-1.9729	-2.3646	-1.95	-2.2604	-2.2875	-2.0479	-2.3646	-2.1375	-2.0458	-2.5729	-2.0958	-2.2188	-2.2458	-2.1021	-2.35	382.929	204.140	129.188	472.741	436.238	405.779	369.072	372.267	275.153	137.101	288.256	295.590	149.176	417.216	137.810	180.751	0.00033371	0.00055594	0.0001773	227.23	3.7034e-06	8.7553e-06	431.31	66.158	6.454e-06	5.0978e-06	136.96	66.177	28.899	9.707	7.1483e-06	23.242	0.002665	0.0031669	0.00088403	256.73	3.4112e-05	3.5463e-05	458.1	76.565	3.489e-05	3.5883e-05	158.3	71.877	35.275	11.904	3.5273e-05	26.058	234.750	328.454	281.063	127.042	302.885	384.076	126.039	133.414	421.461	223.919	131.711	136.831	138.407	144.883	260.317	141.150	-8191	255	
1439.442	1	1	0	0	0.085375	0.18998	0.11521	0.1667	0.15584	0.14205	0.074708	0.29889	0.20979	0.20438	0.26171	0.19666	0.27521	0.24023	0.097695	0.096641	-1.8229	-1.8875	-2.3375	-2.1083	-1.9458	-2.3792	-2.0667	-2.3	-2.3875	-2.0042	-2.4667	-2.1208	-2.1271	-2.5521	-2.1083	-2.2896	218.850	344.497	223.085	337.096	316.794	193.923	366.965	255.687	122.657	295.322	422.273	440.273	415.571	386.464	297.155	459.917	0.00025789	0.0011988	9.8407e-05	223.49	6.4444e-06	4.9483e-06	431.84	65.143	2.931e-06	2.7574e-06	136.78	65.847	28.238	9.6678	7.7403e-06	23.262	0.002747	0.0032641	0.0009173	257.11	3.5159e-05	3.6953e-05	459.65	76.656	3.6135e-05	3.71e-05	159.28	71.967	35.362	12.043	3.7292e-05	26.284	247.942	261.065	369.864	126.689	196.262	287.384	125.821	133.879	352.825	247.698	131.743	136.635	138.630	144.321	136.822	141.861	-8191	255	
1439.539	1	1	0	0	0.33921	0.19758	0.24382	0.068459	0.11301	0.2253	0.064837	0.23572	0.1782	0.28251	0.11569	0.11602	0.21883	0.14495	0.10044	0.057941	-1.9042	-1.9979	-2.2896	-2.0917	-1.9708	-2.2854	-1.9458	-2.2521	-2.2812	-1.9188	-2.1854	-2.1354	-2.1167	-2.2229	-2.1208	-2.0604	467.381	252.970	176.411	148.064	191.557	338.715	140.410	417.170	416.955	339.309	240.077	117.539	430.855	312.791	321.476	397.328	0.00015935	0.0011497	0.00013932	224.26	5.2434e-06	8.2657e-06	427.7	64.751	1.3549e-06	4.5703e-06	137.72	66.508	28.818	9.7946	2.1595e-06	23.351	0.0028993	0.0034626	0.00097847	259.69	3.6865e-05	3.8156e-05	461.42	77.29	3.6609e-05	3.7105e-05	159.55	72.551	35.454	12.044	3.6384e-05	26.381	240.493	314.476	144.003	126.674	251.805	300.343	125.864	133.663	305.272	203.826	131.697	137.107	139.373	143.876	356.585	141.129	-8191	255	
1439.635	1	1	0	0	0.1737	0.10814	0.12299	0.18685	0.18628	0.30627	0.12838	0.18948	0.19274	0.10187	0.062136	0.29303	0.096646	0.21951	0.38177	0.2189	-1.7771	-2.0979	-2.2125	-2.4229	-2.0104	-2.4229	-2.2208	-2.1396	-2.3375	-2.0042	-2.2625	-2.275	-1.9	-2.5354	-2.0604	-2.1063	376.097	337.059	116.105	367.635	245.705	411.749	395.544	205.046	220.759	364.137	439.209	209.178	234.644	469.282	443.785	463.014	0.00025071	0.00061751	0.00011912	224.72	7.5224e-06	6.2938e-06	433.54	64.41	3.9029e-06	4.4703e-06	137.76	66.032	28.829	9.7313	3.7003e-06	23.583	0.0028088	0.0033592	0.0009408	258.09	3.538e-05	3.6994e-05	462.97	76.019	3.5027e-05	3.6131e-05	158.06	71.998	35.073	11.968	3.52e-05	26.319	242.063	204.739	214.172	126.841	436.358	295.126	126.081	133.718	127.604	328.704	131.743	136.825	138.267	144.189	321.413	140.997	-8191	255	
1439.731	1	1	0	0	0.075281	0.15295	0.19191	0.22945	0.19525	0.15553	0.11266	0.1937	0.056964	0.062627	0.061139	0.20755	0.12272	0.25264	0.021577	0.13223	-1.825	-2.0375	-2.1792	-2.3312	-1.7958	-2.4021	-2.2062	-2.0896	-2.4167	-2.0208	-2.2104	-2.3042	-1.8792	-2.3271	-2.1167	-2.2	283.218	329.169	125.400	406.624	187.970	121.981	145.096	438.607	182.978	116.414	394.555	120.588	250.132	217.440	301.957	430.533	0.00034544	0.0004664	0.000144	225.18	2.923e-06	7.884e-06	430.57	64.465	9.7916e-06	1.0828e-05	136.78	66.642	28.811	9.7783	9.1142e-06	23.542	0.0027017	0.0032434	0.00091163	257.44	3.5202e-05	3.6384e-05	461.16	75.76	3.5131e-05	3.6629e-05	157.79	72.114	35.101	11.967	3.6071e-05	26.32	231.046	385.625	269.621	126.881	449.172	230.854	126.328	133.764	253.924	328.072	131.414	136.998	139.022	144.369	296.464	141.409	-8191	255	
1439.827	1	1	0	0	0.30291	0.070116	0.27502	0.090496	0.12082	0.11216	0.032065	0.16494	0.13622	0.32844	0.30607	0.030492	0.31208	0.16186	0.079663	0.20173	-1.9792	-2.0812	-2.0292	-2.4396	-1.9562	-2.2625	-2.3354	-2.1229	-2.3917	-2.1667	-2.1896	-2.475	-1.7583	-2.2208	-2.2042	-1.95	382.678	409.131	369.789	298.644	258.482	447.383	391.523	290.619	130.434	437.155	397.822	469.908	432.055	245.505	191.785	267.527	0.00034005	0.00090785	8.8578e-05	224.58	4.8608e-06	3.3379e-06	432.96	63.99	5.1823e-06	2.2039e-06	137.34	65.976	28.948	9.7377	3.9567e-06	23.565	0.0027587	0.0033347	0.00093327	257.4	3.524e-05	3.7007e-05	462.91	75.654	3.5506e-05	3.6426e-05	157.99	72.415	35.263	12.053	3.6027e-05	26.382	249.108	176.134	249.163	126.248	329.835	266.672	126.077	133.483	279.488	211.376	131.223	136.619	139.404	144.396	169.701	141.408	-8191	255	
1439.948	1	1	0	0	0.2828	0.13884	0.1579	0.098782	0.033411	0.13021	0.17726	0.19253	0.23457	0.33448	0.18821	0.31157	0.181	0.14909	0.13477	0.25907	-1.8854	-2.1458	-2.1833	-2.0625	-2.1458	-2.3958	-2.3375	-1.9958	-2.3083	-2.1583	-2.1583	-2.3667	-2.0771	-2.3521	-2.3083	-1.9896	394.387	184.044	412.628	293.127	121.576	183.013	440.291	320.632	237.474	361.426	409.005	375.919	399.051	410.740	448.668	341.870	0.00024839	0.00054299	5.2788e-05	226.72	3.8365e-06	1.1213e-05	433.9	64.882	3.4752e-06	6.4124e-06	136.49	67.287	28.834	9.7985	9.5141e-06	23.66	0.0027901	0.0033654	0.00093947	259.59	3.5402e-05	3.6596e-05	464.27	75.964	3.5202e-05	3.6879e-05	158.83	72.761	35.381	12.113	3.6323e-05	26.552	273.433	261.889	170.150	126.387	242.336	297.666	125.874	133.514	351.360	134.763	131.613	136.811	138.553	144.098	218.040	141.228	-8191	255	
1440.044	1	1	0	0	0.28724	0.11694	0.11273	0.12533	0.23564	0.28197	0.19025	0.021572	0.078826	0.29808	0.11726	0.24391	0.26684	0.28443	0.1025	0.20392	-1.9604	-2.0625	-2.1042	-2.4521	-2.0875	-2.2521	-2.3021	-1.9937	-2.3708	-2.2104	-2.0583	-2.5792	-1.9438	-2.2771	-2.3396	-2.0187	211.725	340.954	445.115	388.900	357.939	177.980	456.251	445.863	125.540	158.113	393.338	303.721	315.351	380.288	215.959	262.564	0.00025446	0.00027925	9.2198e-05	228.28	6.463e-06	4.2713e-07	436.31	63.183	1.6961e-06	1.7207e-06	135.64	66.361	28.856	9.7088	4.9059e-06	23.644	0.0028468	0.0034743	0.00095359	260.38	3.6246e-05	3.7883e-05	465.05	75.771	3.6714e-05	3.8e-05	158.14	72.524	35.538	12.114	3.725e-05	26.615	243.834	345.891	246.058	126.856	160.376	386.021	126.274	134.023	293.383	158.723	131.311	137.105	138.802	144.379	337.777	141.359	-8191	255	
1440.140	1	1	0	0	0.1999	0.11523	0.074587	0.11087	0.29081	0.058373	0.12424	0.14732	0.40431	0.12702	0.15616	0.23629	0.18493	0.23391	0.12214	0.34766	-1.9667	-2.1937	-2.0833	-2.5729	-2.0708	-2.2542	-2.4646	-1.8771	-2.3458	-2.2458	-2.0958	-2.4437	-2.0708	-1.9146	-2.4708	-1.9729	409.107	387.950	314.947	182.131	387.599	128.570	442.101	273.242	186.466	324.743	145.179	264.763	366.900	415.641	404.151	423.723	0.00027674	0.00078076	9.2908e-05	225.76	4.0013e-06	7.6068e-06	438.64	63.627	4.6645e-06	6.484e-06	135.15	66.439	28.465	9.8285	1.4467e-06	23.794	0.0028717	0.0035123	0.00096867	260.66	3.7158e-05	3.8471e-05	468.08	76.111	3.7755e-05	3.9282e-05	158.21	72.926	35.531	12.285	3.787e-05	26.797	245.777	223.066	294.736	127.114	344.621	251.746	125.661	133.877	432.189	401.254	132.151	136.190	138.958	144.096	417.039	141.479	-8191	255	
1440.261	1	1	0	0	0.33215	0.27621	0.07125	0.079413	0.30509	0.32619	0.22368	0.20842	0.16455	0.06518	0.12911	0.23685	0.16752	0.26931	0.22519	0.076012	-1.9521	-2.1667	-1.9	-2.4729	-2.1625	-2.075	-2.3146	-1.9667	-2.1375	-2.4021	-2.1104	-2.1667	-2.0812	-2.0146	-2.3125	-1.9729	273.938	121.417	366.148	123.104	145.405	376.016	117.097	355.512	256.520	297.036	312.217	380.444	330.238	465.713	333.362	160.947	0.0002928	0.00098608	0.00023826	229.08	8.5519e-06	5.2678e-06	434.16	63.298	4.4985e-06	6.7177e-06	137.12	67.475	28.739	9.846	4.209e-06	24.01	0.0029851	0.0035994	0.00099203	262.93	3.7734e-05	3.9354e-05	467.56	76.047	3.8135e-05	3.9309e-05	159.87	73.421	35.694	12.256	3.8403e-05	27.003	234.311	140.373	419.172	126.570	165.074	155.073	125.966	134.000	117.096	192.933	131.400	136.749	138.037	145.039	319.366	141.419	-8191	255	
1440.332	1	1	0	0	0.14983	0.12119	0.17914	0.18911	0.095981	0.22216	0.29391	0.074801	0.11177	0.29298	0.12622	0.32548	0.16297	0.16314	0.26975	0.43703	-1.7271	-2.2812	-1.925	-2.4375	-2.0854	-2.0125	-2.5646	-1.9813	-2.0438	-2.2583	-1.8771	-2.3438	-2.0521	-1.975	-2.4125	-2.125	212.376	199.536	471.197	373.737	276.217	120.690	419.337	184.122	176.171	118.581	394.556	448.500	395.791	415.532	463.734	456.672	0.00031632	0.00024096	0.00010269	227.7	8.0999e-06	6.3964e-06	436.93	62.803	1.0074e-05	3.6532e-06	134.05	66.376	28.235	9.8447	1.1212e-05	23.888	0.0030549	0.0036962	0.0010349	264.73	4.0215e-05	4.164e-05	473.27	76.687	4.097e-05	4.1864e-05	160.48	73.585	36.128	12.439	4.0949e-05	27.16	264.359	313.693	248.077	126.541	326.616	222.896	126.231	133.147	308.023	320.161	131.599	136.777	138.875	144.834	228.159	141.236	-8191	255	
1440.427	1	1	0	0	0.28803	0.08488	0.070188	0.26283	0.21875	0.121	0.32895	0.13913	0.15385	0.16299	0.02946	0.139	0.19607	0.067961	0.21949	0.10138	-1.7062	-2.2375	-1.9604	-2.4229	-2.3771	-2.1125	-2.3812	-2.25	-2.1521	-2.3937	-1.9438	-2.4292	-2.1792	-1.9188	-2.3396	-2.1792	117.761	311.867	383.105	297.486	280.668	414.927	415.709	250.471	420.203	146.453	447.737	359.925	238.376	202.779	278.045	415.643	0.00024869	0.00099644	0.00034441	226.82	3.8446e-06	4.4166e-06	437.19	62.625	5.2e-06	6.0888e-06	133.79	66.751	28.601	9.8079	1.0517e-05	23.959	0.0031828	0.0038188	0.001069	264.49	4.1307e-05	4.1834e-05	472.18	76.618	4.0588e-05	4.1481e-05	159.6	73.619	36.03	12.397	4.0467e-05	27.305	244.012	424.636	209.872	126.244	197.551	305.277	126.109	133.271	189.634	273.868	131.448	136.906	139.144	144.426	405.737	141.261	-8191	255	
1440.523	1	1	0	0	0.28976	0.10162	0.16732	0.071004	0.17347	0.057985	0.23803	0.17766	0.14422	0.22346	0.10005	0.23048	0.094888	0.055673	0.18041	0.037394	-1.5104	-2.3417	-1.75	-2.1521	-2.2375	-2.1813	-2.3438	-2.3	-2.0083	-2.3688	-1.8667	-2.2771	-2.1729	-1.9667	-2.5292	-2.0958	156.343	336.580	441.338	451.886	303.987	168.049	251.049	305.286	126.754	171.889	299.511	382.079	324.607	364.339	125.344	164.618	0.00014233	0.00063272	0.00041082	223.18	6.3719e-06	2.1621e-06	431.92	62.655	4.9884e-06	1.0565e-05	133.03	66.282	28.116	9.8596	5.0531e-06	23.543	0.0031742	0.0038314	0.0010712	262.84	4.074e-05	4.1862e-05	468.47	76.076	4.0255e-05	4.1634e-05	159.23	73.251	35.663	12.284	4.0246e-05	26.989	252.237	270.980	199.632	126.546	134.977	261.861	125.957	133.915	168.457	290.527	131.754	137.298	137.983	144.645	289.230	141.654	-8191	255	
1440.642	1	1	0	0	0.28993	0.047532	0.22529	0.23242	0.23294	0.26797	0.33242	0.090203	0.26132	0.16794	0.12205	0.062772	0.2223	0.12899	0.55174	0.13606	-1.4937	-2.2875	-1.9729	-2.1208	-2.3604	-1.8229	-2.325	-2.1854	-2.1312	-2.3167	-1.9896	-2.0792	-2.3896	-1.8625	-2.3292	-2.1	117.329	145.944	358.767	438.560	147.590	422.556	121.989	377.538	186.246	396.173	287.018	289.694	143.288	317.279	317.379	162.751	0.00028569	5.6629e-05	0.00020328	222.67	9.7836e-06	6.6385e-06	435.38	63.077	9.8901e-06	9.1468e-06	133.89	66.543	28.339	9.7483	7.732e-06	23.913	0.0031141	0.0037273	0.0010415	260.59	3.9099e-05	4.0316e-05	468.41	76.054	3.8991e-05	4.0553e-05	159.06	73.263	35.698	12.278	4.0186e-05	27.197	243.842	178.095	271.161	126.625	260.985	311.332	126.112	133.288	415.781	334.504	131.880	136.958	138.920	144.418	326.485	141.213	-8191	255	
1440.738	1	1	0	0	0.12245	0.069205	0.17156	0.16237	0.19073	0.20924	0.2019	0.23269	0.15801	0.043637	0.13545	0.26222	0.20414	0.26868	0.21083	0.30799	-1.5042	-2.4229	-2.0083	-2.0042	-2.3417	-1.9958	-2.3542	-2.1813	-2.1104	-2.2917	-2.0312	-2.2542	-2.4562	-1.9292	-2.1937	-2.3021	284.626	131.168	436.161	454.073	297.779	382.557	119.065	451.954	337.899	205.580	216.946	141.425	251.059	366.729	153.001	378.025	0.00031976	0.00039615	0.00033442	225.07	2.1995e-06	4.3685e-06	436.01	62.5	5.9447e-06	4.9516e-06	133.87	65.861	27.92	9.6872	7.7862e-06	23.388	0.0031508	0.0038107	0.0010838	263.45	4.1455e-05	4.3744e-05	471.46	76.927	4.2037e-05	4.2695e-05	160.96	73.262	35.799	12.326	4.2137e-05	27.028	223.342	354.284	235.208	126.684	139.425	360.811	125.699	133.428	271.066	273.146	131.962	136.805	138.904	144.571	352.339	141.117	-8191	255	
1440.834	1	1	0	0	0.40501	0.091395	0.13763	0.19995	0.28413	0.17288	0.19583	0.30393	0.091648	0.1465	0.14201	0.056028	0.12286	0.25977	0.10876	0.36074	-1.5542	-2.2125	-2.2479	-2.1458	-2.3563	-1.9542	-2.2562	-2.3729	-2.0646	-2.6125	-2.2667	-1.9438	-2.4562	-2.0563	-2.55	-2.4271	283.901	360.702	221.805	454.501	323.507	303.476	370.994	155.533	269.984	453.359	282.506	178.707	406.260	371.978	428.824	292.232	0.00022218	0.0011219	0.00018001	223.72	7.4308e-06	8.1325e-06	434.64	63.01	8.9192e-06	3.1646e-06	132.91	65.893	27.912	9.6966	8.6598e-06	23.621	0.003223	0.0039258	0.0011009	262.51	4.1135e-05	4.3023e-05	470.39	76.479	4.0445e-05	4.1752e-05	158.76	72.602	35.544	12.243	4.127e-05	27.047	214.924	430.792	368.268	126.447	259.067	326.718	126.083	133.722	307.930	279.783	131.585	136.741	139.051	143.999	275.189	141.770	-8191	255	
1440.930	1	1	0	0	0.098389	0.10162	0.11903	0.070176	0.17695	0.12956	0.18702	0.074968	0.15945	0.36434	0.17049	0.013934	0.11903	0.031016	0.1922	0.26299	-1.5792	-2.3375	-2.1208	-1.9708	-2.4208	-2.1125	-1.9583	-2.3979	-2.025	-2.3896	-2.2188	-1.9438	-2.4813	-1.9708	-2.1063	-2.2771	276.653	157.612	121.551	134.924	188.876	341.065	391.110	176.291	373.427	284.782	358.847	233.978	137.648	351.650	367.378	462.072	0.00024912	0.00040324	0.00017912	223.69	4.7166e-06	8.8471e-06	434.42	62.354	2.035e-06	2.9708e-06	132.05	65.841	27.997	9.5808	5.2386e-06	23.6	0.0031701	0.0038756	0.0010854	262.31	4.0852e-05	4.27e-05	471.3	75.923	4.1398e-05	4.2901e-05	159.04	72.919	35.691	12.337	4.2526e-05	27.146	268.925	258.490	269.127	126.358	371.507	225.399	125.938	133.017	413.138	219.241	132.135	136.644	139.260	144.179	409.852	141.156	-8191	255	
1441.026	1	1	0	0	0.1913	0.1121	0.14361	0.25933	0.27231	0.31871	0.1572	0.24294	0.077739	0.02331	0.075668	0.17534	0.13127	0.23853	0.13123	0.24419	-1.5938	-2.1667	-2.3479	-2.0104	-2.3042	-2.1646	-2.1958	-2.4958	-1.9917	-2.4125	-2.2438	-1.8625	-2.3646	-1.9562	-2.0771	-2.3875	471.511	183.320	371.362	470.180	146.096	361.004	331.488	443.399	441.549	209.815	204.366	163.130	386.795	402.849	345.002	164.739	0.00032876	0.00056895	0.00024446	224.84	2.88e-06	4.3192e-06	434.37	62.054	8.3093e-06	1.0085e-05	133.87	65.877	27.346	9.4946	6.2943e-06	23.622	0.0033306	0.0040322	0.001118	265.27	4.2621e-05	4.4794e-05	473.55	76.234	4.3154e-05	4.4471e-05	160.52	73.238	35.819	12.423	4.3989e-05	27.334	241.834	368.904	215.407	126.266	405.469	321.052	125.783	133.365	380.206	128.152	131.831	136.786	138.873	144.002	269.798	141.077	-8191	255	
1441.122	1	1	0	0	0.097004	0.018367	0.058076	0.026765	0.34169	0.070379	0.34374	0.20695	0.21834	0.19588	0.045432	0.071296	0.077959	0.17005	0.10537	0.13733	-1.3438	-2.0708	-2.2562	-1.8312	-2.3563	-2.0687	-1.8333	-2.2292	-2.0771	-2.2146	-2.4208	-1.9396	-2.0979	-2.3563	-1.9062	-2.4292	294.381	241.341	352.982	207.952	383.256	143.699	137.724	467.761	224.519	209.856	372.701	139.839	421.997	144.173	382.869	288.522	0.00026006	0.00010619	0.00018353	223.23	3.4118e-06	1.1516e-05	436.15	61.946	4.6281e-06	6.6591e-06	134.59	65.678	27.493	9.6759	4.9872e-06	23.585	0.0034155	0.0041067	0.0011335	265.34	4.298e-05	4.5003e-05	473.36	76.331	4.2837e-05	4.4035e-05	159.88	73.083	35.864	12.381	4.2856e-05	27.287	235.722	451.358	395.491	125.990	280.173	302.408	125.702	133.307	337.758	345.839	132.575	137.086	139.196	144.241	246.697	140.962	-8191	255	
1441.219	1	1	0	0	0.11223	0.35934	0.22583	0.27115	0.084713	0.25721	0.15742	0.10087	0.044514	0.2299	0.052609	0.15688	0.068845	0.17453	0.34061	0.30224	-1.5833	-2.3479	-2.4271	-1.7354	-2.2458	-2.4771	-1.9937	-2.4292	-2.0729	-2.2	-2.3896	-2.0083	-2.1792	-2.1292	-1.7708	-2.5771	370.770	288.191	355.989	400.715	327.349	217.833	420.797	225.679	411.223	442.154	136.330	130.979	184.876	186.184	436.390	234.281	0.00042858	0.00022348	0.00031129	221.14	8.2619e-06	6.589e-06	431.99	62.286	7.1314e-06	4.104e-06	132.52	66.373	27.767	9.5934	6.3219e-06	23.498	0.003378	0.0040278	0.001117	263.24	4.304e-05	4.471e-05	470.89	76.267	4.3051e-05	4.4515e-05	160.01	73.408	35.91	12.43	4.3838e-05	27.181	249.480	197.653	139.998	126.763	388.082	443.850	125.895	133.207	289.544	436.896	131.623	137.334	138.942	144.663	435.520	141.624	-8191	255	
1441.339	1	1	0	0	0.18128	0.20986	0.15858	0.12188	0.015881	0.13036	0.39929	0.38296	0.26982	0.14589	0.058692	0.17759	0.094912	0.049743	0.18875	0.046661	-1.7292	-1.9875	-2.4813	-1.7833	-2.2188	-2.2687	-1.9021	-2.4813	-2.1167	-2.1542	-2.5	-1.9583	-2.3083	-2.4125	-1.8125	-2.4167	461.428	366.591	354.153	178.906	438.966	434.104	388.403	335.986	340.939	416.993	386.798	266.730	358.884	275.387	256.755	327.212	0.00024675	0.00047717	6.818e-05	223.29	1.0108e-05	7.4439e-06	435.27	61.767	6.3534e-06	1.2927e-05	134.29	66.194	28.048	9.6002	5.1382e-06	23.944	0.0034166	0.0041032	0.0011303	265.03	4.3465e-05	4.4836e-05	473.69	76.445	4.3453e-05	4.4075e-05	160.05	73.548	36.024	12.333	4.2549e-05	27.311	272.932	232.739	157.696	126.312	244.412	297.455	125.935	133.105	362.060	309.610	132.184	136.871	138.225	145.145	459.849	141.491	-8191	255	
1441.435	1	1	0	0	0.09574	0.28066	0.2744	0.18311	0.25981	0.24787	0.181	0.10997	0.1062	0.19641	0.16657	0.38543	0.14548	0.046762	0.078347	0.18699	-1.625	-2.0042	-2.2042	-2.0625	-2.0917	-2.3583	-2.0438	-2.4688	-2.3979	-1.9521	-2.5354	-2.1042	-2.0792	-2.425	-1.9479	-2.3417	197.957	468.995	424.594	281.128	287.062	350.079	414.202	237.541	316.900	377.294	259.478	405.786	276.728	201.456	195.182	318.323	0.00025794	0.0018824	5.4244e-05	223.62	9.5382e-06	5.851e-06	438.58	61.825	5.6185e-06	4.561e-06	132.73	66.274	27.65	9.5678	1.9214e-06	23.822	0.0033132	0.0040069	0.0011089	264.68	4.2787e-05	4.3942e-05	473	76.024	4.2591e-05	4.4081e-05	160.15	73.412	35.954	12.388	4.3085e-05	27.387	248.278	208.750	442.393	126.618	153.765	265.386	125.916	133.669	259.041	306.307	131.614	137.050	139.181	143.872	372.381	141.631	-8191	255	
1441.532	1	1	0	0	0.41948	0.059983	0.16506	0.025574	0.18118	0.14802	0.33567	0.2428	0.14853	0.12723	0.094644	0.1603	0.067283	0.038815	0.074193	0.073554	-1.6187	-2.0271	-2.5333	-2.1063	-2.1375	-2.2021	-1.8042	-2.3354	-2.2104	-1.9021	-2.3708	-2.1958	-2.1771	-2.4375	-2.1292	-2.2667	361.251	186.912	424.282	411.233	466.098	436.972	308.431	129.154	394.586	337.070	334.006	185.067	147.149	345.182	122.814	445.959	0.00029456	0.0014231	6.9784e-05	221.77	2.6827e-06	1.2005e-05	433.26	62.124	9.2646e-06	4.4821e-06	132.37	65.999	27.792	9.6734	2.7209e-06	23.785	0.0033295	0.0039537	0.0010893	261.7	4.1443e-05	4.2564e-05	470.41	75.396	4.1061e-05	4.2131e-05	158.3	73.027	35.401	12.208	4.0977e-05	27.138	255.963	179.917	177.415	126.862	185.061	177.867	125.578	133.822	295.463	258.609	131.698	136.817	139.389	144.046	260.548	141.429	-8191	255	
#DATA ENDS
