BOXY.EXE: ISS Imagent and Oximeter Data Acquisition Program Version 0.80
Ascii Record File

#ACQ INFORMATION
2  Detector Channels 
16  External MUX Channels 
1  Auxiliary Channels 
5000  Waveform (CCF) Frequency (Hz)
1  Waveforms Skipped 
30  Waveforms Averaged 
1  Cycles Averaged 
16  Acquisitions per Waveform 
10.0806  Updata Rate (Hz) 

#FILE INFORMATION
TRUE -- External MUX Channel results are PARSED.
FALSE -- AC DC and Phase are NOT grouped.
TRUE -- Companion Program Settings File CREATED.
FALSE -- AC data not excluded
FALSE -- DC data not excluded
FALSE -- Phase data not excluded
FALSE -- Auxillary Chn. data not excluded
Tab delimiters

#CALIBRATION STATE
TRUE -- Waveform Calibration Values APPLIED.


#AUX CALIBRATION VALUES
Val Type	aux-1	

Term	1.0000e+00	
Factor	0.0000e+00	


#WF CALIBRATION VALUES
A = Detector Channel
Val Type	A-AC1	A-AC2	A-AC3	A-AC4	A-AC5	A-AC6	A-AC7	A-AC8	A-AC9	A-AC10	A-AC11	A-AC12	A-AC13	A-AC14	A-AC15	A-AC16	A-DC1	A-DC2	A-DC3	A-DC4	A-DC5	A-DC6	A-DC7	A-DC8	A-DC9	A-DC10	A-DC11	A-DC12	A-DC13	A-DC14	A-DC15	A-DC16	A-Ph1	A-Ph2	A-Ph3	A-Ph4	A-Ph5	A-Ph6	A-Ph7	A-Ph8	A-Ph9	A-Ph10	A-Ph11	A-Ph12	A-Ph13	A-Ph14	A-Ph15	A-Ph16	

Term	0.00000e+00	0.00000e+00	0.00000e+00	0.00000e+00	0.00000e+00	0.00000e+00	0.00000e+00	0.00000e+00	0.00000e+00	0.00000e+00	0.00000e+00	0.00000e+00	0.00000e+00	0.00000e+00	0.00000e+00	0.00000e+00	0.00000e+00	0.00000e+00	0.00000e+00	0.00000e+00	0.00000e+00	0.00000e+00	0.00000e+00	0.00000e+00	0.00000e+00	0.00000e+00	0.00000e+00	0.00000e+00	0.00000e+00	0.00000e+00	0.00000e+00	0.00000e+00	0.00000e+00	0.00000e+00	0.00000e+00	0.00000e+00	0.00000e+00	0.00000e+00	0.00000e+00	0.00000e+00	0.00000e+00	0.00000e+00	0.00000e+00	0.00000e+00	0.00000e+00	0.00000e+00	0.00000e+00	0.00000e+00	
Factor	1.00000e+00	1.00000e+00	1.00000e+00	1.00000e+00	1.00000e+00	1.00000e+00	1.00000e+00	1.00000e+00	1.00000e+00	1.00000e+00	1.00000e+00	1.00000e+00	1.00000e+00	1.00000e+00	1.00000e+00	1.00000e+00	1.00000e+00	1.00000e+00	1.00000e+00	1.00000e+00	1.00000e+00	1.00000e+00	1.00000e+00	1.00000e+00	1.00000e+00	1.00000e+00	1.00000e+00	1.00000e+00	1.00000e+00	1.00000e+00	1.00000e+00	1.00000e+00	X	X	X	X	X	X	X	X	X	X	X	X	X	X	X	X	

B = Detector Channel
Val Type	B-AC1	B-AC2	B-AC3	B-AC4	B-AC5	B-AC6	B-AC7	B-AC8	B-AC9	B-AC10	B-AC11	B-AC12	B-AC13	B-AC14	B-AC15	B-AC16	B-DC1	B-DC2	B-DC3	B-DC4	B-DC5	B-DC6	B-DC7	B-DC8	B-DC9	B-DC10	B-DC11	B-DC12	B-DC13	B-DC14	B-DC15	B-DC16	B-Ph1	B-Ph2	B-Ph3	B-Ph4	B-Ph5	B-Ph6	B-Ph7	B-Ph8	B-Ph9	B-Ph10	B-Ph11	B-Ph12	B-Ph13	B-Ph14	B-Ph15	B-Ph16	

Term	0.00000e+00	0.00000e+00	0.00000e+00	0.00000e+00	0.00000e+00	0.00000e+00	0.00000e+00	0.00000e+00	0.00000e+00	0.00000e+00	0.00000e+00	0.00000e+00	0.00000e+00	0.00000e+00	0.00000e+00	0.00000e+00	0.00000e+00	0.00000e+00	0.00000e+00	0.00000e+00	0.00000e+00	0.00000e+00	0.00000e+00	0.00000e+00	0.00000e+00	0.00000e+00	0.00000e+00	0.00000e+00	0.00000e+00	0.00000e+00	0.00000e+00	0.00000e+00	-6.59245e+01	-1.24734e+02	-1.31290e+02	-1.83070e+02	-4.71720e+01	-6.49150e+01	-1.56663e+02	-1.62015e+02	-3.94459e+01	-6.42214e+01	-1.71114e+02	-1.71480e+02	-1.80686e+02	-1.76770e+02	-5.03157e+01	-1.49850e+02	
Factor	1.94318e-05	1.90944e-04	4.49887e-05	1.63081e-01	1.59961e-06	1.69595e-06	1.94177e-01	5.42487e-02	1.28390e-06	1.65075e-06	1.08414e-01	3.13847e-02	2.95052e-02	9.61121e-03	1.53840e-06	1.41149e-02	5.54059e-06	6.76180e-06	1.88700e-06	8.26207e-02	7.18682e-08	7.45135e-08	9.21061e-02	2.75920e-02	7.18242e-08	7.41166e-08	5.30887e-02	1.54427e-02	1.51454e-02	4.92050e-03	7.23774e-08	6.95805e-03	X	X	X	X	X	X	X	X	X	X	X	X	X	X	X	X	



#DISTANCE SETTINGS
A = Detector Channel
A-1	A-2	A-3	A-4	A-5	A-6	A-7	A-8	A-9	A-10	A-11	A-12	A-13	A-14	A-15	A-16	

2.5000e+00	3.0000e+00	2.5000e+00	3.0000e+00	2.0000e+00	3.0000e+00	1.5000e+00	3.0000e+00	3.0000e+00	3.0000e+00	3.0000e+00	3.0000e+00	3.0000e+00	3.0000e+00	1.5000e+00	3.0000e+00	

B = Detector Channel
B-1	B-2	B-3	B-4	B-5	B-6	B-7	B-8	B-9	B-10	B-11	B-12	B-13	B-14	B-15	B-16	

1.0000e+01	1.0000e+01	1.0000e+01	1.4400e+00	1.0000e+01	1.0000e+01	1.5100e+00	1.9400e+00	1.0000e+01	1.0000e+01	1.9900e+00	2.4900e+00	2.4100e+00	2.9000e+00	1.0000e+01	2.9800e+00	




#DATA BEGINS
time	group	step	mark	flag	A-AC1	A-AC2	A-AC3	A-AC4	A-AC5	A-AC6	A-AC7	A-AC8	A-AC9	A-AC10	A-AC11	A-AC12	A-AC13	A-AC14	A-AC15	A-AC16	A-DC1	A-DC2	A-DC3	A-DC4	A-DC5	A-DC6	A-DC7	A-DC8	A-DC9	A-DC10	A-DC11	A-DC12	A-DC13	A-DC14	A-DC15	A-DC16	A-Ph1	A-Ph2	A-Ph3	A-Ph4	A-Ph5	A-Ph6	A-Ph7	A-Ph8	A-Ph9	A-Ph10	A-Ph11	A-Ph12	A-Ph13	A-Ph14	A-Ph15	A-Ph16	B-AC1	B-AC2	B-AC3	B-AC4	B-AC5	B-AC6	B-AC7	B-AC8	B-AC9	B-AC10	B-AC11	B-AC12	B-AC13	B-AC14	B-AC15	B-AC16	B-DC1	B-DC2	B-DC3	B-DC4	B-DC5	B-DC6	B-DC7	B-DC8	B-DC9	B-DC10	B-DC11	B-DC12	B-DC13	B-DC14	B-DC15	B-DC16	B-Ph1	B-Ph2	B-Ph3	B-Ph4	B-Ph5	B-Ph6	B-Ph7	B-Ph8	B-Ph9	B-Ph10	B-Ph11	B-Ph12	B-Ph13	B-Ph14	B-Ph15	B-Ph16	aux-1	digaux	

1283.947	1	1	0	256	0.16283	0.052728	0.2651	0.31813	0.14496	0.17701	0.27852	0.38103	0.14988	0.081632	0.14713	0.24058	0.17144	0.31946	0.075655	0.15074	-2.1875	-2.2042	-2.4833	-2.5312	-2.2708	-2.7167	-2.6229	-2.2792	-2.6667	-2.4729	-2.3937	-2.6958	-2.3625	-2.4833	-2.5812	-2.4062	133.467	400.891	340.215	309.381	271.383	111.331	394.335	401.335	398.941	272.384	75.656	391.988	367.357	381.770	294.035	97.636	0.00057351	0.00046121	0.00011127	571.27	2.4915e-06	7.3826e-06	827.03	192.77	8.1154e-06	3.3401e-06	327.11	147.09	79	30.664	6.1939e-06	67.555	0.00064436	0.00063944	0.00017764	557.57	6.8917e-06	6.9415e-06	803.76	189.72	6.7898e-06	7.052e-06	321.44	145.06	77.995	30.512	6.7284e-06	66.159	226.939	156.942	157.075	83.590	219.797	168.527	83.972	89.739	262.462	176.852	88.992	94.022	95.867	99.989	229.905	97.542	-8191	255	
1284.067	1	1	0	0	0.028496	0.25382	0.17572	0.3675	0.32041	0.19422	0.1204	0.19193	0.030792	0.19171	0.25171	0.12723	0.10929	0.23296	0.060349	0.24225	-2.1646	-2.5167	-2.2625	-2.8271	-2.3729	-2.4104	-2.525	-2.3521	-2.6771	-2.3125	-2.2854	-2.8604	-2.2104	-2.5875	-2.7104	-2.4062	240.889	345.555	321.103	381.810	237.576	382.041	223.265	350.243	311.934	241.832	112.023	320.333	234.371	78.430	378.454	406.814	0.0005462	0.00088223	0.00019585	566.15	3.6099e-06	3.8786e-06	830.11	190.42	4.8558e-06	4.6802e-06	325.64	145.83	77.874	30.215	3.7106e-06	66.786	0.00064721	0.00063169	0.00017398	555.11	6.5881e-06	6.8226e-06	803.49	187.81	6.5951e-06	6.7923e-06	318.34	143.29	76.962	30.249	6.6752e-06	65.573	230.676	154.623	193.025	83.962	219.041	287.609	84.036	89.636	206.861	191.879	88.640	94.026	95.711	99.738	260.582	97.568	-8191	255	
1284.163	1	1	0	0	0.18575	0.11781	0.098598	0.079416	0.072594	0.098909	0.18939	0.34482	0.34829	0.10765	0.16454	0.10426	0.093001	0.21994	0.14854	0.185	-2.075	-2.4604	-2.2896	-2.7208	-2.3479	-2.6312	-2.5479	-2.3875	-2.7042	-2.5854	-2.4375	-2.7708	-2.4917	-2.5271	-2.5875	-2.4208	212.781	305.687	182.636	348.272	301.874	187.067	390.232	348.805	275.509	264.404	377.122	121.699	408.979	72.897	267.831	420.665	0.00055293	0.00055465	0.00011126	567.95	7.7373e-06	2.0478e-06	825.86	194.87	2.462e-06	7.7428e-06	329.31	148.8	80.917	31.282	5.2482e-06	68.424	0.0006275	0.00062771	0.0001738	556.63	6.6134e-06	6.7498e-06	801.95	190.92	6.742e-06	6.7514e-06	322.24	147.02	79.73	31.219	6.8009e-06	67.396	220.122	191.682	130.669	83.960	261.392	217.128	83.933	89.825	263.910	245.408	88.543	93.910	96.168	100.054	265.457	97.713	-8191	255	
1284.259	1	1	0	0	0.059803	0.16761	0.094724	0.053991	0.035348	0.17841	0.14575	0.073092	0.10499	0.22036	0.1555	0.16361	0.035983	0.22276	0.078364	0.2197	-1.9417	-2.5646	-2.1979	-2.6375	-2.3771	-2.325	-2.8479	-2.2833	-2.6167	-2.7479	-2.4458	-2.8375	-2.5396	-2.325	-2.6958	-2.5042	378.932	307.887	194.255	234.804	384.739	258.414	111.968	309.924	335.249	335.855	396.542	399.959	276.403	427.785	206.505	406.409	0.00061981	0.00089821	0.00010013	568.29	6.5913e-06	5.4297e-06	825.7	195.44	2.986e-06	4.5993e-06	334.02	153.14	83.051	32.078	3.4268e-06	70.285	0.0006386	0.00063068	0.0001752	556.62	6.8764e-06	6.7705e-06	803.97	192.72	6.7497e-06	6.7851e-06	326.97	150.21	81.611	32.004	6.7735e-06	69.101	228.996	187.929	139.773	83.692	240.221	235.119	84.156	89.687	213.095	215.918	88.779	93.677	95.475	99.777	217.109	97.718	-8191	255	
1284.356	1	1	0	0	0.10901	0.22464	0.18075	0.24298	0.26449	0.14149	0.26913	0.07928	0.15474	0.24283	0.17673	0.064581	0.077133	0.13107	0.21152	0.12905	-2.0896	-2.4229	-2.3604	-2.7125	-2.4875	-2.3875	-2.7479	-2.4271	-2.5271	-2.7854	-2.3396	-2.8271	-2.5375	-2.2583	-2.7333	-2.3563	72.199	277.894	183.997	90.665	287.005	230.257	431.662	416.038	196.244	411.536	372.685	416.227	402.898	183.260	364.891	423.526	0.00055759	0.00088472	0.00015287	576.6	9.2641e-06	2.0025e-06	828.17	197.47	4.1048e-06	4.1962e-06	335.48	154.42	82.901	32.205	7.7793e-06	70.016	0.00064441	0.00062919	0.00017386	560.89	6.7818e-06	6.9765e-06	806.46	194.49	6.7699e-06	6.8671e-06	329.22	151.74	82.149	32.134	6.6733e-06	68.921	229.404	161.645	185.671	83.843	253.525	164.256	84.078	89.919	234.266	237.148	88.626	93.788	95.690	99.799	247.095	97.872	-8191	255	
1284.474	1	1	0	0	0.1809	0.091293	0.03649	0.16942	0.051475	0.13354	0.17801	0.19557	0.028537	0.28866	0.090434	0.26239	0.02031	0.31991	0.035677	0.28075	-1.9458	-2.7375	-2.3521	-2.7229	-2.5958	-2.4292	-2.6875	-2.4	-2.4583	-2.6354	-2.1854	-2.5125	-2.45	-2.1708	-2.7396	-2.6063	263.426	196.656	348.512	259.100	79.434	131.295	395.317	262.944	288.202	422.195	344.707	150.691	143.674	409.809	89.706	81.223	0.0006355	0.00061651	5.9205e-05	565.45	5.314e-06	5.9621e-06	826.65	197.58	6.5279e-06	1.9922e-06	332.04	154.61	82.879	32.073	2.9523e-06	69.593	0.00065311	0.00063003	0.00017511	555.86	6.7409e-06	6.8937e-06	803.42	194.04	6.8544e-06	6.8427e-06	326.25	151.36	81.978	32.027	6.6842e-06	68.399	228.855	176.806	143.425	83.931	241.324	265.301	83.973	89.922	260.579	272.231	88.407	94.008	95.822	99.636	268.628	97.629	-8191	255	
1284.571	1	1	0	0	0.11099	0.12894	0.34752	0.1041	0.095229	0.10941	0.15838	0.18251	0.19259	0.097439	0.1567	0.13785	0.28362	0.11391	0.35261	0.13445	-1.8292	-2.5125	-2.1771	-2.6479	-2.4813	-2.4062	-2.5625	-2.3708	-2.3563	-2.6708	-2.4479	-2.4896	-2.4437	-2.1813	-2.5521	-2.5667	135.740	177.352	86.121	351.006	384.390	397.609	269.692	429.322	222.215	137.195	77.151	319.735	335.611	289.836	328.218	383.600	0.00061192	0.00089054	0.00019699	567.43	4.3524e-06	4.4842e-06	821.42	193.18	3.3523e-06	5.7558e-06	327.1	148.56	79.398	30.523	2.9638e-06	66.767	0.00063869	0.00061248	0.00017192	555.18	6.5104e-06	6.6019e-06	802.78	190.22	6.5275e-06	6.523e-06	321.47	145.71	78.284	30.48	6.3262e-06	65.718	230.214	169.512	191.869	84.043	284.709	194.504	83.879	90.217	253.875	234.158	88.692	93.815	95.898	99.995	207.372	97.706	-8191	255	
1284.642	1	1	0	0	0.051668	0.24686	0.27627	0.080673	0.10968	0.15153	0.25278	0.14966	0.1421	0.29776	0.29045	0.11552	0.089609	0.1521	0.23676	0.21111	-1.8646	-2.5354	-2.2708	-2.4146	-2.5646	-2.275	-2.5604	-2.5479	-2.4708	-2.7708	-2.4417	-2.6333	-2.7396	-2.2438	-2.4333	-2.6271	216.241	214.647	394.068	363.867	380.737	200.259	301.549	104.461	316.044	344.009	400.336	374.715	213.067	324.779	380.436	397.343	0.00055908	0.00075045	0.00019728	566.79	5.7644e-06	4.5935e-06	820.12	189.74	5.0238e-06	6.7357e-06	324.8	146.84	78.303	30.137	5.0229e-06	66.753	0.00060304	0.00058943	0.00016496	554.61	6.2304e-06	6.5403e-06	801	186.99	6.3349e-06	6.2977e-06	317.78	143.81	77.06	30.173	6.3118e-06	65.632	230.676	168.419	172.320	83.868	212.780	187.905	84.067	90.236	254.870	246.736	88.762	94.043	95.755	99.917	225.867	98.026	-8191	255	
1284.740	1	1	0	0	0.12927	0.28353	0.097495	0.32417	0.11751	0.24741	0.26098	0.0050343	0.21077	0.088534	0.20507	0.23967	0.16861	0.25697	0.12273	0.13278	-1.7771	-2.5563	-2.4604	-2.6021	-2.5667	-2.4417	-2.8979	-2.7146	-2.1375	-2.6125	-2.3812	-2.3167	-2.575	-2.2708	-2.5083	-2.6937	383.294	390.111	305.789	390.402	409.884	301.153	405.232	89.111	316.444	102.282	360.822	402.830	329.467	79.867	179.358	321.018	0.00058058	0.00054088	0.00013787	566.42	6.0587e-06	3.8254e-06	823.36	190.71	4.7598e-06	6.4949e-06	323.69	146.04	77.965	30.297	6.8523e-07	66.556	0.00061386	0.00058666	0.00016609	555.85	6.176e-06	6.4667e-06	802.38	187.48	6.3166e-06	6.4015e-06	317.13	143.66	77.059	30.187	6.2888e-06	65.376	230.279	173.337	219.673	83.663	258.922	194.956	84.058	90.090	255.335	192.456	88.751	93.942	95.594	99.698	228.510	97.926	-8191	255	
1284.859	1	1	0	0	0.0984	0.13842	0.11203	0.18967	0.23102	0.28049	0.082164	0.33111	0.10072	0.10821	0.059585	0.32373	0.17651	0.267	0.23344	0.13779	-1.7583	-2.4104	-2.1375	-2.2458	-2.4813	-2.3083	-2.4813	-2.6333	-2.1708	-2.6104	-2.4958	-2.2792	-2.7167	-2.4146	-2.5333	-2.7021	130.629	387.589	344.463	71.980	406.799	327.438	233.546	424.848	413.998	365.157	271.270	339.947	229.295	364.905	364.828	176.701	0.00059384	0.00060393	0.00024759	562.73	1.9031e-06	7.4213e-06	818.11	189.43	2.0666e-06	4.3001e-06	323.14	145.89	78.284	30.22	5.3635e-06	66.422	0.00060272	0.0005786	0.00016405	553.14	6.2808e-06	6.5729e-06	797.64	186.82	6.4257e-06	6.2843e-06	316.65	143.24	77.028	30.111	6.2076e-06	65.179	226.968	227.103	138.311	83.955	254.041	238.687	83.905	89.832	229.548	167.233	88.633	93.996	95.939	99.971	231.310	97.810	-8191	255	
1284.955	1	1	0	0	0.12349	0.18966	0.1029	0.14923	0.053876	0.08739	0.25909	0.15625	0.12455	0.17569	0.1023	0.31296	0.073968	0.26029	0.12912	0.086385	-1.7083	-2.5625	-2.4604	-2.4021	-2.7687	-2.2604	-2.3396	-2.8	-2.1458	-2.4813	-2.4125	-2.4083	-2.5604	-2.3167	-2.3333	-2.8146	323.860	112.777	266.241	286.086	199.343	394.074	403.495	424.806	121.789	123.561	196.537	105.989	322.127	385.411	393.326	379.901	0.00051203	0.00068021	0.00028068	568.72	4.3162e-06	5.8329e-06	814.09	190.76	4.3934e-06	8.1315e-06	323.05	146.04	78.589	30.568	1.0183e-06	67.095	0.00059699	0.00057961	0.00016326	553.52	6.2153e-06	6.517e-06	794.54	186.91	6.1679e-06	6.3728e-06	316.61	143.6	77.545	30.49	6.3881e-06	66.037	230.354	169.118	136.288	83.931	260.988	208.620	83.966	89.877	251.396	197.655	88.632	93.767	95.671	99.832	315.276	97.594	-8191	255	
1285.051	1	1	0	0	0.19095	0.18518	0.14416	0.16707	0.096657	0.037445	0.35166	0.2045	0.040171	0.33757	0.064067	0.12716	0.010078	0.11759	0.04659	0.24719	-1.8083	-2.6417	-2.5604	-2.2	-2.6604	-2.3125	-2.4188	-2.6521	-2.2167	-2.5354	-2.6396	-2.4917	-2.7104	-2.3646	-2.4333	-2.8271	329.896	285.817	130.835	73.805	252.082	193.501	349.888	416.138	85.935	137.156	346.836	198.491	139.963	331.491	99.272	428.644	0.00054738	0.00087205	0.00014414	566.19	4.5036e-06	5.2512e-06	825.69	192.6	4.7281e-06	2.1324e-06	325.76	148.8	80.194	31.01	4.0073e-06	68.439	0.00061053	0.00060338	0.00016736	554.93	6.5352e-06	6.6863e-06	800.11	188.92	6.6366e-06	6.5831e-06	319.06	146.22	79.242	30.978	6.5432e-06	67.182	229.914	178.160	130.072	83.884	216.538	233.898	83.944	89.867	251.001	271.977	88.156	93.969	96.098	99.647	240.627	97.911	-8191	255	
1285.172	1	1	0	0	0.18916	0.061932	0.22098	0.29254	0.11061	0.24318	0.087561	0.25242	0.13188	0.1004	0.11101	0.21049	0.31475	0.22439	0.12927	0.37805	-1.8208	-2.35	-2.3021	-2.2208	-2.5375	-2.375	-2.4271	-2.7854	-2.3979	-2.4729	-2.7708	-2.4062	-2.5125	-2.3438	-2.1354	-2.6875	370.621	207.981	246.540	92.007	75.028	347.793	105.474	423.232	165.885	125.358	292.254	423.558	363.286	407.956	329.212	355.191	0.0006051	0.00023865	0.00016401	565.78	5.0033e-06	3.5681e-06	822.19	193.84	2.0984e-06	4.8084e-06	331.51	155.23	85.583	32.279	6.8395e-06	70.337	0.00063992	0.00061534	0.0001661	553.05	6.5166e-06	6.7369e-06	798.83	190.54	6.6895e-06	6.8654e-06	324.59	152.46	84.116	32.334	6.979e-06	69.345	227.979	146.562	162.590	83.871	242.930	242.817	84.218	90.139	274.660	267.143	88.520	93.828	95.622	99.732	249.884	97.821	-8191	255	
1285.244	1	1	0	0	0.18456	0.056643	0.19398	0.11771	0.088734	0.2225	0.10464	0.26804	0.13846	0.20545	0.22063	0.12975	0.16126	0.062323	0.15741	0.31437	-1.8896	-2.2792	-2.7292	-2.2	-2.4542	-2.5062	-2.4104	-2.5396	-2.5021	-2.375	-2.6625	-2.3417	-2.4875	-2.6188	-2.2188	-2.8063	400.829	242.943	141.841	392.071	278.738	364.709	295.140	232.576	406.577	399.834	392.736	105.408	414.315	341.496	429.753	372.510	0.00060202	0.00090847	0.00012296	562.63	6.561e-06	6.3982e-06	822.27	209.26	6.0639e-06	5.1439e-06	363.32	174.84	98.887	35.379	5.3826e-06	76.586	0.00068322	0.00067366	0.00019135	551.04	7.4839e-06	7.952e-06	799.32	205.7	8.1917e-06	8.5955e-06	357.05	172.09	98.127	35.373	9.4988e-06	75.585	230.546	160.852	110.490	83.985	229.641	179.796	84.100	90.050	250.046	239.133	88.723	93.396	95.119	99.494	297.396	97.273	-8191	255	
1285.340	1	1	0	0	0.12949	0.28004	0.26714	0.29157	0.30704	0.084276	0.10223	0.18956	0.076321	0.25906	0.11111	0.25889	0.058935	0.3718	0.26911	0.053264	-1.9542	-2.2708	-2.6312	-2.2958	-2.4896	-2.6708	-2.3312	-2.6396	-2.425	-2.3042	-2.6375	-2.4458	-2.425	-2.6312	-2.1417	-2.5625	420.193	356.428	379.420	404.476	422.296	176.574	127.588	341.047	256.938	393.784	263.471	378.638	179.196	353.380	119.986	239.915	0.00067433	0.00055088	0.00021352	562.96	7.2904e-06	2.8114e-06	826.75	238.07	9.0917e-06	7.0048e-06	401.47	186.96	106.66	36.105	9.4528e-06	79.124	0.00090256	0.00094262	0.00026851	555.37	1.0781e-05	1.1245e-05	808.66	235.68	1.1445e-05	1.1538e-05	396.98	184.75	106.08	36.567	1.1852e-05	78.026	229.302	129.667	153.141	83.901	235.018	309.791	84.172	89.948	264.949	190.998	88.480	93.541	94.902	99.416	244.900	97.426	-8191	255	
1285.460	1	1	0	0	0.24771	0.081012	0.35961	0.25798	0.087328	0.11823	0.17794	0.18074	0.11397	0.29149	0.249	0.057446	0.20477	0.088124	0.20645	0.30136	-1.8687	-2.2604	-2.5687	-2.3688	-2.4979	-2.7562	-2.1375	-2.625	-2.5667	-2.2583	-2.6708	-2.5917	-2.3146	-2.7458	-2.4188	-2.7583	166.566	136.792	331.337	110.495	152.049	169.161	326.103	405.973	184.255	209.878	301.659	268.866	420.438	269.597	229.342	89.527	0.00068643	0.00028837	0.00023558	566.35	8.3569e-06	7.5555e-06	829	240.01	2.9685e-06	4.1298e-06	396.56	183.35	104.03	35.379	7.0653e-06	76.526	0.0010657	0.0011046	0.00030733	557.09	1.2029e-05	1.2436e-05	811.53	236.86	1.2032e-05	1.208e-05	390.56	180.93	103.3	35.731	1.158e-05	75.64	230.120	164.016	131.387	83.853	253.227	239.830	84.531	89.840	253.966	203.462	88.554	93.493	95.213	99.770	237.721	97.356	-8191	255	
1285.555	1	1	0	0	0.092052	0.24387	0.14955	0.067177	0.15408	0.096265	0.29388	0.39371	0.25941	0.12388	0.088861	0.24571	0.13616	0.11204	0.0073633	0.14426	-1.9021	-2.1583	-2.6583	-2.4583	-2.2208	-2.7146	-2.3875	-2.7146	-2.5521	-2.2667	-2.6917	-2.5271	-2.4313	-2.8979	-2.3896	-2.4813	183.608	250.802	112.368	252.603	195.883	141.918	335.677	353.237	95.314	285.260	76.206	346.346	132.374	345.364	204.039	419.494	0.00063544	0.00028149	0.00022328	560.71	4.3589e-06	2.6836e-06	816.11	227.11	6.2096e-06	3.8864e-06	377.69	175.39	98.766	34.605	4.5471e-06	74.713	0.0010046	0.0010575	0.00029153	553.33	1.1041e-05	1.1307e-05	804.22	225.1	1.091e-05	1.0869e-05	371.75	172.69	97.986	34.815	1.0458e-05	73.536	226.366	155.767	192.300	83.987	246.286	282.703	84.447	89.859	271.136	261.689	88.586	93.331	95.133	99.448	223.135	97.466	-8191	255	
1285.651	1	1	0	0	0.17949	0.25718	0.14694	0.10884	0.24194	0.22843	0.25091	0.25965	0.084997	0.11216	0.15368	0.11965	0.28512	0.0055425	0.052261	0.20996	-1.9979	-2.3833	-2.6146	-2.3458	-2.2313	-2.675	-2.3312	-2.4083	-2.5	-2.1188	-2.5542	-2.6292	-2.3833	-2.5625	-2.275	-2.5583	213.006	371.664	94.529	369.854	355.005	312.783	304.037	258.947	269.931	395.319	324.134	413.090	421.741	405.727	183.075	350.199	0.00064658	9.9983e-05	0.00022841	559.04	4.2913e-06	7.4486e-06	816.29	218.11	5.363e-06	8.3106e-06	362.9	168.84	94.682	33.875	8.8038e-06	73.525	0.00092384	0.00095674	0.00026303	551.06	9.9311e-06	1.0206e-05	801.03	214.93	9.9774e-06	1.009e-05	357.81	166.63	94.309	34.127	9.6336e-06	72.631	222.781	212.651	162.230	84.365	283.821	211.401	83.996	90.169	277.211	229.258	88.444	93.358	95.477	99.421	264.231	97.337	-8191	255	
1285.772	1	1	0	0	0.11275	0.053587	0.02621	0.20122	0.20675	0.096321	0.15217	0.24934	0.29056	0.16943	0.096571	0.38597	0.14789	0.25117	0.10906	0.337	-2.2313	-2.1521	-2.3875	-2.4979	-2.0312	-2.725	-2.6188	-2.4271	-2.5312	-2.1833	-2.5604	-2.5521	-2.2687	-2.7146	-2.5187	-2.6479	157.033	111.598	219.498	140.504	164.543	203.595	346.465	100.813	106.201	236.534	89.376	381.419	406.591	91.179	245.322	381.572	0.0006422	0.00044702	0.00030413	561.82	9.6473e-06	8.5074e-06	822.13	214.71	4.2021e-06	3.2535e-06	360.6	168.64	94.491	34.233	7.1209e-06	73.46	0.00086189	0.0008721	0.00024157	551.85	9.2611e-06	9.3148e-06	804.73	213.24	9.047e-06	9.1369e-06	355.3	165.94	93.706	34.143	8.8248e-06	72.52	227.036	158.751	172.677	84.065	246.648	262.872	84.093	90.115	243.148	183.610	88.787	93.580	95.417	99.531	189.741	97.364	-8191	255	
1285.843	1	1	0	0	0.23425	0.089138	0.04325	0.23292	0.059281	0.060011	0.29661	0.24221	0.083879	0.29537	0.086871	0.19951	0.12894	0.2271	0.079669	0.17738	-2.0083	-2.1292	-2.4562	-2.5854	-2.225	-2.8063	-2.5021	-2.2521	-2.6625	-2.1896	-2.5854	-2.6208	-2.3021	-2.5771	-2.6542	-2.3438	286.948	275.005	155.017	123.435	292.106	208.246	337.445	428.081	289.478	262.156	397.319	362.920	382.078	323.176	222.876	90.996	0.0005707	0.00082271	0.00011582	561.27	7.3943e-06	6.9674e-06	824.01	214.23	9.7589e-06	4.9819e-06	354.4	166.89	94.122	33.787	7.285e-06	72.912	0.0007853	0.00079905	0.00022532	553.18	8.364e-06	8.6738e-06	803.44	211.19	8.2462e-06	8.3733e-06	350.74	164.05	92.603	33.794	8.1634e-06	71.579	226.539	202.717	186.660	84.401	271.933	201.202	84.314	90.141	231.390	215.229	88.761	93.837	95.326	99.507	246.782	97.469	-8191	255	
1285.939	1	1	0	0	0.18904	0.10392	0.30701	0.2787	0.057964	0.15362	0.068423	0.18826	0.3093	0.26336	0.05503	0.066212	0.17012	0.12342	0.15005	0.16165	-2.0875	-2.2792	-2.4667	-2.5292	-2.125	-2.7562	-2.4083	-2.3792	-2.7333	-2.3875	-2.2292	-2.6437	-2.0417	-2.6396	-2.5229	-2.5687	320.244	262.924	413.333	402.521	299.028	334.493	363.899	374.535	378.612	423.732	178.704	335.275	75.295	266.207	288.995	392.526	0.00059595	0.00054958	0.00024131	561.93	5.2546e-06	3.5887e-06	820.3	212.94	4.3618e-06	2.4746e-06	359.42	166.19	93.33	33.793	6.5146e-06	72.654	0.00073662	0.00074025	0.00020445	550.96	7.5974e-06	7.8109e-06	801.45	210.21	7.4585e-06	7.5722e-06	351.34	163.42	92.242	33.659	7.2777e-06	71.241	229.673	189.005	155.138	84.132	265.325	196.162	84.387	90.010	249.769	231.888	88.598	93.588	95.244	99.922	250.921	97.326	-8191	255	
1286.036	1	1	0	0	0.17907	0.061495	0.09714	0.20532	0.093981	0.12973	0.3954	0.15507	0.25913	0.25678	0.20852	0.12076	0.14359	0.4291	0.30346	0.28776	-2.1021	-2.1146	-2.3354	-2.7479	-2.2979	-2.6875	-2.6	-2.1583	-2.7375	-2.2625	-2.3271	-2.8417	-2.2271	-2.3333	-2.4583	-2.1708	243.086	254.030	270.835	288.759	140.507	97.344	393.351	325.396	407.242	303.579	370.899	410.268	368.265	87.407	110.435	355.005	0.00066374	0.0010734	0.00015039	564.78	9.7355e-06	4.8549e-06	828.87	213.19	5.3198e-06	2.8046e-06	356.31	165.48	92.515	33.58	5.8928e-06	71.525	0.00069204	0.00068352	0.00019149	551.92	7.1846e-06	7.3896e-06	803.17	209.43	7.141e-06	7.242e-06	349.2	162.69	91.05	33.458	7.1185e-06	70.439	231.590	134.586	183.692	84.042	227.200	241.381	84.073	90.160	278.480	220.854	88.132	93.809	95.425	99.555	253.807	97.474	-8191	255	
1286.156	1	1	0	0	0.092957	0.14727	0.046192	0.21315	0.14741	0.12837	0.2332	0.30888	0.14413	0.044583	0.074128	0.35499	0.21794	0.25661	0.20724	0.44099	-2.0687	-2.2792	-2.1458	-2.475	-2.2771	-2.3563	-2.6688	-2.2104	-2.4979	-2.2604	-2.4104	-2.625	-2.3563	-2.4458	-2.6292	-2.5187	313.211	160.495	117.408	356.872	114.496	407.090	361.230	321.855	410.023	140.557	392.856	381.790	141.741	416.642	412.422	74.227	0.00062576	0.0010786	7.8444e-05	564.1	4.8111e-06	2.5888e-06	824.74	211.94	5.3418e-06	2.7986e-06	353.47	163.93	90.881	33.211	3.4297e-06	71.22	0.00068245	0.00065877	0.00018371	552.37	7.0616e-06	7.0693e-06	801.56	207.66	6.9198e-06	7.0672e-06	346.11	160.84	89.493	33.162	6.7567e-06	69.964	228.828	162.259	189.999	84.008	251.143	188.584	83.863	89.809	241.344	196.465	88.448	93.604	95.469	99.699	229.589	97.385	-8191	255	
1286.252	1	1	0	0	0.22804	0.14134	0.2394	0.060444	0.08972	0.083034	0.031583	0.24616	0.18871	0.020809	0.19092	0.21567	0.10713	0.17343	0.14122	0.10328	-2.1521	-2.4583	-2.2771	-2.6937	-2.4354	-2.3875	-2.6917	-2.2271	-2.6937	-2.5292	-2.2188	-2.7125	-2.4188	-2.2812	-2.5979	-2.3396	418.991	238.428	405.504	277.635	219.999	132.785	396.760	362.964	230.907	78.488	109.829	398.601	313.372	352.983	430.889	377.275	0.0006153	0.00046811	0.00012717	562.39	2.546e-06	5.9116e-06	822.77	211.82	5.7158e-06	2.031e-06	354.74	165.18	92.514	33.72	8.4467e-06	72.071	0.00065805	0.00062375	0.00017404	550.3	6.7918e-06	6.7966e-06	800.99	207.29	6.637e-06	6.5871e-06	347.27	161.82	90.957	33.528	6.5506e-06	70.997	223.666	168.569	141.622	83.775	324.117	183.688	84.210	90.062	270.994	247.810	88.442	93.511	95.609	99.534	232.570	97.450	-8191	255	
1286.349	1	1	0	0	0.28676	0.23779	0.13191	0.13724	0.12548	0.034934	0.1927	0.13309	0.33513	0.11903	0.24199	0.1087	0.20847	0.17053	0.15065	0.094052	-2.0438	-2.6042	-2.0687	-2.6562	-2.6604	-2.2604	-2.7792	-2.3542	-2.4313	-2.6937	-2.3396	-2.6063	-2.5521	-2.2104	-2.625	-2.3125	366.936	222.134	72.219	411.182	289.365	88.302	386.187	84.463	303.407	125.216	267.805	411.722	356.867	194.729	85.470	122.871	0.00063238	0.00035566	9.9892e-05	563.15	3.2657e-06	4.7566e-06	827.6	220.96	4.547e-06	5.892e-06	374.76	175.06	97.887	35.407	2.7387e-06	76.302	0.0006354	0.00059594	0.00016538	552.64	6.2998e-06	6.3236e-06	801.54	217.11	6.0349e-06	5.9562e-06	366.41	172.15	96.742	35.306	5.8222e-06	74.891	231.393	157.428	116.752	83.880	256.100	221.784	83.878	89.698	258.371	244.482	88.333	93.152	95.298	99.217	264.457	97.199	-8191	255	
1286.445	1	1	0	0	0.09279	0.1036	0.15886	0.22985	0.16097	0.20783	0.068456	0.26477	0.16134	0.10711	0.1132	0.11647	0.14185	0.28111	0.036641	0.32753	-2.05	-2.3979	-2.1229	-2.5292	-2.3937	-2.1312	-2.875	-2.5146	-2.2854	-2.4104	-2.2958	-2.5167	-2.4313	-2.3271	-2.8042	-2.3417	320.748	236.564	284.490	338.417	269.629	389.210	115.770	393.075	171.689	311.027	269.754	418.123	415.049	75.234	284.569	354.421	0.00065439	0.00071214	0.00018428	572.98	4.9955e-06	4.8526e-06	832.48	228.9	5.6927e-06	4.4279e-06	383.74	180.66	101.47	36.532	4.4976e-06	77.935	0.00058875	0.00055083	0.00015182	558.48	5.941e-06	6.1294e-06	808.14	223.9	5.9915e-06	6.1083e-06	374.34	176.96	99.509	36.332	6.1813e-06	76.607	229.960	169.742	163.001	83.784	227.975	237.280	83.957	89.780	249.834	222.176	88.413	93.312	95.254	99.429	217.803	97.020	-8191	255	
1286.541	1	1	0	0	0.20971	0.076789	0.14465	0.056294	0.07533	0.13805	0.1026	0.12912	0.1297	0.17646	0.23804	0.2452	0.12431	0.12387	0.25033	0.076138	-1.8604	-2.5458	-2.2375	-2.5292	-2.5583	-2.1688	-2.6875	-2.4458	-2.3187	-2.6937	-2.3979	-2.5687	-2.6083	-2.3917	-2.7646	-2.5896	128.363	238.507	135.711	418.281	423.867	319.040	131.218	306.586	139.832	163.550	392.556	92.183	250.231	415.222	103.635	122.102	0.00071252	0.00065799	0.00021019	575.71	1.5243e-06	2.0598e-06	837.64	230.88	4.3139e-06	6.1535e-06	385.55	183.42	103.62	37.116	5.9e-06	80.183	0.00062581	0.00058288	0.00016411	561.38	6.2624e-06	6.3582e-06	812.82	225.79	6.3834e-06	6.1557e-06	377.82	180	101.91	37.126	6.2119e-06	78.75	230.305	205.398	130.561	84.116	246.289	190.114	83.747	89.759	213.106	243.801	88.120	93.269	95.042	99.427	244.070	97.147	-8191	255	
1286.635	1	1	0	0	0.10868	0.038125	0.13936	0.10265	0.091578	0.2688	0.080188	0.22298	0.10294	0.17649	0.1484	0.026542	0.23393	0.068336	0.13731	0.14226	-1.8396	-2.6333	-2.0396	-2.4521	-2.7396	-2.0771	-2.8417	-2.5542	-2.175	-2.7542	-2.3958	-2.4646	-2.6479	-2.1792	-2.6354	-2.6958	256.704	336.182	412.169	332.441	253.511	221.093	371.476	395.359	85.871	165.565	364.381	245.554	88.922	74.928	418.972	392.640	0.00070439	0.00063676	0.00017486	576.67	6.7217e-06	3.0331e-06	857.6	244.33	6.8408e-06	4.6059e-06	405.77	189.75	107.59	38.403	6.4322e-06	82.388	0.00062041	0.00055983	0.00015523	562.9	6.0847e-06	6.0682e-06	834.48	238.99	6.0455e-06	6.0397e-06	395.75	186.26	105.7	38.286	6.0462e-06	80.645	225.064	204.288	140.264	84.073	226.557	262.719	84.003	89.651	263.610	233.233	87.954	93.100	94.810	99.117	249.600	97.110	-8191	255	
1286.733	1	1	0	0	0.12363	0.090279	0.1081	0.29397	0.25868	0.12364	0.14019	0.2152	0.14577	0.19298	0.2937	0.14563	0.21388	0.11744	0.20759	0.30823	-1.7229	-2.6146	-2.35	-2.55	-2.5583	-2.2104	-2.6896	-2.6625	-2.4062	-2.7479	-2.4042	-2.3812	-2.8	-2.3271	-2.3479	-2.6125	286.539	80.506	197.471	316.554	321.757	89.141	287.197	326.622	310.848	191.210	72.447	238.637	110.377	156.725	340.914	365.797	0.00071961	0.00069809	0.00020128	585.32	4.6402e-06	5.0336e-06	883.11	244.72	4.3464e-06	6.2945e-06	399.9	187.37	105.67	37.998	8.2988e-06	80.02	0.00061296	0.00056792	0.00015907	571.25	6.1175e-06	6.2537e-06	857.67	239.74	6.0611e-06	6.1029e-06	390.92	183.68	103.68	37.75	6.2504e-06	78.748	229.885	148.621	156.819	83.843	297.761	203.495	84.050	89.682	266.216	190.174	88.439	92.921	95.045	99.352	232.254	97.130	-8191	255	
1286.852	1	1	0	0	0.064831	0.26894	0.04108	0.20399	0.091969	0.16191	0.30996	0.16303	0.07321	0.10466	0.11909	0.45551	0.083784	0.2254	0.17533	0.17152	-1.8625	-2.4354	-2.3583	-2.35	-2.6667	-2.3958	-2.4938	-2.5292	-2.2562	-2.6021	-2.4104	-2.3771	-2.7125	-2.3979	-2.3333	-2.6917	127.860	138.963	135.719	192.186	146.396	245.085	354.452	77.330	392.708	272.977	130.224	75.364	119.671	419.493	139.102	99.702	0.00067256	0.00051191	8.9697e-05	600.55	7.9765e-06	7.0872e-06	885	233.27	5.5322e-06	4.9716e-06	384.21	177.37	99.558	35.977	4.7969e-06	76.972	0.00060708	0.00056143	0.00015462	586.13	5.9469e-06	6.125e-06	862.31	228.67	6.0072e-06	6.0961e-06	375.07	174.02	97.674	35.934	6.1233e-06	75.546	228.110	203.003	179.554	84.059	225.024	228.940	84.042	89.551	253.920	214.203	88.492	93.306	95.104	99.300	236.039	97.117	-8191	255	
1286.948	1	1	0	0	0.17946	0.23388	0.23196	0.23522	0.22611	0.18246	0.23868	0.10742	0.14191	0.096108	0.21292	0.246	0.082571	0.027887	0.3551	0.060729	-1.6458	-2.5042	-2.6	-2.3042	-2.5	-2.3604	-2.6896	-2.6188	-2.3146	-2.6333	-2.5167	-2.4271	-2.7208	-2.4562	-2.4229	-2.8417	132.089	82.629	400.710	393.068	347.543	191.479	355.134	217.954	282.618	321.936	351.669	109.421	73.024	207.221	179.172	339.074	0.0006734	0.00077741	0.0001365	601.56	7.4111e-06	5.0394e-06	882.18	228.86	4.6543e-06	5.9305e-06	377.11	174.07	96.688	35.273	5.8586e-06	75.559	0.00061009	0.00055989	0.00015862	585.65	6.097e-06	6.4023e-06	859.26	224.76	6.092e-06	6.3016e-06	368.1	170.35	95.509	35.175	6.2269e-06	74.062	229.200	144.524	164.752	83.998	223.142	212.053	84.151	89.808	253.900	253.159	87.998	93.429	95.146	99.209	267.027	97.382	-8191	255	
1287.044	1	1	0	0	0.17197	0.13034	0.2221	0.20356	0.3781	0.16111	0.10017	0.27914	0.27705	0.093737	0.34342	0.26312	0.19015	0.049451	0.031526	0.2159	-1.7917	-2.5062	-2.5583	-2.2479	-2.6667	-2.3896	-2.4938	-2.675	-2.2708	-2.6312	-2.725	-2.1917	-2.5667	-2.3896	-2.1104	-2.7917	288.293	375.950	185.224	294.434	199.348	284.208	369.558	363.763	195.979	329.125	381.030	430.136	87.816	404.694	339.050	273.273	0.00065205	0.00080411	0.0002595	595.08	5.2079e-06	3.0042e-06	879.73	227.03	3.4382e-06	4.1249e-06	374.96	172.7	96.487	35.309	4.1376e-06	74.994	0.00060933	0.00056671	0.00015994	582.96	6.1115e-06	6.2273e-06	854.54	222.5	6.1115e-06	6.2703e-06	366.3	169.74	95.284	35.252	6.1574e-06	73.822	229.655	148.939	187.983	83.660	234.335	266.288	84.023	89.789	251.057	254.781	87.882	93.296	95.222	99.126	244.564	97.178	-8191	255	
1287.140	1	1	0	0	0.1036	0.07021	0.071829	0.18285	0.15332	0.18449	0.089429	0.14005	0.047198	0.12621	0.39291	0.18839	0.40637	0.029337	0.24803	0.24154	-1.9521	-2.2375	-2.5646	-2.2021	-2.6104	-2.5312	-2.4208	-2.6562	-2.3104	-2.6292	-2.8479	-2.225	-2.6417	-2.6063	-2.2562	-2.8042	78.547	396.600	380.837	360.690	419.971	356.101	354.802	429.922	95.387	404.844	363.440	367.496	419.739	196.904	309.708	327.551	0.00061636	0.00054438	8.9679e-05	597.98	9.065e-06	5.4394e-06	876.33	219.53	4.7015e-06	2.7033e-06	360.97	166.9	92.704	34.255	4.171e-06	72.688	0.00060888	0.00057467	0.00016133	582.43	6.1549e-06	6.3726e-06	849.38	216.17	6.2833e-06	6.3717e-06	353.59	163.38	91.324	34.121	6.2656e-06	71.587	231.925	173.049	162.690	84.134	243.683	238.364	83.844	89.732	247.529	242.805	88.131	93.448	95.441	99.577	201.958	97.314	-8191	255	
1287.237	1	1	0	0	0.19175	0.10112	0.055992	0.074376	0.10767	0.22979	0.28041	0.13841	0.1236	0.091143	0.080154	0.19696	0.22239	0.10541	0.2432	0.43945	-1.8479	-2.1896	-2.5938	-2.3125	-2.7	-2.6167	-2.3604	-2.8021	-2.4062	-2.3792	-2.75	-2.475	-2.5563	-2.4917	-2.2625	-2.7979	73.754	291.298	302.460	140.722	147.624	273.717	102.143	260.601	298.030	346.445	98.148	378.376	121.061	256.193	402.342	361.918	0.00059003	0.0008798	6.6736e-05	591.21	4.6675e-06	4.5901e-06	875.97	220.84	4.2843e-06	5.5084e-06	365.9	170.48	95.073	34.981	5.3406e-06	74.041	0.00062713	0.00058826	0.000166	578.63	6.4144e-06	6.6613e-06	848.62	216.86	6.5936e-06	6.5057e-06	357.83	166.54	93.594	34.853	6.6361e-06	72.912	231.156	120.302	145.598	83.808	266.010	204.536	83.981	89.901	295.795	280.374	88.107	93.324	95.552	99.289	250.243	97.118	-8191	255	
1287.333	1	1	0	0	0.26528	0.18343	0.15763	0.15631	0.23711	0.14247	0.075324	0.14835	0.16811	0.2131	0.24214	0.098037	0.15494	0.061344	0.21895	0.38308	-1.8917	-2.0458	-2.7646	-2.175	-2.475	-2.4583	-2.3312	-2.5438	-2.4521	-2.2958	-2.7646	-2.5625	-2.4646	-2.6917	-2.3271	-2.8583	135.226	135.393	102.937	253.533	305.029	258.249	370.623	354.091	175.960	391.558	316.709	92.265	395.683	397.765	247.449	278.065	0.00063739	0.00057471	6.366e-05	595.16	5.8822e-06	4.2252e-06	871.65	221.85	4.1782e-06	4.3723e-06	365.38	168.97	94.81	34.929	6.5665e-06	73.494	0.00063966	0.00061338	0.00017339	580.92	6.6981e-06	6.7607e-06	848.11	218.27	6.6518e-06	6.7511e-06	357.63	165.94	93.243	34.719	6.7067e-06	72.101	233.576	159.277	409.897	84.287	232.417	240.366	84.209	89.668	249.688	148.957	88.182	93.633	95.148	99.574	267.618	97.455	-8191	255	
1287.453	1	1	0	0	0.36395	0.21415	0.12451	0.18387	0.06618	0.2793	0.17843	0.25729	0.097592	0.15537	0.23509	0.18986	0.2958	0.10501	0.20785	0.10836	-1.8813	-2.1917	-2.4917	-2.4708	-2.4062	-2.6792	-2.4688	-2.6562	-2.4854	-2.2708	-2.7604	-2.5292	-2.3354	-2.7354	-2.1208	-2.6437	179.483	317.270	131.198	366.877	303.958	92.657	408.833	291.311	77.142	275.960	378.136	427.815	388.618	279.821	381.662	419.188	0.00064456	0.00089157	0.00011211	592.3	3.0054e-06	4.9833e-06	869.19	219.59	2.6492e-06	7.2782e-06	359.73	166.45	92.712	34.515	5.3541e-06	72.515	0.00064078	0.00061968	0.00017453	578.8	6.6864e-06	6.7629e-06	844.92	215.56	6.7756e-06	7.0422e-06	353.61	163.53	91.823	34.297	6.8311e-06	71.367	233.481	138.935	148.488	83.750	245.891	266.405	84.175	89.939	267.445	224.347	88.426	93.380	95.335	99.613	203.577	97.335	-8191	255	
1287.550	1	1	0	0	0.14899	0.1262	0.10857	0.22116	0.17698	0.096492	0.095318	0.28577	0.083024	0.032996	0.23407	0.13656	0.31126	0.26392	0.27632	0.15	-2.1312	-2.2396	-2.7917	-2.5687	-2.3271	-2.7562	-2.3688	-2.5854	-2.6333	-2.325	-2.6604	-2.5708	-2.3563	-2.6792	-2.1813	-2.4917	194.850	98.740	299.303	411.658	203.308	418.744	242.483	307.333	204.354	77.454	344.291	248.203	318.617	91.815	237.427	128.354	0.00062733	0.00082816	3.1187e-05	586.86	1.1426e-05	5.1357e-06	863	217.33	7.7695e-06	5.7229e-06	358.17	164.24	91.979	33.993	3.5468e-06	71.785	0.00066698	0.00063737	0.00017832	576.35	6.9703e-06	6.9811e-06	838.87	212.53	6.9336e-06	7.1336e-06	350.02	161.5	90.446	33.831	7.0073e-06	70.605	231.594	193.569	134.790	83.914	241.694	249.903	84.001	90.121	236.345	191.914	88.522	93.643	95.015	99.767	216.585	97.422	-8191	255	
1287.644	1	1	0	0	0.11966	0.2101	0.18895	0.067057	0.053438	0.15125	0.090138	0.19663	0.37467	0.084798	0.063913	0.034903	0.25053	0.12675	0.28642	0.21297	-1.95	-2.1021	-2.4417	-2.4271	-2.2375	-2.7458	-2.4479	-2.4083	-2.5938	-2.3333	-2.7021	-2.5667	-2.2521	-2.7313	-2.1979	-2.5875	114.295	390.731	274.685	414.856	182.886	147.569	382.313	425.630	335.160	172.606	82.951	324.190	345.371	245.601	113.133	423.656	0.00061809	0.00032163	0.00012818	590.78	7.0828e-06	2.9154e-06	862.79	213.59	5.1601e-06	2.8454e-06	350.86	159.93	88.859	32.627	6.0054e-06	69.748	0.00067061	0.000631	0.00017666	575.9	6.9345e-06	6.8427e-06	837.8	209.56	6.7893e-06	6.7974e-06	344.31	157.07	87.811	32.575	6.7961e-06	68.34	227.888	180.403	106.647	84.144	258.254	220.384	84.087	89.787	262.201	219.936	88.401	93.568	95.621	99.693	238.977	97.370	-8191	255	
1287.740	1	1	0	0	0.31184	0.27393	0.19214	0.21482	0.44209	0.15389	0.1221	0.15235	0.1732	0.1364	0.30095	0.24581	0.25799	0.21233	0.088045	0.20244	-1.9771	-2.1146	-2.475	-2.5125	-2.1625	-2.6458	-2.4521	-2.3688	-2.6083	-2.1458	-2.4667	-2.8417	-2.325	-2.6875	-2.4396	-2.2875	109.166	268.621	298.937	372.717	133.452	207.973	414.660	379.778	339.406	290.911	409.355	296.071	114.085	416.036	107.963	404.264	0.00065397	0.0005128	0.00018098	587.6	6.7368e-06	3.7485e-06	854.32	209.96	5.8479e-06	4.0716e-06	343.31	154.42	85.754	31.644	8.5068e-06	67.632	0.0006446	0.00062847	0.00017025	575.02	6.3973e-06	6.6831e-06	832.05	205.69	6.3781e-06	6.5548e-06	335.78	151.95	84.356	31.514	6.3789e-06	66.245	229.468	149.769	142.098	83.815	260.984	305.231	83.990	89.727	245.891	176.872	88.596	93.461	95.551	99.903	268.118	97.666	-8191	255	
1287.814	1	1	0	0	0.13019	0.16197	0.1863	0.19944	0.14752	0.068188	0.085687	0.17152	0.19136	0.39185	0.34682	0.088153	0.014117	0.074444	0.17111	0.36957	-2.3896	-2.2229	-2.5021	-2.85	-2.3042	-2.7833	-2.5187	-2.5375	-2.7292	-2.3708	-2.4542	-2.5583	-2.1917	-2.4896	-2.3812	-2.3271	336.230	165.308	259.169	399.156	184.424	228.436	360.294	296.814	209.018	339.492	347.899	158.743	364.842	177.804	237.389	403.802	0.00058226	0.00049016	9.6614e-05	585.08	6.9656e-06	7.6482e-06	844.58	203.68	3.3129e-06	5.1075e-06	339.34	151.43	83.643	31.062	4.8167e-06	66.334	0.00059807	0.00058929	0.00016238	571.22	6.2798e-06	6.4807e-06	824.01	200.35	6.1227e-06	6.4372e-06	330.94	148.96	82.211	30.854	6.1996e-06	65.245	230.353	129.664	129.180	83.902	238.245	227.248	83.903	89.767	248.208	245.237	88.599	93.604	95.573	99.684	206.953	97.541	-8191	255	
1287.932	1	1	0	0	0.23172	0.034062	0.21018	0.032002	0.06019	0.40078	0.19592	0.10007	0.2869	0.11046	0.21115	0.56461	0.10725	0.24441	0.3099	0.17994	-2.2062	-2.1604	-2.3458	-2.5708	-2.2458	-2.6	-2.475	-2.2833	-2.6917	-2.3708	-2.5333	-2.6542	-2.2604	-2.5417	-2.4833	-2.2854	427.869	317.103	149.866	397.355	175.162	188.805	423.918	417.090	191.837	422.600	348.881	402.469	107.881	84.108	306.874	392.230	0.00057045	0.00043434	0.00014225	581.06	5.388e-06	4.518e-06	847	203.26	3.0468e-06	6.6892e-06	335.5	151.34	83.457	31.48	4.3927e-06	67.049	0.00059331	0.00058895	0.00016492	567.73	6.2555e-06	6.3021e-06	823.09	198.99	6.1689e-06	6.4427e-06	328.55	148.64	82.17	31.233	6.3044e-06	65.692	234.740	142.219	165.099	83.703	181.595	210.814	84.063	89.878	205.062	236.905	88.444	93.610	95.671	99.978	236.306	97.611	-8191	255	
1288.029	1	1	0	0	0.10021	0.092951	0.19363	0.080976	0.11665	0.22389	0.28565	0.26389	0.19926	0.27252	0.11322	0.30215	0.17824	0.27509	0.23068	0.097789	-2.0208	-2.2354	-2.2875	-2.8021	-2.1854	-2.5896	-2.5938	-2.3187	-2.6458	-2.4708	-2.45	-2.8146	-2.3104	-2.6021	-2.6479	-2.2771	253.002	372.139	331.733	125.523	248.648	275.024	423.248	211.338	281.112	168.050	137.188	338.844	361.060	322.238	201.257	141.555	0.00060721	0.00079089	0.00016165	583.81	3.8617e-06	5.1983e-06	839.97	202.92	6.6394e-06	4.9065e-06	336.69	151.79	83.731	31.554	9.7196e-07	66.808	0.00060214	0.00058556	0.00016012	567.8	6.3296e-06	6.5038e-06	819.9	198.65	6.2916e-06	6.469e-06	327.97	148.9	82.518	31.387	6.4018e-06	65.644	226.878	169.365	179.255	84.013	265.012	241.650	83.760	89.856	231.874	204.712	88.675	93.415	95.467	99.619	314.801	97.818	-8191	255	
1288.125	1	1	0	0	0.20385	0.18463	0.02534	0.17457	0.20046	0.02876	0.28628	0.089363	0.12919	0.1781	0.072372	0.17465	0.14619	0.1872	0.13294	0.074082	-2.1604	-2.4583	-2.1458	-2.4813	-2.2833	-2.4333	-2.7021	-2.2771	-2.4271	-2.5167	-2.45	-2.8604	-2.3833	-2.3688	-2.4292	-2.2083	123.779	80.343	430.488	269.956	358.685	217.631	375.040	100.676	419.875	148.902	261.231	369.293	89.539	75.006	128.995	133.273	0.00058451	0.00066391	6.6145e-05	579.18	2.9581e-06	5.1411e-06	841.51	202.55	6.8398e-06	4.4787e-06	337.96	152.44	84.123	31.9	4.4338e-06	67.073	0.00060749	0.00059907	0.00016311	566.49	6.4436e-06	6.5682e-06	818.86	198.96	6.463e-06	6.5428e-06	329.5	149.31	82.918	31.702	6.4754e-06	65.913	227.390	209.324	158.374	83.873	231.659	241.754	84.075	89.852	236.777	247.031	88.464	93.882	95.640	99.738	279.129	97.406	-8191	255	
1288.221	1	1	0	0	0.10015	0.14801	0.26493	0.098865	0.15452	0.12952	0.13017	0.14887	0.040651	0.063588	0.24474	0.19308	0.129	0.061861	0.066668	0.20737	-2.0667	-2.3146	-2.275	-2.7562	-2.4625	-2.5167	-2.8208	-2.4167	-2.3229	-2.5583	-2.3917	-2.8167	-2.2604	-2.3688	-2.7167	-2.5312	136.247	245.020	295.804	367.615	200.019	368.747	166.734	346.060	411.825	100.260	328.931	389.384	178.248	354.477	182.320	407.651	0.00059597	0.00055742	0.00018965	576.97	4.7643e-06	3.1272e-06	839.18	201.33	5.9655e-06	3.073e-06	332.91	150.64	83.967	31.585	4.3706e-06	66.897	0.0006186	0.00061368	0.00017058	565.64	6.5764e-06	6.6109e-06	817.36	197.75	6.6406e-06	6.7838e-06	325.48	148.1	82.508	31.562	6.3846e-06	65.685	227.502	234.163	186.554	84.011	245.836	187.007	84.290	89.820	296.793	240.969	88.255	93.467	95.726	99.785	246.883	97.598	-8191	255	
1288.341	1	1	0	0	0.14087	0.12266	0.074923	0.27812	0.16385	0.011702	0.43064	0.30609	0.095503	0.11798	0.14155	0.23506	0.22204	0.25116	0.45552	0.10376	-1.8771	-2.5	-2.2417	-2.7375	-2.4792	-2.4646	-2.8208	-2.4229	-2.4625	-2.6292	-2.4458	-2.6875	-2.3646	-2.3563	-2.6417	-2.3292	84.773	423.245	357.651	137.459	105.228	391.818	396.550	274.397	164.156	301.076	373.676	431.301	339.482	421.489	138.250	429.233	0.00058127	0.00094772	8.0777e-05	579.6	3.2663e-06	1.291e-06	839.79	200.81	4.6173e-06	2.6609e-06	332.32	150.04	83.425	31.404	6.1635e-06	66.072	0.00062857	0.00059931	0.00016698	565.39	6.4562e-06	6.6784e-06	816.09	196.85	6.6401e-06	6.7454e-06	325.79	147.63	82.206	31.295	6.3784e-06	65.021	225.876	189.398	110.820	83.888	229.097	237.444	84.043	89.763	271.021	264.466	88.683	93.686	95.417	99.823	272.768	97.278	-8191	255	
1288.413	1	1	0	0	0.11173	0.21506	0.055682	0.27272	0.25279	0.11878	0.066609	0.093249	0.12239	0.13376	0.087034	0.259	0.098142	0.19175	0.30055	0.030559	-2.0625	-2.5042	-2.0062	-2.5958	-2.4125	-2.4542	-2.9354	-2.3625	-2.3542	-2.6667	-2.2583	-2.7646	-2.3333	-2.3771	-2.5354	-2.3979	238.918	322.453	426.444	305.335	162.843	98.450	209.536	109.978	213.238	152.946	207.083	89.192	82.667	411.294	408.068	280.257	0.00056238	0.00076459	0.00014932	580.3	3.14e-06	5.0934e-06	837.18	199.33	5.0807e-06	4.4e-06	329.65	148.37	82.402	31.378	5.1649e-06	66.244	0.00061501	0.00059359	0.00016721	565.6	6.3675e-06	6.4988e-06	813.03	196.11	6.3666e-06	6.4403e-06	322.78	146.03	81.428	31.221	6.6097e-06	64.998	230.132	187.708	128.076	84.123	241.976	239.965	84.211	90.355	231.170	276.513	88.738	93.609	96.032	99.810	220.009	97.820	-8191	255	
1288.534	1	1	0	0	0.14072	0.063067	0.13896	0.10288	0.23232	0.28879	0.13861	0.10017	0.15858	0.2305	0.21672	0.10808	0.064398	0.20854	0.15962	0.14757	-1.7479	-2.8021	-2.1604	-2.6167	-2.6063	-2.3167	-2.8438	-2.6021	-2.2667	-2.575	-2.4042	-2.5375	-2.6479	-2.3146	-2.6833	-2.6375	157.257	127.926	370.368	400.699	367.244	374.575	73.673	308.612	371.372	250.239	403.466	381.458	389.171	380.819	205.475	290.304	0.00057174	0.00067396	0.00023447	575.03	3.6561e-06	9.8101e-07	836.52	199.25	4.6212e-06	4.8398e-06	331.75	150.53	82.76	31.577	6.7588e-06	66.972	0.00061903	0.00060944	0.00017059	564.57	6.5834e-06	6.7432e-06	814.59	196.23	6.7232e-06	6.9331e-06	323.89	147.56	82.165	31.633	6.7496e-06	65.731	228.694	136.862	170.496	83.803	251.982	188.861	84.024	89.725	279.352	161.745	88.596	93.734	95.517	99.680	255.284	97.367	-8191	255	
1288.630	1	1	0	0	0.23498	0.2929	0.22611	0.177	0.22031	0.34704	0.24637	0.18713	0.15144	0.24131	0.11856	0.10973	0.11978	0.16027	0.073693	0.05554	-2.0187	-2.6271	-2.2042	-2.425	-2.5958	-2.0333	-2.6229	-2.5229	-2.1958	-2.4458	-2.3646	-2.6396	-2.5187	-2.2812	-2.6125	-2.7521	219.615	220.898	122.579	429.244	72.840	178.476	392.291	320.808	137.056	422.032	376.358	373.313	357.090	143.477	278.317	161.797	0.00065019	0.0004634	7.0235e-05	579.98	4.1659e-06	6.7342e-06	840.55	202.67	5.0992e-06	2.8232e-06	336.19	152.98	85.279	32.028	3.5349e-06	67.487	0.0006403	0.00062063	0.00017641	566.9	6.7119e-06	6.8909e-06	820.02	199.36	6.6749e-06	6.6049e-06	328.75	150.33	83.904	31.894	6.944e-06	66.298	226.213	143.346	208.837	83.792	233.594	204.459	83.987	90.173	252.367	182.589	88.674	93.749	95.159	100.044	276.106	97.677	-8191	255	
1288.724	1	1	0	0	0.27948	0.1239	0.073667	0.039664	0.34569	0.20982	0.088469	0.068356	0.18554	0.084586	0.083625	0.10075	0.10648	0.36895	0.28519	0.1121	-1.6562	-2.6354	-2.3812	-2.3479	-2.5958	-2.275	-2.6833	-2.4479	-2.2354	-2.675	-2.3667	-2.4521	-2.8354	-2.4521	-2.4271	-2.7271	131.519	101.417	72.605	139.657	130.163	272.445	421.385	278.403	339.643	406.092	364.091	108.973	362.292	75.193	292.563	401.505	0.00057232	0.00069441	0.00017666	581.31	5.8225e-06	6.1567e-06	844.68	204.82	3.2233e-06	3.659e-06	339.27	152.84	85.519	31.762	3.0195e-06	66.982	0.00065526	0.00063948	0.00018012	568.83	6.7703e-06	7.0769e-06	821.37	200.65	6.9262e-06	7.0442e-06	331.42	150.67	84.186	31.826	6.9384e-06	65.723	231.896	156.555	185.517	84.231	252.090	218.891	84.006	89.778	261.570	191.577	88.278	93.810	95.954	100.002	222.283	97.386	-8191	255	
1288.820	1	1	0	0	0.29591	0.15354	0.10514	0.30649	0.28998	0.16981	0.21425	0.091955	0.1593	0.14894	0.14297	0.17965	0.15162	0.072567	0.17674	0.2375	-1.8521	-2.5958	-2.325	-2.3187	-2.5563	-2.225	-2.8167	-2.8312	-2.1854	-2.6667	-2.5792	-2.3771	-2.8187	-2.4396	-2.3042	-2.8063	394.566	297.312	139.563	418.351	182.002	194.630	399.834	144.380	366.545	326.261	314.284	415.068	403.378	384.253	165.754	78.383	0.00058966	0.00048279	8.38e-05	582.25	2.5387e-06	4.4894e-06	840.8	202.03	3.7655e-06	4.7393e-06	332.34	150.39	83.672	31.232	7.0802e-06	65.759	0.00063865	0.00063217	0.00017928	568.81	6.6941e-06	6.9996e-06	818.85	198.05	6.7156e-06	6.9233e-06	326.79	147.78	82.548	31.08	6.6403e-06	64.656	235.148	135.125	174.993	84.000	228.903	239.219	83.990	89.791	275.261	236.223	88.480	93.508	95.501	99.910	217.475	97.754	-8191	255	
1288.941	1	1	0	0	0.39029	0.22204	0.21309	0.031495	0.085307	0.18384	0.26022	0.31071	0.16852	0.10553	0.1869	0.11674	0.20361	0.076915	0.15546	0.27586	-1.8083	-2.5854	-2.4979	-2.2208	-2.6104	-2.3917	-2.6042	-2.7271	-2.2479	-2.6646	-2.6813	-2.3708	-2.6125	-2.4583	-2.3438	-2.7458	385.001	280.030	312.193	245.087	395.581	418.732	313.338	386.718	87.412	383.223	106.935	190.309	428.778	352.561	226.798	421.781	0.00055568	0.00052058	0.00022897	580.49	3.96e-06	4.0736e-06	843.22	202	5.0895e-06	7.9711e-06	334.01	150.5	84.185	31.278	7.1783e-06	65.459	0.00062589	0.00062444	0.00017256	567.28	6.5926e-06	6.8597e-06	819.62	198.82	6.7958e-06	6.8471e-06	327.98	147.96	82.764	31.229	6.7964e-06	64.455	232.457	166.994	155.587	83.774	210.556	192.338	84.113	89.444	249.679	187.974	88.626	93.853	95.578	99.773	263.666	97.366	-8191	255	
1289.013	1	1	0	0	0.16863	0.10011	0.18634	0.28217	0.12582	0.30947	0.32291	0.16838	0.092578	0.13844	0.18774	0.17457	0.082794	0.31949	0.18991	0.060395	-1.8896	-2.5333	-2.4729	-2.2771	-2.65	-2.4771	-2.4417	-2.6771	-2.2854	-2.475	-2.7687	-2.4313	-2.6375	-2.4958	-2.3271	-2.7875	370.519	178.804	361.870	410.066	83.292	126.019	398.568	133.973	386.337	315.905	419.235	414.631	400.088	391.300	110.771	230.276	0.00053541	0.00019	0.00011471	580.31	7.7047e-06	5.9526e-06	843.21	199.49	3.6988e-06	2.6853e-06	329.07	148.19	81.74	30.558	6.714e-06	64.954	0.00062709	0.0006192	0.00017706	566.74	6.6547e-06	7.0299e-06	818.07	196.25	6.7114e-06	6.8311e-06	323.36	145.28	80.768	30.472	6.6715e-06	63.665	227.089	116.077	173.871	83.941	226.512	199.066	84.046	90.077	239.656	270.344	88.178	93.534	95.433	100.360	258.145	97.782	-8191	255	
1289.109	1	1	0	0	0.19718	0.063657	0.14494	0.30107	0.1312	0.015447	0.21538	0.16554	0.058174	0.047348	0.096038	0.05229	0.11631	0.32152	0.15537	0.14397	-1.9729	-2.4583	-2.5708	-2.3417	-2.5396	-2.4271	-2.3563	-2.8417	-2.225	-2.4833	-2.5125	-2.3771	-2.6167	-2.4229	-2.2625	-2.6375	89.990	200.104	249.376	384.989	242.152	378.341	370.377	155.158	365.950	340.346	182.241	175.138	209.960	409.336	399.391	382.210	0.00055223	0.0009543	0.00016661	579.75	5.8745e-06	3.0266e-06	840.44	197.72	3.0798e-06	1.3573e-06	324.2	146.66	80.646	30.441	1.1712e-06	64.123	0.00063227	0.00061917	0.00017124	566.66	6.6364e-06	6.781e-06	815.39	194.71	6.6864e-06	6.7153e-06	319.63	143.79	79.982	30.47	6.6216e-06	63.059	227.506	161.854	157.013	83.912	264.056	252.485	83.678	89.862	268.209	265.144	88.310	93.584	96.109	99.999	240.947	97.530	-8191	255	
1289.230	1	1	0	0	0.1232	0.31031	0.063396	0.04	0.17014	0.041239	0.15405	0.18506	0.082789	0.19068	0.14307	0.068432	0.17365	0.45753	0.10325	0.23498	-1.7875	-2.4896	-2.6083	-2.3458	-2.5854	-2.7188	-2.2896	-2.7729	-2.1625	-2.2	-2.7438	-2.2833	-2.475	-2.4271	-2.2958	-2.6521	376.859	288.559	256.172	306.462	277.701	162.714	383.635	310.916	305.233	423.371	264.006	265.202	234.987	410.796	309.962	356.917	0.00057289	0.00027241	0.00018559	574.29	3.9239e-06	6.2298e-06	832.17	196.31	4.3632e-06	4.6039e-06	325.47	145.99	81.154	30.459	3.2658e-06	64.667	0.00064	0.00062382	0.00017123	562.64	6.6637e-06	6.8678e-06	812.5	193.05	6.7763e-06	7.0729e-06	318.31	143.32	80.092	30.518	6.8819e-06	63.361	226.505	134.031	166.091	84.116	204.747	241.050	84.175	89.725	206.840	217.937	88.384	93.666	95.767	100.174	232.408	97.505	-8191	255	
1289.326	1	1	0	0	0.11999	0.07917	0.14753	0.090043	0.20057	0.13044	0.27446	0.25051	0.15165	0.048842	0.2195	0.0078778	0.057456	0.1467	0.22705	0.090947	-1.8813	-2.3292	-2.6979	-2.3312	-2.3125	-2.5604	-2.1792	-2.8354	-2.4667	-2.4	-2.6854	-2.3833	-2.4333	-2.6979	-2.2646	-2.8271	345.068	391.669	341.100	118.652	100.811	351.856	101.346	75.793	335.426	263.630	407.457	283.366	229.877	390.037	224.519	341.354	0.0005667	0.00049924	0.00012299	576.22	4.8404e-06	2.6221e-06	838.96	200.2	3.4368e-06	5.1279e-06	329.77	148.99	82.573	31.347	4.4496e-06	65.708	0.00064438	0.00062738	0.00017089	563.63	6.8787e-06	6.7865e-06	815.71	195.96	6.735e-06	6.9389e-06	323.95	146.11	81.791	31.287	6.9837e-06	64.498	231.608	200.053	141.657	83.963	227.397	263.010	84.390	90.082	289.043	192.109	88.636	93.642	95.504	100.130	243.739	97.590	-8191	255	
1289.422	1	1	0	0	0.12124	0.092163	0.34684	0.077828	0.22142	0.19143	0.16246	0.10878	0.12553	0.07174	0.22599	0.34386	0.15789	0.26521	0.25758	0.22746	-2.0521	-2.2771	-2.7854	-2.2792	-2.3375	-2.5354	-2.3438	-2.7104	-2.4104	-2.3479	-2.6646	-2.3125	-2.4708	-2.6229	-2.3375	-2.5417	153.468	96.581	225.058	319.139	222.909	306.813	372.448	403.249	100.994	81.289	278.054	400.881	138.361	331.594	322.852	337.719	0.00056463	0.00088876	5.9513e-05	579.34	1.5754e-06	3.8823e-06	840.09	200.54	3.4975e-06	4.4897e-06	327.99	148.11	82.821	31.199	2.4313e-06	64.941	0.00065204	0.00063962	0.00017523	566.07	6.93e-06	6.9159e-06	818.27	196.65	6.8923e-06	6.9863e-06	322.87	145.77	81.616	31.099	7.0615e-06	64.155	234.924	157.253	128.946	83.963	296.687	224.877	84.040	89.672	231.613	224.863	88.510	93.670	95.780	100.167	310.924	97.818	-8191	255	
1289.518	1	1	0	0	0.48123	0.18833	0.33661	0.12416	0.29941	0.092817	0.24826	0.25193	0.020033	0.21121	0.073965	0.039887	0.24254	0.13806	0.086714	0.24974	-2.0417	-2.2458	-2.2938	-2.5604	-2.3854	-2.7188	-2.4167	-2.6979	-2.5646	-2.3875	-2.6542	-2.4896	-2.4021	-2.7042	-2.2729	-2.7104	198.042	335.379	302.626	99.885	412.226	86.773	154.357	334.659	322.443	357.530	191.513	103.865	412.524	91.869	380.333	355.863	0.00056108	0.00012524	0.00014585	576.86	4.4756e-06	4.8002e-06	837.5	200.72	3.4657e-06	1.6109e-06	330.28	149.09	82.153	31.076	6.5571e-06	65.129	0.00065139	0.0006455	0.00017722	564.18	6.9104e-06	6.9995e-06	815.43	197.17	7.0869e-06	6.9847e-06	322.82	145.87	81.553	31.07	7.2166e-06	63.936	229.884	213.409	174.729	83.918	234.334	209.296	84.368	89.888	233.362	257.781	88.054	93.921	95.552	99.836	161.062	97.686	-8191	255	
1289.637	1	1	0	0	0.12668	0.16306	0.016774	0.2622	0.14532	0.064758	0.15715	0.24771	0.07408	0.25473	0.3583	0.11581	0.0283	0.11335	0.15752	0.091422	-2.1604	-2.0896	-2.6625	-2.3812	-2.3104	-2.6583	-2.4042	-2.5271	-2.6229	-2.2333	-2.5312	-2.5833	-2.3667	-2.6479	-2.2833	-2.675	309.582	170.736	149.604	312.277	380.378	110.677	253.444	112.533	118.594	221.756	342.787	129.349	398.016	100.292	386.391	294.756	0.00055086	0.00051582	0.00016206	577.55	4.1869e-06	1.3405e-06	840.98	198.5	3.1584e-06	3.2755e-06	327.11	145.96	81.239	30.485	2.1192e-06	63.731	0.00066179	0.00065334	0.00017954	564.53	6.9005e-06	6.9423e-06	815.19	195.59	6.8272e-06	6.9254e-06	321.48	144.22	80.531	30.485	7.17e-06	62.792	229.874	130.445	155.930	84.119	291.708	279.032	84.223	89.897	259.470	245.405	88.268	93.995	95.835	99.961	250.370	97.780	-8191	255	
1289.709	1	1	0	0	0.20923	0.19978	0.3474	0.42253	0.19979	0.14574	0.28521	0.47202	0.29985	0.045079	0.068174	0.273	0.43082	0.19868	0.16854	0.13256	-2.0812	-2.15	-2.5042	-2.4125	-2.35	-2.5479	-2.4833	-2.2562	-2.5375	-2.3563	-2.7417	-2.6604	-2.4042	-2.7562	-2.45	-2.4521	88.662	380.089	264.390	412.551	386.497	126.722	355.017	392.474	186.807	119.761	218.321	372.799	386.279	376.559	101.657	382.117	0.00053001	0.00073357	0.00019892	571.01	4.3766e-06	6.9827e-06	834.91	195.87	2.9104e-06	6.0698e-06	320.04	141.02	77.786	28.985	3.609e-06	61.338	0.00063906	0.0006329	0.00017988	562.06	6.6996e-06	6.8112e-06	814.8	192.21	6.5549e-06	6.828e-06	314.79	138.97	76.852	28.97	6.5413e-06	60.394	229.944	165.810	150.051	83.796	205.082	188.372	83.961	89.813	231.056	255.981	88.453	93.787	95.420	100.184	241.871	97.875	-8191	255	
1289.805	1	1	0	0	0.2096	0.10547	0.082491	0.26396	0.13063	0.13071	0.22855	0.033308	0.065693	0.13517	0.38171	0.3132	0.14208	0.14782	0.18781	0.15298	-2.0833	-2.3917	-2.35	-2.7438	-2.3167	-2.5646	-2.4021	-2.5083	-2.4729	-2.2625	-2.5771	-2.6125	-2.2188	-2.6792	-2.3958	-2.3312	279.088	318.156	150.915	348.103	298.965	336.797	408.830	121.568	247.395	300.195	394.919	325.842	306.615	72.202	261.050	327.404	0.0005137	0.00018687	8.6618e-05	577.59	4.159e-06	5.2583e-06	835.39	193.12	3.493e-06	4.8691e-06	318.93	140.36	76.857	28.752	4.4021e-06	61.245	0.00059692	0.00059009	0.00016486	563.84	6.2964e-06	6.4207e-06	811.5	189.22	6.3286e-06	6.5354e-06	312.49	137.68	76.246	28.743	6.461e-06	60.122	228.572	155.459	128.521	83.769	209.476	221.555	84.100	89.879	250.404	240.735	88.243	93.612	95.966	100.338	225.398	97.725	-8191	255	
1289.901	1	1	0	0	0.27905	0.11399	0.096378	0.021436	0.21896	0.13341	0.13244	0.20302	0.14513	0.18136	0.31936	0.19241	0.23356	0.27053	0.20533	0.17394	-2.2812	-2.2979	-2.3312	-2.6437	-2.1083	-2.4875	-2.5854	-2.1333	-2.7854	-2.3875	-2.4604	-2.6333	-2.2146	-2.6083	-2.4562	-2.4375	386.162	200.364	246.801	340.757	279.528	365.509	91.549	384.511	72.792	188.131	375.085	376.075	96.514	152.595	223.927	84.855	0.00053984	0.00019752	0.0001617	573.72	4.0781e-06	4.1721e-06	829.05	194.42	7.263e-06	3.3343e-06	322.1	141.27	78.421	29.312	3.0373e-06	61.472	0.00060057	0.0005945	0.00016365	562.6	6.1861e-06	6.4715e-06	811.11	190.83	6.2327e-06	6.4102e-06	315.44	138.89	77.262	29.051	6.2712e-06	60.302	229.566	88.480	209.415	83.723	271.064	289.026	83.752	89.457	264.068	246.430	88.094	93.705	95.933	100.062	245.358	97.736	-8191	255	
1290.021	1	1	0	0	0.10983	0.10944	0.056391	0.12323	0.2051	0.11158	0.1545	0.14149	0.15802	0.27807	0.086664	0.3147	0.061254	0.12648	0.24322	0.24626	-2.2333	-2.1708	-2.3937	-2.6896	-2.1521	-2.6354	-2.775	-2.2812	-2.675	-2.5521	-2.2542	-2.8583	-2.1875	-2.6	-2.5625	-2.3021	218.980	348.742	73.538	81.943	278.265	222.250	305.125	332.531	392.208	345.146	79.543	85.135	323.287	391.261	384.868	307.571	0.00052164	0.00022464	0.00010192	572.92	1.2438e-06	5.4991e-06	834.82	194.72	4.3808e-06	6.1568e-06	318.39	140.12	77.705	28.921	4.619e-06	61.3	0.00058753	0.00060225	0.00016784	561.52	6.3299e-06	6.4075e-06	812.02	190.6	6.3659e-06	6.528e-06	313.14	137.53	76.624	28.964	6.4628e-06	60.234	230.960	175.940	164.385	83.869	398.689	239.086	83.675	89.715	265.529	241.564	88.463	93.574	95.642	100.021	206.636	98.026	-8191	255	
1290.118	1	1	0	0	0.076834	0.28456	0.16397	0.32141	0.15723	0.28147	0.12322	0.24833	0.13597	0.056323	0.086677	0.023667	0.10031	0.10116	0.11773	0.24653	-2.125	-2.4917	-2.3812	-2.8479	-2.2104	-2.5875	-2.8187	-2.3625	-2.5875	-2.3708	-2.3979	-2.5458	-2.3333	-2.4062	-2.5729	-2.3208	72.881	310.855	109.525	361.161	398.625	253.433	378.944	430.111	106.012	121.644	242.804	377.115	85.628	92.662	244.775	342.786	0.00055784	0.00082277	8.1877e-05	572.09	7.4239e-06	6.517e-06	834.55	193.23	2.3319e-06	1.7395e-06	319.97	140.65	78.076	29.116	4.3342e-06	61.244	0.00060149	0.0006036	0.00016578	561.11	6.4361e-06	6.5812e-06	811.45	190.53	6.2418e-06	6.5647e-06	313.2	138.32	76.845	29.184	6.2919e-06	60.273	231.785	210.986	262.971	83.888	255.553	217.693	83.764	89.886	247.715	280.035	88.731	93.794	95.772	100.434	225.097	97.947	-8191	255	
1290.214	1	1	0	0	0.11916	0.22889	0.20581	0.23052	0.055199	0.23764	0.1575	0.21278	0.13827	0.090414	0.024809	0.03969	0.41066	0.079522	0.20736	0.22112	-2.2021	-2.4688	-2.1729	-2.6833	-2.3229	-2.3667	-2.7396	-2.4229	-2.6083	-2.5958	-2.2188	-2.8542	-2.5417	-2.3708	-2.5708	-2.5229	150.682	250.266	256.731	407.127	425.581	247.862	367.759	276.295	105.643	400.865	292.526	268.572	428.328	177.646	307.942	363.855	0.00052327	0.00047306	6.4468e-05	569.89	3.321e-06	2.2971e-06	830.66	191.32	1.6676e-06	4.0242e-06	316.99	138.82	76.765	28.859	6.4843e-06	60.264	0.00060835	0.00059262	0.00016419	560.94	6.4533e-06	6.5916e-06	807.69	188.59	6.4467e-06	6.4867e-06	310.14	136.19	75.886	28.841	6.4604e-06	59.523	231.615	141.038	238.619	83.858	270.053	208.445	84.013	89.999	241.067	218.356	88.400	93.620	96.024	100.168	232.642	97.706	-8191	255	
1290.310	1	1	0	0	0.14133	0.29342	0.14697	0.17949	0.017387	0.24793	0.21196	0.070362	0.16178	0.16753	0.0042042	0.10296	0.19375	0.13671	0.11038	0.20124	-2.0042	-2.5729	-1.9896	-2.7854	-2.4479	-2.3958	-2.9521	-2.4354	-2.4188	-2.5854	-2.3312	-2.6958	-2.4667	-2.3104	-2.6188	-2.4333	409.296	295.531	108.407	376.893	329.282	381.548	424.359	376.711	195.207	220.402	290.967	75.768	273.659	143.577	300.185	137.324	0.0004849	0.00055374	9.487e-05	571.56	7.2638e-06	8.4983e-06	829.3	192.02	2.3438e-06	5.005e-06	315.41	137.75	76.214	28.631	4.9805e-06	60.187	0.00059362	0.00060115	0.00016503	559.21	6.4831e-06	6.5837e-06	804.88	188.57	6.4004e-06	6.3969e-06	308.71	135.62	75.611	28.716	6.3608e-06	59.333	227.606	185.790	119.512	83.918	223.757	221.626	83.981	89.811	185.338	233.298	88.638	93.990	95.846	100.635	211.469	97.779	-8191	255	
1290.406	1	1	0	0	0.078717	0.059868	0.18531	0.19118	0.16797	0.19976	0.12413	0.25575	0.2108	0.046015	0.063785	0.12843	0.20776	0.045188	0.22688	0.31473	-2.0812	-2.7625	-2.2604	-2.5958	-2.4083	-2.3479	-2.6958	-2.4292	-2.4208	-2.5646	-2.3312	-2.5833	-2.6937	-2.3833	-2.7333	-2.4042	168.445	100.082	171.697	110.020	373.481	397.426	292.150	406.586	148.281	98.836	430.061	211.369	421.436	229.854	258.952	87.535	0.00051243	0.00044749	0.0001154	568.26	5.8655e-06	5.9941e-06	825.56	191.28	2.4146e-06	3.4424e-06	312.96	137.94	76.585	29.013	1.3876e-06	60.73	0.00059834	0.00058601	0.00016057	558.52	6.4677e-06	6.549e-06	804.37	187.47	6.5529e-06	6.5235e-06	307.92	135.58	75.869	28.969	6.4974e-06	59.722	228.376	169.841	192.341	83.574	257.135	206.830	83.793	89.807	205.162	238.140	88.271	93.539	96.156	100.338	248.841	97.719	-8191	255	
1290.502	1	1	0	0	0.12991	0.080733	0.18038	0.31566	0.2013	0.29755	0.18579	0.11071	0.058643	0.15075	0.2652	0.17749	0.17485	0.13841	0.070792	0.16864	-2.1708	-2.5333	-2.2188	-2.5833	-2.7792	-2.2292	-2.8	-2.5563	-2.3208	-2.6458	-2.4229	-2.7062	-2.725	-2.1688	-2.5604	-2.3937	374.349	199.836	221.760	72.031	372.426	248.116	399.848	133.332	219.824	295.048	285.693	84.812	372.536	115.607	169.968	385.968	0.00054098	0.00070636	4.2009e-05	573.6	4.6793e-06	6.9365e-06	822	190.51	3.0452e-06	4.2309e-06	316.29	139.2	78.03	29.614	6.9372e-06	61.395	0.00062123	0.00061544	0.00017448	560.36	6.693e-06	6.8354e-06	803.22	188.36	6.6321e-06	6.8695e-06	310.09	137.43	77.162	29.607	6.9025e-06	60.508	225.643	168.215	184.637	83.679	219.263	243.109	83.872	89.810	239.055	262.967	88.820	93.706	95.742	100.195	206.496	97.933	-8191	255	
1290.623	1	1	0	0	0.28037	0.16959	0.0399	0.11744	0.13504	0.075183	0.16649	0.18781	0.16704	0.19915	0.1786	0.31001	0.17675	0.28528	0.17043	0.13067	-1.825	-2.7396	-2.2708	-2.6292	-2.5583	-2.1958	-2.8333	-2.5896	-2.2812	-2.65	-2.3812	-2.4417	-2.6271	-2.2958	-2.4583	-2.5062	146.730	365.136	182.493	316.193	310.550	131.581	413.494	345.423	120.033	311.773	286.502	395.305	376.174	388.565	372.718	303.196	0.00053882	0.00080717	0.00011336	564.96	1.8961e-06	2.8988e-06	823.19	192.63	4.4821e-06	5.7253e-06	317.58	140.08	78.178	29.864	5.767e-06	61.662	0.0006345	0.00063726	0.00017856	557.35	6.8019e-06	6.8276e-06	802.34	189.74	7.0275e-06	7.0698e-06	311.14	138.04	77.537	29.836	6.9621e-06	60.728	228.673	167.334	181.217	83.580	198.740	207.066	84.270	89.944	220.974	199.247	88.325	93.924	96.233	100.079	225.004	97.622	-8191	255	
1290.717	1	1	0	0	0.10716	0.18549	0.058206	0.26049	0.11042	0.1609	0.24589	0.25853	0.036486	0.13529	0.091157	0.30908	0.17567	0.22337	0.063281	0.10039	-1.8854	-2.7021	-2.5792	-2.625	-2.6583	-2.4208	-2.7396	-2.6312	-2.3625	-2.8708	-2.3396	-2.4979	-2.7042	-2.3396	-2.5125	-2.7625	124.097	407.531	100.655	406.022	293.920	279.523	359.461	382.134	354.829	168.003	375.525	98.931	92.982	399.256	216.248	282.437	0.00052077	0.00054492	0.00011303	569.16	6.0391e-06	3.9406e-06	826.21	194.23	3.3185e-06	2.6773e-06	317.62	142	80.132	30.325	3.1607e-06	62.603	0.00064129	0.00064768	0.00018203	558.08	7.0015e-06	7.1299e-06	806.88	190.66	7.0687e-06	7.1671e-06	312.5	139.77	79.06	30.318	7.2043e-06	61.698	229.427	160.528	178.196	83.843	228.713	234.617	83.776	89.884	236.732	248.849	88.479	93.599	95.706	99.932	220.249	97.692	-8191	255	
1290.813	1	1	0	0	0.31983	0.32901	0.25208	0.40295	0.1015	0.028284	0.02525	0.073269	0.14532	0.063553	0.16917	0.12492	0.14961	0.31953	0.17835	0.19011	-1.9042	-2.6292	-2.2438	-2.4479	-2.7604	-2.4271	-2.6396	-2.6354	-2.2521	-2.6521	-2.4375	-2.3125	-2.7583	-2.2104	-2.675	-2.6958	357.948	408.924	427.717	263.405	105.654	369.611	284.621	216.435	409.259	135.206	383.385	172.533	321.241	282.737	149.932	312.513	0.00055264	0.00072241	0.00010329	573.92	4.4772e-06	5.8878e-06	829.13	195.01	5.5937e-06	6.4179e-06	319.42	142.77	80.094	30.031	6.5061e-06	62.462	0.00065446	0.00066039	0.00018474	561.82	7.1732e-06	7.309e-06	807.68	192.03	7.0551e-06	7.1527e-06	315	140.34	79.146	30.164	7.2607e-06	61.478	229.284	162.517	203.680	84.101	249.351	232.462	84.123	89.930	285.483	266.222	88.510	93.611	95.671	100.088	235.979	97.892	-8191	255	
1290.934	1	1	0	0	0.21759	0.12553	0.10278	0.15369	0.17569	0.17262	0.28339	0.21442	0.12902	0.045794	0.23309	0.32672	0.1635	0.24838	0.088102	0.19356	-1.7958	-2.5312	-2.4729	-2.225	-2.7938	-2.5375	-2.5458	-2.7125	-2.3271	-2.6688	-2.5521	-2.3646	-2.7146	-2.2979	-2.275	-2.8646	194.505	300.533	335.226	93.875	169.710	358.765	340.758	406.434	232.715	248.160	297.262	411.324	345.316	100.885	166.807	133.091	0.00052517	0.00077115	0.0001459	569.76	6.2596e-06	5.1908e-06	828.21	193.44	2.4563e-06	3.2413e-06	317	139.38	77.279	29.173	5.327e-06	60.202	0.00065032	0.00065825	0.00018595	560.33	7.0269e-06	7.2626e-06	806.49	190.42	6.949e-06	7.1334e-06	310.62	136.84	76.791	29.228	7.0432e-06	59.287	228.870	145.808	212.075	84.033	251.715	251.862	84.070	89.848	212.167	159.580	88.592	93.744	95.967	100.308	233.854	97.787	-8191	255	
1291.006	1	1	0	0	0.049219	0.011898	0.097222	0.24193	0.21314	0.12846	0.35655	0.14744	0.35937	0.51081	0.17788	0.21931	0.13847	0.019673	0.25644	0.17974	-1.7563	-2.6708	-2.6604	-2.2417	-2.7333	-2.4042	-2.4208	-2.7958	-2.2938	-2.5521	-2.5875	-2.3563	-2.6625	-2.6083	-2.5354	-2.7354	387.467	235.889	271.382	379.726	251.758	168.719	377.538	361.220	151.093	122.299	425.519	348.087	92.179	179.077	210.780	347.383	0.00049388	0.0001536	8.0462e-05	570.99	4.131e-06	3.7712e-06	822.38	190.25	5.0793e-06	5.4291e-06	311.32	138.02	77.79	29.533	5.6727e-06	61.05	0.00062745	0.00063506	0.0001776	558.17	6.8718e-06	6.9007e-06	801.12	187.03	6.6585e-06	6.7411e-06	306.2	135.68	76.871	29.499	6.8956e-06	60.01	228.529	194.781	121.907	84.015	258.916	248.045	84.246	89.834	226.642	258.905	88.266	94.027	95.869	99.864	249.936	97.910	-8191	255	
1291.102	1	1	0	0	0.089817	0.092524	0.11363	0.21459	0.19493	0.19495	0.21484	0.15411	0.29922	0.10125	0.29972	0.10363	0.30733	0.27011	0.19887	0.17665	-1.9083	-2.4062	-2.6354	-2.4437	-2.6875	-2.6771	-2.3958	-2.8271	-2.2646	-2.4958	-2.5646	-2.2438	-2.6417	-2.4	-2.3292	-2.9542	111.986	355.837	314.769	422.920	272.002	284.322	383.342	414.218	155.895	90.325	72.979	284.115	398.459	327.686	371.007	280.063	0.00058091	0.00015857	0.00014745	565.03	2.04e-06	6.3653e-06	816.17	190.04	3.8657e-06	3.7664e-06	311.01	137.83	77.28	29.094	6.4947e-06	60.229	0.00063017	0.00063323	0.00017559	554.88	6.6902e-06	7.0643e-06	795.73	187.42	6.8966e-06	6.8473e-06	305.96	135.2	76.214	29.153	6.8692e-06	59.277	234.898	126.683	176.441	84.080	198.354	166.735	83.876	90.206	222.181	218.993	88.402	93.895	95.879	100.492	215.507	97.693	-8191	255	
1291.198	1	1	0	0	0.1259	0.018236	0.050644	0.081995	0.22452	0.085778	0.19995	0.14936	0.066008	0.25065	0.070478	0.14529	0.12371	0.12457	0.16912	0.34301	-1.9375	-2.425	-2.8021	-2.4104	-2.6771	-2.6937	-2.3333	-2.8312	-2.3375	-2.325	-2.8208	-2.4229	-2.5312	-2.5604	-2.2021	-2.8292	249.296	247.706	423.906	289.936	404.605	279.813	358.845	354.333	180.892	101.807	91.298	321.196	318.799	423.996	273.544	388.139	0.00053204	0.00076216	0.0001477	566.99	4.7411e-06	3.8257e-06	822.22	189.59	2.3951e-06	3.3017e-06	313.98	138.21	77.841	29.302	4.7985e-06	60.815	0.00063888	0.00062458	0.00017333	555.74	6.7905e-06	6.9327e-06	799.71	187.34	6.7236e-06	6.9395e-06	308.45	136.47	76.969	29.359	6.7705e-06	59.744	230.193	165.618	215.073	83.957	219.584	174.710	83.795	89.654	235.688	230.883	88.720	93.728	95.867	100.457	238.441	97.625	-8191	255	
1291.319	1	1	0	0	0.10886	0.1413	0.19921	0.13363	0.13887	0.20419	0.35862	0.10714	0.072066	0.11956	0.084072	0.12013	0.23102	0.21531	0.15744	0.10007	-2.0104	-2.2521	-2.6042	-2.2062	-2.5958	-2.5917	-2.1188	-2.5646	-2.575	-2.2854	-2.9083	-2.3458	-2.4896	-2.7292	-2.2583	-2.55	355.153	224.534	167.795	367.951	402.572	160.035	405.623	399.877	158.133	224.973	226.080	426.110	324.737	95.918	207.933	282.796	0.00056934	0.00062305	0.00010857	568.75	4.1938e-06	3.1412e-06	818.64	189.39	6.8215e-06	4.8277e-06	311.56	135.56	75.315	28.696	6.784e-06	59.416	0.00062034	0.0006229	0.00017015	555.7	6.693e-06	6.7053e-06	796.76	186.35	6.6758e-06	6.8112e-06	304.68	133.51	75.034	28.755	6.8971e-06	58.517	232.111	186.250	140.405	83.795	274.647	274.254	83.943	89.769	238.204	224.417	88.560	93.999	96.282	100.112	275.972	97.703	-8191	255	
1291.415	1	1	0	0	0.03719	0.38916	0.25252	0.24916	0.053313	0.3206	0.2742	0.13364	0.17189	0.29384	0.1313	0.19974	0.10178	0.11703	0.17029	0.24536	-2.1021	-2.3708	-2.7667	-2.2625	-2.4729	-2.6583	-2.3375	-2.7687	-2.475	-2.2917	-2.6167	-2.5104	-2.5167	-2.8792	-2.1542	-2.9083	366.251	73.351	142.536	213.692	420.186	402.783	340.918	259.129	188.190	425.811	381.633	391.803	329.655	136.043	395.225	79.670	0.0004991	0.00084091	0.00019101	566.71	4.491e-06	4.786e-06	819.58	188.55	3.8253e-06	3.2019e-06	308.79	136.23	76.843	28.879	8.2851e-06	60.141	0.00064237	0.00063722	0.00017537	554.76	6.7074e-06	6.9164e-06	797.38	186.03	6.7329e-06	6.8147e-06	303.68	134.17	75.746	28.978	6.5334e-06	59.316	229.790	154.883	159.955	83.804	253.859	247.478	83.772	89.787	284.585	295.716	88.714	94.080	95.735	100.624	216.891	97.809	-8191	255	
1291.509	1	1	0	0	0.076201	0.16175	0.1027	0.12141	0.099578	0.1418	0.054082	0.10356	0.11478	0.14787	0.42603	0.20934	0.11769	0.1111	0.15389	0.16876	-2.1479	-2.2604	-2.8042	-2.4708	-2.2979	-2.6792	-2.3688	-2.7542	-2.4875	-2.1063	-2.7229	-2.3854	-2.6125	-2.8083	-2.2771	-2.4271	181.398	107.551	153.307	360.953	114.454	415.718	91.756	272.342	183.085	238.870	78.321	191.582	413.248	287.474	85.124	373.306	0.00051255	0.0010088	0.00015546	566.22	6.2045e-06	4.6184e-06	817.34	189.15	1.5028e-06	6.2501e-06	312.15	137.09	77.215	28.93	6.33e-06	59.91	0.00061989	0.00060683	0.00016998	555.27	6.8152e-06	6.881e-06	796.58	186.85	6.7461e-06	6.9626e-06	305.68	134.93	76.055	28.994	6.8315e-06	59.147	232.062	151.397	128.133	83.703	217.646	302.512	84.037	90.026	266.854	247.500	88.509	93.792	95.838	100.264	216.826	97.607	-8191	255	
1291.583	1	1	0	0	0.052383	0.25027	0.19676	0.17324	0.25079	0.10226	0.10736	0.24306	0.14485	0.14852	0.18636	0.047123	0.21492	0.10959	0.084951	0.45437	-2.1312	-2.2354	-2.7417	-2.5396	-2.3312	-2.5458	-2.4229	-2.4104	-2.5479	-2.2562	-2.7042	-2.6729	-2.4062	-2.8125	-2.3438	-2.5292	290.523	123.355	148.672	425.351	273.533	303.452	126.792	346.501	422.171	213.110	384.916	295.146	414.127	337.972	194.723	400.419	0.00053729	0.00046427	9.4578e-05	567.23	9.5816e-06	3.427e-06	817.27	190.73	3.1785e-06	4.1934e-06	312.86	138.76	78.337	29.549	3.7835e-06	61.462	0.0006281	0.00062662	0.00017536	555.53	6.9101e-06	6.8982e-06	796.3	187.1	6.9029e-06	7.1155e-06	306.34	136.55	77.217	29.671	7.0013e-06	60.454	228.729	202.934	152.286	83.768	245.832	301.365	83.568	89.795	269.220	203.685	88.414	93.961	96.010	100.251	298.521	97.953	-8191	255	
1291.701	1	1	0	0	0.13164	0.10967	0.1922	0.3659	0.10182	0.24265	0.079089	0.18148	0.21983	0.24676	0.21013	0.18803	0.19604	0.53412	0.36487	0.18004	-2.1417	-2.2146	-2.6625	-2.6479	-2.3021	-2.8375	-2.6021	-2.3896	-2.6521	-2.2708	-2.6167	-2.6896	-2.2687	-2.7146	-2.6063	-2.3646	175.138	349.100	103.463	391.036	383.409	382.657	300.040	336.159	227.158	402.136	259.907	388.341	72.985	421.482	213.829	383.355	0.00051039	0.00050118	0.00020785	566.46	9.5538e-06	2.86e-06	817.16	192.51	7.4586e-06	2.3012e-06	316.07	141.54	79.647	30.097	6.1123e-06	62.357	0.00064219	0.00063495	0.00018029	555.06	6.9935e-06	7.0589e-06	798.17	190.01	6.969e-06	7.0713e-06	310.26	139.01	79.092	30.203	7.172e-06	61.394	233.192	139.209	167.257	83.571	239.954	203.688	84.249	89.974	232.611	288.639	88.456	93.783	95.761	99.975	241.230	98.006	-8191	255	
1291.798	1	1	0	0	0.20421	0.091441	0.20389	0.3226	0.067291	0.049307	0.46979	0.19483	0.10798	0.31137	0.13438	0.25001	0.15675	0.095973	0.1877	0.081998	-2.1854	-2.1729	-2.5396	-2.5958	-2.3229	-2.7938	-2.5729	-2.3854	-2.7354	-2.4354	-2.6417	-2.7333	-2.3771	-2.5625	-2.4062	-2.3479	365.031	277.255	207.772	126.523	345.268	247.100	397.821	414.224	309.415	321.950	131.591	408.492	345.474	332.229	429.166	95.986	0.0005169	0.00069272	0.00015194	568.56	5.413e-06	3.5655e-06	824.73	195.15	5.1921e-06	7.321e-06	319.74	144.36	82.046	31.074	3.7542e-06	63.53	0.00065602	0.00066901	0.0001914	556.67	7.3303e-06	7.4079e-06	799.46	192.45	7.0983e-06	7.4229e-06	314.79	142.22	81.535	31.133	7.2762e-06	62.704	228.251	138.555	168.180	83.857	253.900	322.635	83.873	90.019	261.457	251.471	88.839	93.726	96.076	100.049	302.441	97.470	-8191	255	
1291.894	1	1	0	0	0.067069	0.44978	0.029504	0.085338	0.09969	0.13379	0.087588	0.063032	0.18823	0.26218	0.19298	0.17008	0.20342	0.070027	0.10351	0.3096	-2.3312	-2.3229	-2.3	-2.675	-2.3208	-2.6021	-2.6104	-2.3604	-2.6729	-2.4104	-2.425	-2.6667	-2.3604	-2.7333	-2.5583	-2.3438	129.649	347.261	238.543	310.107	203.411	411.905	368.610	394.272	298.330	143.084	422.951	87.497	283.587	228.738	317.182	339.363	0.00050325	0.00068792	0.00022226	567.77	5.8768e-06	6.2421e-06	822.57	197.38	4.6983e-06	7.0228e-06	323.56	144.48	81.613	30.782	2.8998e-06	62.96	0.00066313	0.00067091	0.00018863	556.74	7.2678e-06	7.3447e-06	802.96	193.77	6.9845e-06	7.3125e-06	317.27	142.02	80.705	30.753	7.2349e-06	62.061	229.099	177.976	177.041	83.979	248.239	199.517	83.652	90.095	249.109	225.105	88.887	93.708	96.275	100.029	229.683	97.820	-8191	255	
1292.014	1	1	0	0	0.12757	0.21765	0.14085	0.10637	0.085026	0.19018	0.067209	0.19959	0.054139	0.34811	0.17379	0.20764	0.082269	0.20474	0.10772	0.1239	-2.1458	-2.2104	-2.5	-2.7854	-2.1354	-2.4458	-2.5333	-2.1937	-2.6333	-2.3292	-2.3146	-2.6458	-2.1646	-2.5938	-2.5125	-2.2125	314.569	227.676	422.486	121.157	245.234	331.901	72.768	430.182	305.544	382.565	289.275	114.348	329.448	267.025	111.193	199.737	0.0005858	0.00040394	0.00012864	569.64	6.0152e-06	6.2641e-06	826.24	194.71	3.3959e-06	5.9937e-06	317.97	142.5	79.854	29.986	3.1558e-06	61.757	0.00066636	0.00066828	0.00018636	557.76	7.0573e-06	7.2699e-06	804.64	191.8	6.8716e-06	7.2271e-06	312.81	139.7	78.95	30.087	7.0037e-06	60.841	228.552	143.513	193.784	84.113	234.711	208.031	83.975	90.001	210.125	312.500	88.705	93.798	95.774	100.233	240.125	98.016	-8191	255	
1292.111	1	1	0	0	0.2304	0.14109	0.14626	0.21983	0.15778	0.093824	0.45688	0.34793	0.15472	0.15586	0.45967	0.39067	0.13971	0.13142	0.35567	0.19242	-2.1208	-2.5208	-2.3688	-2.8187	-2.2875	-2.4917	-2.6937	-2.2833	-2.6708	-2.4688	-2.3354	-2.8	-2.3688	-2.5021	-2.7354	-2.4313	90.845	314.000	352.960	181.460	255.984	403.210	210.338	416.465	329.674	228.184	324.549	403.545	86.677	341.405	265.029	359.872	0.00055293	0.0006499	0.00018238	567.5	5.3337e-06	2.5755e-06	814.1	188.74	4.4782e-06	2.1516e-06	310.68	136	75.433	28.513	4.5991e-06	59.238	0.00063554	0.00064022	0.00017875	555.53	6.9754e-06	7.0139e-06	796.1	186.03	6.7468e-06	6.7719e-06	303.98	133.35	74.855	28.554	6.5135e-06	58.484	228.655	140.834	170.542	84.132	259.354	190.048	83.599	90.178	261.146	228.577	88.187	94.185	96.098	100.301	228.752	97.855	-8191	255	
1292.182	1	1	0	0	0.1441	0.2511	0.0888	0.10027	0.11104	0.29353	0.093355	0.25788	0.083164	0.10616	0.07558	0.39568	0.13763	0.21469	0.10489	0.29224	-2.275	-2.3417	-2.3771	-2.6104	-2.4396	-2.3708	-2.7771	-2.2771	-2.4208	-2.5125	-2.4188	-2.6896	-2.3458	-2.3333	-2.7188	-2.475	222.887	193.916	213.046	368.564	82.816	163.778	141.522	422.722	256.853	226.409	195.428	403.584	382.124	73.897	404.604	292.849	0.00046435	0.00078857	0.00010817	566.88	6.5966e-06	3.1821e-06	817.3	188.08	3.8062e-06	2.1146e-06	309.13	135.77	75.804	28.464	3.0905e-06	58.999	0.00062774	0.00062528	0.00017257	554.96	6.7309e-06	6.7588e-06	797.4	185.37	6.7491e-06	6.6449e-06	303.51	133.4	74.862	28.482	6.5687e-06	58.103	227.981	190.989	106.809	83.905	255.962	187.013	83.823	89.780	213.228	207.486	88.292	94.248	96.152	100.207	204.376	98.109	-8191	255	
1292.303	1	1	0	0	0.092936	0.14033	0.065037	0.25724	0.24963	0.087708	0.22602	0.037717	0.081257	0.14344	0.10061	0.24575	0.21757	0.1493	0.10774	0.23927	-2.1063	-2.5167	-2.0979	-2.5771	-2.3354	-2.5083	-2.7188	-2.3104	-2.375	-2.6396	-2.1625	-2.5021	-2.3312	-2.1896	-2.7125	-2.5604	363.478	105.667	337.795	383.400	255.582	233.604	365.963	227.151	93.179	235.960	357.558	302.102	274.371	199.009	306.415	313.693	0.00049043	0.00030249	0.00023516	566.28	3.9735e-06	3.2217e-06	815.27	186.79	5.0603e-06	3.8665e-06	306.1	133.23	74.283	27.921	4.1209e-06	58.902	0.0006114	0.00062152	0.00017312	554.34	6.734e-06	6.9021e-06	795.45	183.65	6.8055e-06	6.6777e-06	300.34	131.11	73.486	28.059	6.5765e-06	57.737	235.737	162.741	168.785	83.680	229.610	234.348	83.865	89.862	278.900	171.083	88.622	93.990	96.197	100.557	228.931	97.937	-8191	255	
1292.399	1	1	0	0	0.33664	0.11096	0.32169	0.19507	0.11422	0.11204	0.16155	0.25965	0.19627	0.049243	0.15498	0.022887	0.09947	0.087598	0.071521	0.16952	-2.0708	-2.5479	-2.0812	-2.5792	-2.5187	-2.2667	-2.7083	-2.3854	-2.2417	-2.7208	-2.4188	-2.6458	-2.5208	-2.4167	-2.9042	-2.5333	257.920	277.180	294.275	381.827	284.344	304.478	321.901	337.410	144.329	138.505	87.885	370.232	391.548	399.075	95.849	392.832	0.00047965	0.00054085	0.00014979	566.28	6.8381e-06	2.3323e-06	813.97	185.7	4.3739e-06	6.7676e-06	304.47	133.15	74.559	28.223	6.3018e-06	59.022	0.00061402	0.00061024	0.00017294	553.93	6.8818e-06	6.8467e-06	792.1	182.95	6.7609e-06	6.8189e-06	299.81	131.17	73.663	28.371	6.7211e-06	57.942	230.589	163.636	184.672	83.917	234.008	239.668	83.963	89.987	221.494	235.518	88.712	93.888	96.294	100.664	225.707	98.116	-8191	255	
1292.495	1	1	0	0	0.031695	0.1439	0.12088	0.062767	0.055134	0.091796	0.13022	0.17151	0.2955	0.084865	0.20736	0.26581	0.095995	0.24534	0.095104	0.27655	-1.8937	-2.7021	-2.1771	-2.6792	-2.6104	-2.15	-2.8937	-2.5563	-2.5458	-2.7208	-2.3812	-2.5875	-2.5563	-2.3354	-2.7792	-2.6688	149.762	146.921	326.349	310.083	272.775	283.141	115.510	294.970	270.550	268.778	166.296	380.077	217.093	76.142	306.042	430.443	0.00049044	0.00047749	0.00013319	566.95	4.7445e-06	4.7613e-06	810.33	186.71	2.6675e-06	4.7027e-06	305.1	134.02	74.427	28.333	1.4759e-06	58.863	0.00062118	0.00061669	0.0001728	552.72	6.6908e-06	7.1128e-06	791.19	183.48	6.8311e-06	6.7604e-06	300.25	132.11	74.082	28.361	6.7159e-06	57.844	227.285	199.061	164.939	83.748	268.954	107.944	83.858	90.274	206.790	287.063	88.599	93.989	96.513	100.450	207.246	98.147	-8191	255	
1292.614	1	1	0	0	0.14758	0.25345	0.13558	0.27339	0.11205	0.049779	0.29739	0.14457	0.057173	0.10202	0.31037	0.18311	0.26287	0.086394	0.09848	0.036217	-1.7167	-2.6771	-2.3312	-2.4354	-2.4417	-2.1312	-2.9021	-2.4604	-2.4875	-2.6771	-2.5083	-2.4813	-2.4292	-2.3354	-2.5875	-2.5896	241.808	220.129	74.790	193.971	211.700	292.240	134.470	336.685	413.972	289.929	294.310	173.314	403.808	428.598	377.195	273.932	0.00052506	0.00081542	7.9816e-05	565.71	5.4286e-06	3.2544e-06	813.85	186.55	4.1626e-06	3.8051e-06	307.93	135.16	75.003	28.501	4.049e-06	59.522	0.00062679	0.00061268	0.00017106	554.16	6.7291e-06	6.7352e-06	794.47	183.47	6.696e-06	6.6107e-06	302.14	132.56	74.53	28.585	6.7534e-06	58.7	233.082	185.716	129.878	83.917	235.854	200.725	83.738	89.959	247.377	227.584	88.495	94.232	95.816	100.519	322.007	98.223	-8191	255	
1292.710	1	1	0	0	0.18	0.16385	0.14004	0.16973	0.19253	0.12017	0.18113	0.12027	0.28984	0.14303	0.092725	0.11874	0.071466	0.25802	0.2255	0.14283	-1.7146	-2.4625	-2.4083	-2.4854	-2.6042	-2.225	-2.6875	-2.5125	-2.3187	-2.5333	-2.4854	-2.4604	-2.6604	-2.3354	-2.425	-2.6708	403.679	250.317	311.989	393.023	82.582	325.409	203.910	190.769	180.698	359.093	335.049	403.902	121.145	72.660	190.728	129.424	0.00058495	0.00064664	0.00019108	563.95	5.4804e-06	4.9606e-06	814.28	189.04	5.742e-06	6.8365e-06	309.98	136.13	76.986	28.965	4.7311e-06	60.111	0.00062875	0.00061191	0.0001764	553.99	6.8242e-06	6.9619e-06	794.54	185.67	6.9203e-06	6.9006e-06	304.02	134.17	75.694	28.992	6.8321e-06	59.131	228.930	176.965	168.713	84.021	221.082	239.692	83.907	90.124	265.146	200.564	88.176	94.134	95.960	100.463	250.942	97.990	-8191	255	
1292.806	1	1	0	0	0.14448	0.10547	0.23831	0.20222	0.2701	0.2849	0.25624	0.13074	0.22014	0.052408	0.22106	0.36258	0.24021	0.27251	0.39357	0.082762	-1.8542	-2.7833	-2.3958	-2.4521	-2.675	-2.075	-2.6312	-2.5792	-2.3417	-2.7979	-2.4083	-2.2958	-2.5542	-2.2646	-2.3667	-2.7208	334.904	234.838	354.852	387.053	122.431	232.718	105.927	307.757	251.079	264.968	356.867	354.649	76.945	82.932	145.776	397.959	0.00057057	0.00086931	0.00012704	566.03	1.3976e-06	7.3269e-06	817.47	189.07	3.6615e-06	3.955e-06	310.52	137.75	78.147	29.393	6.8122e-07	60.535	0.00063427	0.00062582	0.00017854	554.33	6.8356e-06	6.9431e-06	797.6	186.2	6.8387e-06	6.9696e-06	305.64	135.55	76.94	29.469	6.8768e-06	59.627	229.377	164.529	155.748	83.852	221.129	192.642	84.100	89.697	285.692	227.677	88.262	94.128	95.902	100.440	402.942	97.845	-8191	255	
1292.878	1	1	0	0	0.11461	0.051653	0.30745	0.11733	0.14726	0.20071	0.20937	0.1465	0.076336	0.14357	0.37221	0.18902	0.20202	0.26939	0.13468	0.20943	-1.6458	-2.5625	-2.3229	-2.4062	-2.6979	-2.3521	-2.6312	-2.7583	-2.2604	-2.5917	-2.4333	-2.3312	-2.6813	-2.3625	-2.5083	-2.7062	213.503	333.775	406.268	388.149	314.261	292.462	212.442	369.069	424.575	342.963	322.034	242.540	338.308	313.633	135.571	217.372	0.00053108	0.00075003	0.00020926	563.37	3.7156e-06	3.59e-06	819.15	190	5.9823e-06	4.0543e-06	311.08	138.74	77.795	29.548	7.4525e-06	60.936	0.00064623	0.0006567	0.00018452	553.13	6.9119e-06	7.1181e-06	794.69	186.99	6.9713e-06	7.187e-06	306.33	136.22	76.951	29.474	7.2566e-06	60.061	228.130	159.395	181.953	84.202	304.423	238.681	84.086	90.329	258.813	213.150	88.551	93.992	96.162	100.625	255.964	98.006	-8191	255	
1292.974	1	1	0	0	0.15245	0.27065	0.11504	0.18519	0.16034	0.1177	0.025523	0.22806	0.19194	0.20968	0.066756	0.098625	0.10816	0.13972	0.17609	0.161	-1.7208	-2.6167	-2.4083	-2.1771	-2.5833	-2.4708	-2.5312	-2.7396	-2.3458	-2.6708	-2.6792	-2.3667	-2.7083	-2.55	-2.3729	-2.8063	221.578	245.690	273.643	278.610	267.507	225.288	127.835	118.327	404.552	316.378	412.578	310.405	179.861	390.820	371.746	430.800	0.00051633	0.00059288	0.00010676	563.18	4.4596e-06	2.0913e-06	819.45	193.03	8.589e-07	2.456e-06	314.67	141.12	79.398	29.943	6.6145e-06	61.785	0.00066144	0.00066263	0.00018343	553.85	7.0106e-06	7.3452e-06	798.06	189.55	7.091e-06	7.243e-06	310.02	138.84	78.539	29.913	7.1527e-06	60.762	223.884	212.651	185.048	84.016	260.201	281.211	84.034	90.269	218.006	268.586	88.225	93.851	96.050	100.083	248.479	97.998	-8191	255	
1293.095	1	1	0	0	0.20473	0.016381	0.3424	0.13602	0.081333	0.2928	0.15245	0.1649	0.06372	0.34235	0.12656	0.23565	0.084926	0.14516	0.19429	0.16996	-1.8646	-2.4917	-2.4188	-2.1521	-2.4708	-2.4896	-2.3958	-2.5521	-2.2333	-2.4354	-2.6021	-2.15	-2.6437	-2.3292	-2.1667	-2.8708	89.220	119.991	354.684	186.577	327.396	230.672	331.050	147.141	413.021	367.334	80.179	283.841	161.509	400.132	155.842	107.142	0.00052563	0.0009448	0.00018084	566.13	3.9714e-06	4.8014e-06	823.27	190.54	4.6052e-06	3.3783e-06	313.91	138.8	77.617	29.229	2.857e-06	60.337	0.00064995	0.00065525	0.00018096	555.87	7.2451e-06	7.3838e-06	799.47	188.34	7.1196e-06	7.3476e-06	307.93	136.36	76.657	29.212	7.1192e-06	59.274	224.081	175.714	172.237	83.463	252.746	222.545	83.986	90.313	276.640	177.928	88.564	93.981	96.049	100.593	264.422	97.888	-8191	255	
1293.191	1	1	0	0	0.059189	0.26883	0.22045	0.3693	0.072854	0.21547	0.13704	0.33352	0.16253	0.12238	0.24909	0.3667	0.23246	0.13819	0.23037	0.20596	-1.8	-2.4708	-2.4083	-2.2979	-2.6083	-2.5042	-2.3292	-2.8417	-2.4042	-2.3125	-2.6813	-2.2771	-2.6833	-2.4938	-2.0896	-2.7396	222.556	328.029	348.775	366.500	163.664	215.143	398.519	363.015	390.137	181.389	394.573	74.694	330.335	427.948	155.157	420.961	0.00053295	0.00033928	0.00010307	567.77	5.262e-06	5.4234e-06	814.9	187.47	6.499e-06	4.2625e-06	307.13	133.77	74.452	27.963	5.1786e-06	58.355	0.00063838	0.00064191	0.00017489	554.62	6.8438e-06	7.0695e-06	793.41	184.49	6.7392e-06	6.904e-06	301.75	131.83	73.813	27.967	6.6901e-06	57.623	227.919	159.644	127.740	83.913	223.119	205.475	84.140	90.141	265.304	251.820	88.526	94.015	95.858	100.750	202.224	98.128	-8191	255	
1293.287	1	1	0	0	0.12744	0.26831	0.26484	0.19333	0.29741	0.26777	0.1436	0.12046	0.30255	0.076874	0.21441	0.18717	0.032625	0.037286	0.306	0.035922	-1.9708	-2.2833	-2.6458	-2.2125	-2.4521	-2.4375	-2.2479	-2.5792	-2.4021	-2.2229	-2.6729	-2.4729	-2.475	-2.6292	-2.2375	-2.6188	419.458	329.008	368.639	406.195	250.297	242.746	396.146	135.827	110.048	141.092	403.390	330.259	219.237	387.607	359.040	222.018	0.00054138	0.00047269	0.00012924	564.13	4.4067e-06	3.3807e-06	818.13	186.43	4.6983e-06	4.766e-06	306.72	134.08	74.006	28.057	4.3576e-06	58.639	0.000628	0.00063452	0.00017346	553.75	6.6304e-06	6.9771e-06	794.48	183.32	6.9385e-06	6.9415e-06	300.15	131.49	73.471	27.974	6.8795e-06	57.73	227.327	166.107	162.636	83.997	219.872	229.863	84.042	90.061	299.577	227.890	88.464	94.011	96.486	100.353	238.887	97.940	-8191	255	
1293.406	1	1	0	0	0.1016	0.32196	0.10172	0.12989	0.26804	0.12446	0.42052	0.064566	0.11253	0.085549	0.22871	0.13233	0.31052	0.31424	0.11685	0.11557	-2.0854	-2.1583	-2.6854	-2.1792	-2.4313	-2.625	-2.3708	-2.7458	-2.5521	-2.3229	-2.7354	-2.2292	-2.4396	-2.6229	-2.0583	-2.7271	288.419	376.908	132.888	109.571	131.536	197.714	366.075	259.327	260.848	227.362	196.428	297.897	346.004	422.949	158.413	288.987	0.00050084	0.00033586	0.00015568	564.01	5.0327e-06	7.7563e-06	812.37	187.29	5.4937e-06	3.623e-06	309.23	134.66	75.583	28.415	7.1446e-06	59.684	0.0006413	0.0006351	0.00017477	552.78	6.7853e-06	6.9485e-06	793.13	184.05	6.678e-06	6.859e-06	303.11	132.76	74.515	28.425	6.7733e-06	58.548	231.267	156.113	120.582	84.139	287.720	196.530	84.197	90.093	239.185	127.640	88.408	93.901	96.083	100.559	256.746	97.869	-8191	255	
1293.479	1	1	0	0	0.046586	0.047491	0.19457	0.32629	0.10982	0.15453	0.21043	0.11477	0.11737	0.22956	0.19869	0.25346	0.22582	0.24775	0.16831	0.044087	-2.0187	-2.3708	-2.5229	-2.3854	-2.2812	-2.6104	-2.4229	-2.6083	-2.6437	-2.1917	-2.8021	-2.5958	-2.4479	-2.65	-2.0458	-2.7271	237.111	150.776	357.315	407.138	286.172	240.806	408.273	157.322	283.858	261.810	360.182	126.212	292.993	109.028	393.666	209.060	0.00055032	0.00029829	0.0001064	564.96	6.5134e-06	3.0801e-06	814.72	186.14	4.0704e-06	3.185e-06	305.94	135	75.347	28.353	4.5664e-06	59.019	0.00063534	0.00062855	0.00017425	553.08	6.845e-06	6.8302e-06	791.73	183.48	6.8478e-06	6.8166e-06	300.77	132.41	74.381	28.292	6.8335e-06	58.157	225.697	420.784	209.135	83.923	227.605	233.942	84.227	89.969	254.561	186.291	88.548	94.458	95.830	100.527	238.442	97.989	-8191	255	
1293.576	1	1	0	0	0.17037	0.11827	0.16621	0.12496	0.058751	0.20735	0.046597	0.1548	0.085602	0.1102	0.21036	0.23388	0.31517	0.072867	0.10446	0.10262	-1.9896	-2.1646	-2.5542	-2.5667	-2.3208	-2.6125	-2.2979	-2.3708	-2.5417	-2.1937	-2.7667	-2.4542	-2.3063	-2.7375	-2.1625	-2.3125	91.053	375.799	128.649	190.835	132.270	358.247	87.275	326.355	167.599	252.413	90.909	359.826	125.502	275.553	235.358	351.390	0.00048886	0.00075807	0.00019379	563.78	9.8716e-07	4.9129e-06	811.45	185.88	5.0361e-06	8.5132e-06	305.01	134.25	74.338	28.307	5.5121e-06	59.048	0.00062238	0.00062533	0.0001736	550.92	6.8324e-06	6.9012e-06	789.21	182.47	6.867e-06	6.8076e-06	300.1	131.85	73.74	28.296	6.9256e-06	58.315	228.633	170.631	184.231	84.145	280.895	204.225	84.074	90.078	238.047	210.805	88.878	94.031	96.193	100.284	241.552	98.062	-8191	255	
1293.694	1	1	0	0	0.25004	0.062127	0.16323	0.068856	0.20091	0.11141	0.249	0.058987	0.11191	0.16246	0.080425	0.22672	0.34271	0.10891	0.16098	0.28274	-2.0479	-2.2687	-2.4604	-2.5917	-2.075	-2.5187	-2.4646	-2.4042	-2.6604	-2.3479	-2.375	-2.5771	-2.1688	-2.7104	-2.3708	-2.3563	399.238	338.395	418.583	280.432	303.323	185.102	375.086	108.341	135.273	280.855	398.208	396.906	415.542	428.451	350.178	193.813	0.00052661	0.00049224	0.00022697	559.52	5.2003e-06	1.879e-06	811.1	188.21	4.8341e-06	3.1056e-06	307.29	136.32	76.429	29.039	3.1575e-06	60.692	0.00062467	0.00063779	0.00017863	549.76	6.7674e-06	6.7616e-06	789.64	183.92	6.807e-06	6.9203e-06	302.32	134.34	75.569	29.076	6.9256e-06	59.869	227.961	174.847	141.204	83.975	281.986	297.165	84.217	89.954	244.473	153.225	88.566	94.031	96.174	100.270	288.345	97.846	-8191	255	
1293.791	1	1	0	0	0.10116	0.10484	0.21108	0.16391	0.25854	0.14793	0.23714	0.11964	0.2646	0.1559	0.28586	0.16634	0.30017	0.30924	0.23641	0.17089	-2.1333	-2.225	-2.4313	-2.6104	-2.2542	-2.8229	-2.5563	-2.2896	-2.6167	-1.9271	-2.7375	-2.4688	-2.1354	-2.8187	-2.7167	-2.5333	221.182	279.703	149.409	363.082	274.764	403.559	419.704	114.835	216.625	394.146	298.641	185.351	106.618	382.765	132.645	429.220	0.00058624	0.00067855	0.00012913	564.74	5.5145e-06	2.6802e-06	809.61	188.99	3.1437e-06	1.6054e-06	310.66	138.81	77.211	29.56	5.3072e-06	61.479	0.00063724	0.0006481	0.00018051	550.92	6.8156e-06	6.9568e-06	790.38	185.54	6.9583e-06	7.1081e-06	305.05	136.32	76.804	29.53	6.9472e-06	60.452	229.902	172.116	140.874	84.024	234.274	179.724	84.094	89.967	227.511	286.913	88.392	94.081	95.964	100.370	239.173	97.854	-8191	255	
#DATA ENDS
