BOXY.EXE: ISS Imagent and Oximeter Data Acquisition Program Version 0.80
Ascii Record File

#ACQ INFORMATION
2  Detector Channels 
16  External MUX Channels 
1  Auxiliary Channels 
5000  Waveform (CCF) Frequency (Hz)
1  Waveforms Skipped 
30  Waveforms Averaged 
1  Cycles Averaged 
16  Acquisitions per Waveform 
10.0806  Updata Rate (Hz) 

#FILE INFORMATION
TRUE -- External MUX Channel results are PARSED.
FALSE -- AC DC and Phase are NOT grouped.
TRUE -- Companion Program Settings File CREATED.
FALSE -- AC data not excluded
FALSE -- DC data not excluded
FALSE -- Phase data not excluded
FALSE -- Auxillary Chn. data not excluded
Tab delimiters

#CALIBRATION STATE
TRUE -- Waveform Calibration Values APPLIED.


#AUX CALIBRATION VALUES
Val Type	aux-1	

Term	1.0000e+00	
Factor	0.0000e+00	


#WF CALIBRATION VALUES
A = Detector Channel
Val Type	A-AC1	A-AC2	A-AC3	A-AC4	A-AC5	A-AC6	A-AC7	A-AC8	A-AC9	A-AC10	A-AC11	A-AC12	A-AC13	A-AC14	A-AC15	A-AC16	A-DC1	A-DC2	A-DC3	A-DC4	A-DC5	A-DC6	A-DC7	A-DC8	A-DC9	A-DC10	A-DC11	A-DC12	A-DC13	A-DC14	A-DC15	A-DC16	A-Ph1	A-Ph2	A-Ph3	A-Ph4	A-Ph5	A-Ph6	A-Ph7	A-Ph8	A-Ph9	A-Ph10	A-Ph11	A-Ph12	A-Ph13	A-Ph14	A-Ph15	A-Ph16	

Term	0.00000e+00	0.00000e+00	0.00000e+00	0.00000e+00	0.00000e+00	0.00000e+00	0.00000e+00	0.00000e+00	0.00000e+00	0.00000e+00	0.00000e+00	0.00000e+00	0.00000e+00	0.00000e+00	0.00000e+00	0.00000e+00	0.00000e+00	0.00000e+00	0.00000e+00	0.00000e+00	0.00000e+00	0.00000e+00	0.00000e+00	0.00000e+00	0.00000e+00	0.00000e+00	0.00000e+00	0.00000e+00	0.00000e+00	0.00000e+00	0.00000e+00	0.00000e+00	0.00000e+00	0.00000e+00	0.00000e+00	0.00000e+00	0.00000e+00	0.00000e+00	0.00000e+00	0.00000e+00	0.00000e+00	0.00000e+00	0.00000e+00	0.00000e+00	0.00000e+00	0.00000e+00	0.00000e+00	0.00000e+00	
Factor	1.00000e+00	1.00000e+00	1.00000e+00	1.00000e+00	1.00000e+00	1.00000e+00	1.00000e+00	1.00000e+00	1.00000e+00	1.00000e+00	1.00000e+00	1.00000e+00	1.00000e+00	1.00000e+00	1.00000e+00	1.00000e+00	1.00000e+00	1.00000e+00	1.00000e+00	1.00000e+00	1.00000e+00	1.00000e+00	1.00000e+00	1.00000e+00	1.00000e+00	1.00000e+00	1.00000e+00	1.00000e+00	1.00000e+00	1.00000e+00	1.00000e+00	1.00000e+00	X	X	X	X	X	X	X	X	X	X	X	X	X	X	X	X	

B = Detector Channel
Val Type	B-AC1	B-AC2	B-AC3	B-AC4	B-AC5	B-AC6	B-AC7	B-AC8	B-AC9	B-AC10	B-AC11	B-AC12	B-AC13	B-AC14	B-AC15	B-AC16	B-DC1	B-DC2	B-DC3	B-DC4	B-DC5	B-DC6	B-DC7	B-DC8	B-DC9	B-DC10	B-DC11	B-DC12	B-DC13	B-DC14	B-DC15	B-DC16	B-Ph1	B-Ph2	B-Ph3	B-Ph4	B-Ph5	B-Ph6	B-Ph7	B-Ph8	B-Ph9	B-Ph10	B-Ph11	B-Ph12	B-Ph13	B-Ph14	B-Ph15	B-Ph16	

Term	0.00000e+00	0.00000e+00	0.00000e+00	0.00000e+00	0.00000e+00	0.00000e+00	0.00000e+00	0.00000e+00	0.00000e+00	0.00000e+00	0.00000e+00	0.00000e+00	0.00000e+00	0.00000e+00	0.00000e+00	0.00000e+00	0.00000e+00	0.00000e+00	0.00000e+00	0.00000e+00	0.00000e+00	0.00000e+00	0.00000e+00	0.00000e+00	0.00000e+00	0.00000e+00	0.00000e+00	0.00000e+00	0.00000e+00	0.00000e+00	0.00000e+00	0.00000e+00	-6.59245e+01	-1.24734e+02	-1.31290e+02	-1.83070e+02	-4.71720e+01	-6.49150e+01	-1.56663e+02	-1.62015e+02	-3.94459e+01	-6.42214e+01	-1.71114e+02	-1.71480e+02	-1.80686e+02	-1.76770e+02	-5.03157e+01	-1.49850e+02	
Factor	1.94318e-05	1.90944e-04	4.49887e-05	1.63081e-01	1.59961e-06	1.69595e-06	1.94177e-01	5.42487e-02	1.28390e-06	1.65075e-06	1.08414e-01	3.13847e-02	2.95052e-02	9.61121e-03	1.53840e-06	1.41149e-02	5.54059e-06	6.76180e-06	1.88700e-06	8.26207e-02	7.18682e-08	7.45135e-08	9.21061e-02	2.75920e-02	7.18242e-08	7.41166e-08	5.30887e-02	1.54427e-02	1.51454e-02	4.92050e-03	7.23774e-08	6.95805e-03	X	X	X	X	X	X	X	X	X	X	X	X	X	X	X	X	



#DISTANCE SETTINGS
A = Detector Channel
A-1	A-2	A-3	A-4	A-5	A-6	A-7	A-8	A-9	A-10	A-11	A-12	A-13	A-14	A-15	A-16	

2.5000e+00	3.0000e+00	2.5000e+00	3.0000e+00	2.0000e+00	3.0000e+00	1.5000e+00	3.0000e+00	3.0000e+00	3.0000e+00	3.0000e+00	3.0000e+00	3.0000e+00	3.0000e+00	1.5000e+00	3.0000e+00	

B = Detector Channel
B-1	B-2	B-3	B-4	B-5	B-6	B-7	B-8	B-9	B-10	B-11	B-12	B-13	B-14	B-15	B-16	

1.0000e+01	1.0000e+01	1.0000e+01	1.4400e+00	1.0000e+01	1.0000e+01	1.5100e+00	1.9400e+00	1.0000e+01	1.0000e+01	1.9900e+00	2.4900e+00	2.4100e+00	2.9000e+00	1.0000e+01	2.9800e+00	




#DATA BEGINS
time	group	step	mark	flag	A-AC1	A-AC2	A-AC3	A-AC4	A-AC5	A-AC6	A-AC7	A-AC8	A-AC9	A-AC10	A-AC11	A-AC12	A-AC13	A-AC14	A-AC15	A-AC16	A-DC1	A-DC2	A-DC3	A-DC4	A-DC5	A-DC6	A-DC7	A-DC8	A-DC9	A-DC10	A-DC11	A-DC12	A-DC13	A-DC14	A-DC15	A-DC16	A-Ph1	A-Ph2	A-Ph3	A-Ph4	A-Ph5	A-Ph6	A-Ph7	A-Ph8	A-Ph9	A-Ph10	A-Ph11	A-Ph12	A-Ph13	A-Ph14	A-Ph15	A-Ph16	B-AC1	B-AC2	B-AC3	B-AC4	B-AC5	B-AC6	B-AC7	B-AC8	B-AC9	B-AC10	B-AC11	B-AC12	B-AC13	B-AC14	B-AC15	B-AC16	B-DC1	B-DC2	B-DC3	B-DC4	B-DC5	B-DC6	B-DC7	B-DC8	B-DC9	B-DC10	B-DC11	B-DC12	B-DC13	B-DC14	B-DC15	B-DC16	B-Ph1	B-Ph2	B-Ph3	B-Ph4	B-Ph5	B-Ph6	B-Ph7	B-Ph8	B-Ph9	B-Ph10	B-Ph11	B-Ph12	B-Ph13	B-Ph14	B-Ph15	B-Ph16	aux-1	digaux	

1577.684	1	1	0	512	0.063457	0.15515	0.10998	0.37029	0.14061	0.1393	0.37194	0.24873	0.091614	0.26132	0.19086	0.13263	0.39809	0.24694	0.096518	0.1695	-1.7563	-2.2646	-2.2021	-1.9688	-2.5354	-2.2917	-2.1375	-2.5312	-2.3396	-2.3187	-2.3792	-2.2438	-2.2792	-2.3271	-1.9062	-2.5563	47.341	13.753	224.650	305.103	157.383	47.870	268.186	303.662	84.120	5.582	175.424	291.917	273.969	210.604	134.352	212.869	0.00011397	0.00041005	0.00014766	430.11	4.2388e-06	4.7505e-06	1085.1	157.05	1.433e-06	4.4063e-06	364.2	152.42	57.616	12.933	3.297e-06	36.58	0.00018493	0.00016678	4.583e-05	395.87	1.8085e-06	1.8077e-06	1000	145.82	1.8884e-06	1.8341e-06	336.96	142.24	53.881	12.26	1.8878e-06	34.209	203.647	82.215	39.572	-26.945	126.362	119.419	-26.884	-24.886	191.554	112.332	-25.779	-24.411	-22.919	-21.432	98.180	-22.777	-8191	255	
1577.780	1	1	0	0	0.32871	0.12244	0.12005	0.24608	0.12394	0.11755	0.29353	0.36855	0.06594	0.088576	0.20752	0.063437	0.16193	0.1732	0.13614	0.12686	-1.8167	-2.25	-2.5667	-2.1312	-2.4188	-2.4083	-2.0521	-2.4021	-2.3604	-2.0625	-2.5812	-2.2104	-2.1562	-2.4062	-2.0354	-2.4938	130.531	195.457	279.829	270.647	-41.261	172.947	230.110	222.857	84.314	-6.128	299.181	236.381	275.221	149.823	189.893	-27.646	9.5536e-05	0.00063261	0.00010743	424.25	3.3033e-06	3.8219e-06	1082	155.37	1.0394e-06	2.4976e-06	360.58	152.18	57.384	13.103	1.6555e-06	36.408	0.00017563	0.00016685	4.7938e-05	392.18	1.7615e-06	1.7967e-06	998.06	144.83	1.9229e-06	1.8262e-06	334.05	141.72	53.912	12.279	1.8921e-06	34.12	206.021	31.377	49.014	-26.566	114.365	112.613	-27.236	-24.393	118.214	133.118	-25.844	-24.147	-23.104	-22.016	133.593	-22.633	-8191	255	
1577.874	1	1	0	0	0.13694	0.051507	0.17323	0.23693	0.35318	0.20527	0.18297	0.068117	0.35093	0.35231	0.27709	0.247	0.22208	0.14938	0.047085	0.19467	-1.8	-2.1208	-2.5312	-2.0125	-2.3708	-2.6271	-2.0667	-2.6771	-2.3208	-2.2812	-2.5208	-2.1917	-2.1208	-2.4688	-1.8979	-2.6604	24.097	48.059	310.864	-27.742	-0.853	280.342	273.968	125.835	279.361	115.388	262.436	-16.411	-14.585	134.681	-4.870	221.721	0.00010149	0.00031805	4.9812e-05	424.95	3.3413e-06	4.8957e-06	1075.2	155.83	2.6677e-06	4.0291e-06	362.1	150.58	57.089	12.908	4.4166e-06	36.486	0.00017224	0.00016337	4.6365e-05	392.55	1.871e-06	1.847e-06	993.1	144.62	1.8275e-06	1.8509e-06	334.96	140.63	53.573	12.198	1.855e-06	33.933	206.677	55.471	19.783	-26.884	149.004	127.061	-27.359	-24.298	143.560	88.637	-25.666	-24.374	-23.121	-22.250	118.473	-23.119	-8191	255	
1577.972	1	1	0	0	0.14413	0.063585	0.25913	0.25747	0.022873	0.042481	0.25024	0.106	0.20999	0.2367	0.024301	0.12836	0.36813	0.050634	0.12401	0.3082	-1.8396	-2.0354	-2.5625	-2.1771	-2.2812	-2.4062	-2.175	-2.3958	-2.5417	-2.2083	-2.5271	-2.2521	-2.0646	-2.525	-2.0021	-2.3479	-7.378	70.803	296.713	-28.975	239.904	305.857	275.559	267.875	-7.864	178.167	245.467	261.375	112.142	262.120	32.852	277.645	0.0001013	0.00034337	0.00011484	422.68	3.7474e-06	4.8599e-06	1076.8	155.57	2.3768e-06	6.3554e-06	359.96	151.15	57.062	12.862	4.0464e-06	36.089	0.00017636	0.00016971	4.813e-05	391.5	1.8472e-06	1.8392e-06	992.24	144.23	1.8134e-06	1.8097e-06	333.42	140.74	53.34	12.136	1.8174e-06	33.783	205.942	44.056	8.192	-26.988	121.632	71.726	-27.281	-24.536	153.415	86.860	-26.127	-24.487	-23.036	-21.824	121.955	-22.968	-8191	255	
1578.091	1	1	0	0	0.10159	0.33508	0.157	0.17431	0.07634	0.09458	0.21624	0.21326	0.25414	0.27667	0.35216	0.17002	0.16163	0.18273	0.21696	0.065498	-1.7792	-1.8188	-2.4437	-2.2792	-2.3104	-2.5771	-2.2917	-2.3063	-2.3708	-2.1021	-2.6042	-2.4562	-2.0104	-2.3833	-2.1021	-2.375	51.611	-10.515	168.531	-15.607	157.000	131.330	45.459	312.691	92.369	164.369	213.638	177.421	150.731	242.879	81.990	3.999	8.9257e-05	0.00035316	0.00010213	421.99	4.0349e-06	3.4603e-06	1078.8	153.89	2.6111e-06	3.6897e-06	361.18	151.61	56.21	13.062	4.0654e-06	36.264	0.00017451	0.00016276	4.6196e-05	390.59	1.7879e-06	1.7431e-06	991.44	143.43	1.8188e-06	1.8938e-06	333.6	140.88	53.135	12.19	1.8025e-06	33.759	227.367	106.301	29.074	-27.217	144.408	83.232	-27.375	-24.723	179.562	119.716	-25.877	-24.503	-22.998	-22.117	105.065	-23.012	-8191	255	
1578.163	1	1	0	0	0.18701	0.1445	0.065119	0.02959	0.20983	0.20643	0.070644	0.19413	0.22266	0.045491	0.082332	0.1296	0.14789	0.070755	0.11064	0.14393	-1.9083	-2.025	-2.3438	-2.3625	-1.9562	-2.4208	-2.3563	-2.3271	-2.5375	-1.9625	-2.4708	-2.4562	-2.0104	-2.2938	-2.0604	-2.2958	294.488	50.798	-4.185	23.568	48.777	77.760	211.309	178.306	171.559	121.320	118.901	160.993	42.562	92.601	12.793	123.520	0.00010651	0.00017369	8.6772e-05	424.61	3.0628e-06	3.3431e-06	1074.7	152.42	2.4307e-06	3.0698e-06	356.04	151.13	56.802	12.728	1.5651e-06	36.135	0.00016786	0.00015859	4.3869e-05	392.32	1.6928e-06	1.6252e-06	991.87	141.99	1.7543e-06	1.757e-06	329.22	141.17	53.251	11.969	1.722e-06	33.818	214.645	52.992	38.511	-26.684	158.011	127.990	-27.257	-24.600	119.271	89.146	-25.841	-24.380	-22.996	-21.659	90.366	-23.187	-8191	255	
1578.283	1	1	0	0	0.11809	0.26666	0.22223	0.1769	0.097879	0.16239	0.40929	0.32467	0.19776	0.14407	0.068033	0.087078	0.15221	0.23119	0.14985	0.11298	-1.8979	-1.8604	-2.3229	-2.3458	-1.9771	-2.3667	-2.25	-2.0875	-2.5458	-2.125	-2.5958	-2.4958	-2.0521	-2.5	-2.3125	-2.2875	297.313	170.220	218.646	40.923	241.481	217.106	231.687	300.861	169.381	135.240	43.810	-25.974	311.326	277.008	-1.361	241.437	7.0141e-05	0.00039947	7.8479e-05	428.43	3.611e-06	2.5003e-06	1074.8	152.53	1.2392e-06	3.371e-06	354.93	151.92	56.574	12.737	2.224e-06	36.21	0.0001628	0.00015901	4.3892e-05	394.04	1.6901e-06	1.6991e-06	993.15	141.52	1.6753e-06	1.7068e-06	327.7	141.93	53.385	11.836	1.6841e-06	33.773	215.661	70.838	72.069	-26.313	122.820	116.860	-27.038	-24.398	145.664	89.017	-25.956	-24.312	-22.946	-21.190	116.133	-23.237	-8191	255	
1578.380	1	1	0	0	0.12966	0.30437	0.12765	0.12004	0.068282	0.098839	0.25707	0.15526	0.0536	0.095869	0.12605	0.16586	0.26014	0.23722	0.17449	0.24138	-2.0438	-2.0687	-2.3292	-2.5208	-2.0271	-2.5375	-2.4083	-2.0875	-2.4625	-2.0771	-2.0938	-2.3875	-1.9854	-2.4417	-2.2521	-2.2104	138.568	31.583	135.048	61.866	186.189	316.659	-31.593	289.071	7.320	112.862	314.260	257.029	105.941	315.973	249.206	303.749	0.00012053	0.00034757	9.539e-05	425.85	2.9338e-06	5.312e-06	1077.9	152.12	3.4908e-06	4.8921e-06	353.15	152.86	57.009	12.652	1.7465e-06	36.171	0.00016787	0.00015321	4.3668e-05	394	1.7156e-06	1.6868e-06	992.37	141.76	1.7467e-06	1.6871e-06	328.58	142.06	53.422	11.819	1.7726e-06	33.635	196.356	59.829	43.353	-27.144	142.095	105.616	-27.389	-24.639	93.131	112.484	-25.650	-24.495	-22.922	-21.378	167.029	-22.956	-8191	255	
1578.476	1	1	0	0	0.16788	0.24216	0.14121	0.21663	0.2552	0.19614	0.32117	0.19736	0.19162	0.24918	0.15101	0.15535	0.21313	0.037392	0.073583	0.075669	-1.8604	-2.1792	-2.4083	-2.4292	-2.1125	-2.4604	-2.5167	-2.1979	-2.4229	-2.1708	-2.1625	-2.5875	-1.9542	-2.4979	-2.2208	-2.0708	201.148	95.036	15.988	148.275	-41.610	261.114	254.649	306.600	282.487	233.966	301.121	-29.201	-0.266	49.731	-7.545	40.769	0.00011425	0.00041699	0.00011306	424.77	2.2993e-06	1.2099e-06	1079.4	151.93	2.2968e-06	1.6781e-06	354.24	152	56.474	12.634	4.813e-06	35.9	0.00016271	0.00016723	4.2878e-05	393.14	1.7636e-06	1.7716e-06	993.94	141.6	1.7375e-06	1.7688e-06	328.6	141.53	53.276	11.791	1.7013e-06	33.512	217.519	66.803	41.873	-26.490	103.904	139.900	-27.148	-24.582	139.557	72.409	-26.011	-24.212	-23.016	-20.892	114.749	-23.255	-8191	255	
1578.572	1	1	0	0	0.02987	0.046491	0.29097	0.17627	0.14821	0.022022	0.28362	0.21806	0.18306	0.25259	0.15711	0.17795	0.24068	0.22129	0.14996	0.075612	-1.9688	-1.9521	-2.1292	-2.5375	-2.1813	-2.5563	-2.5771	-2.0187	-2.4313	-2.1312	-2.1562	-2.5042	-2.0542	-2.1542	-2.3729	-2.025	227.892	70.306	1.858	235.061	123.431	-23.366	272.551	-29.947	227.851	276.497	87.642	307.160	275.360	305.508	87.843	-10.138	7.3593e-05	0.00030764	0.00010139	422.5	2.9326e-06	5.6986e-06	1069.1	151.66	1.787e-06	4.6246e-06	356.04	150.92	55.898	12.678	2.6086e-06	35.891	0.00016668	0.0001608	4.359e-05	391.35	1.7723e-06	1.7382e-06	987.78	141.42	1.8585e-06	1.7564e-06	328.32	140.25	52.712	11.952	1.7735e-06	33.445	191.853	68.802	53.848	-26.569	99.755	81.311	-27.006	-24.517	118.424	104.712	-25.570	-24.496	-22.892	-21.725	129.148	-22.895	-8191	255	
1578.668	1	1	0	0	0.097915	0.20421	0.14999	0.088759	0.2402	0.10748	0.075425	0.23416	0.076557	0.030733	0.29393	0.2351	0.38322	0.19138	0.096048	0.14275	-1.8583	-2.1937	-2.1104	-2.5542	-2.2812	-2.1646	-2.5958	-2.1896	-2.4083	-2.3438	-2.2854	-2.6792	-2.1792	-2.3167	-2.6021	-2.1896	236.477	49.916	83.597	313.522	205.308	44.987	35.562	241.600	195.638	3.421	-35.649	246.007	13.320	269.285	315.951	177.647	9.025e-05	0.00049815	8.151e-05	422.06	3.4796e-06	4.4995e-06	1066.6	152.45	1.7557e-06	3.2966e-06	352.88	149.95	56.396	12.834	8.4861e-07	36.047	0.0001717	0.00016199	4.4694e-05	389.61	1.8231e-06	1.7275e-06	985.64	142.48	1.83e-06	1.745e-06	328.6	139.71	52.814	11.98	1.7107e-06	33.548	202.970	71.935	57.644	-27.082	139.343	87.602	-27.370	-24.569	113.786	91.600	-25.913	-24.292	-23.130	-21.568	68.757	-22.906	-8191	255	
1578.764	1	1	0	0	0.14601	0.034524	0.034547	0.083737	0.14205	0.24075	0.18081	0.28219	0.21306	0.2538	0.21683	0.16109	0.28423	0.1281	0.19514	0.16421	-1.7646	-2.2938	-2.0438	-2.4542	-2.2583	-2.0979	-2.7687	-2.1562	-2.3333	-2.4542	-2.0854	-2.5854	-2.2229	-2.0708	-2.6937	-2.0812	209.449	278.232	183.506	206.365	37.591	164.633	27.190	311.583	69.163	30.986	197.866	297.620	182.299	236.897	217.094	161.021	0.00011216	0.00039234	0.00012287	423.08	3.2811e-06	3.6374e-06	1072.6	153.36	3.4778e-06	3.904e-06	358.5	150.22	55.64	12.66	3.6785e-06	36.177	0.00016925	0.00016302	4.5571e-05	389.31	1.8163e-06	1.654e-06	988.01	142.61	1.8067e-06	1.6912e-06	330.66	139.7	52.534	11.907	1.7129e-06	33.584	204.697	28.433	59.904	-26.809	108.740	125.541	-27.289	-24.581	156.570	77.305	-26.005	-24.463	-23.122	-22.051	112.318	-22.971	-8191	255	
1578.860	1	1	0	0	0.14268	0.15139	0.25349	0.13176	0.20074	0.072463	0.064394	0.07103	0.080922	0.20926	0.12718	0.093278	0.41533	0.091253	0.16196	0.17258	-1.7979	-2.1667	-2.0938	-2.3375	-2.0896	-1.9813	-2.6833	-2.0917	-2.3458	-2.3771	-2.1604	-2.3833	-2.2583	-2.0875	-2.3937	-2.2583	86.150	293.102	43.306	29.257	145.456	-12.331	-35.196	155.909	27.737	227.054	288.613	183.695	253.173	143.512	-40.122	292.461	8.4121e-05	0.00035512	0.00010128	418.65	4.6961e-06	2.9768e-06	1077.9	153.52	2.9979e-06	2.6823e-06	354.89	149.32	55.674	12.722	1.9284e-06	35.884	0.00016566	0.0001679	4.5944e-05	389.76	1.8344e-06	1.7877e-06	989.03	142.56	1.7645e-06	1.6763e-06	328.79	139.13	52.546	11.919	1.6546e-06	33.398	210.043	63.816	11.945	-26.745	117.872	122.003	-27.146	-24.519	122.146	160.457	-26.130	-24.328	-23.503	-21.409	140.066	-23.270	-8191	255	
1578.955	1	1	0	0	0.19417	0.16507	0.21975	0.27456	0.27898	0.19967	0.051763	0.16656	0.042696	0.037809	0.20226	0.1963	0.31046	0.27217	0.19794	0.24388	-1.6708	-2.4062	-2.0104	-2.4083	-2.2438	-2.075	-2.7792	-2.0896	-2.0417	-2.5563	-2.0333	-2.5771	-2.2479	-2.0792	-2.4313	-2.2979	247.052	157.076	168.533	263.080	200.062	262.638	162.233	96.439	5.358	249.085	209.929	-1.107	207.961	276.867	-29.863	185.179	9.1623e-05	0.00043072	8.3131e-05	422.19	2.0691e-06	2.2384e-06	1073.9	152.97	1.8003e-06	4.7419e-06	355.39	149.73	55.661	12.567	3.6177e-06	35.661	0.0001728	0.00016166	4.5551e-05	389.02	1.7707e-06	1.7511e-06	985.45	142.23	1.7996e-06	1.742e-06	329.33	139.33	52.449	11.905	1.7316e-06	33.225	196.971	47.411	66.971	-26.649	150.693	104.845	-27.166	-24.684	197.617	110.508	-25.765	-24.172	-22.943	-21.642	148.999	-22.923	-8191	255	
1579.053	1	1	0	0	0.14704	0.18112	0.28111	0.10116	0.11815	0.25338	0.20411	0.34163	0.086592	0.20674	0.16519	0.16624	0.037663	0.16514	0.12323	0.040072	-1.7708	-2.4208	-2.0333	-2.3146	-2.4354	-2.05	-2.4896	-2.2375	-2.1229	-2.3708	-2.1	-2.3479	-2.3979	-2.2354	-2.3312	-2.1792	231.774	306.132	252.446	90.543	80.329	223.747	310.329	291.971	124.066	102.310	94.193	-38.439	103.724	82.248	222.242	96.884	0.00011013	0.00018632	5.5289e-05	417.94	3.8532e-06	3.2801e-06	1064.6	153.46	1.7792e-06	3.519e-06	354.03	149.4	56.105	12.687	2.5884e-06	35.933	0.00017363	0.00015885	4.5999e-05	388.47	1.7594e-06	1.673e-06	983.77	142.67	1.744e-06	1.6883e-06	328.63	139.57	52.71	11.884	1.6347e-06	33.46	203.205	1.137	8.793	-26.643	82.193	104.352	-27.026	-24.405	176.911	132.050	-25.950	-24.257	-22.940	-21.753	129.002	-22.461	-8191	255	
1579.171	1	1	0	0	0.16967	0.071395	0.076463	0.2085	0.10823	0.1514	0.049476	0.21513	0.27148	0.14472	0.2251	0.30127	0.12961	0.13453	0.19549	0.14443	-1.7313	-2.4125	-2.0958	-2.2583	-2.3521	-2.0271	-2.3958	-2.2146	-2.1437	-2.4938	-2.0312	-2.1146	-2.4729	-2.0333	-2.3812	-2.4208	233.908	202.808	215.749	134.062	160.035	-17.518	149.008	103.650	315.116	32.872	70.370	-2.323	-27.484	-16.251	263.215	183.302	0.00010566	0.00021288	9.7221e-05	422.51	1.5492e-06	3.1975e-06	1072.3	153.1	3.8933e-06	2.6559e-06	358.54	150.68	55.885	12.465	2.2419e-06	35.672	0.00016523	0.00015692	4.4918e-05	391.33	1.6787e-06	1.7183e-06	987.25	142.61	1.7952e-06	1.7207e-06	329.68	140.35	52.752	11.863	1.7069e-06	33.396	201.847	83.458	44.085	-26.567	123.971	104.653	-27.492	-24.707	134.654	70.163	-26.153	-24.253	-23.195	-21.657	120.686	-22.848	-8191	255	
1579.268	1	1	0	0	0.17738	0.12895	0.26456	0.049386	0.13332	0.095028	0.10585	0.18592	0.038788	0.30123	0.38378	0.2931	0.15842	0.11266	0.13681	0.1426	-1.5521	-2.3458	-2.1375	-2.2188	-2.4271	-1.9771	-2.5646	-2.3417	-2.1437	-2.5062	-2.3167	-2.1792	-2.3667	-2.2062	-2.2833	-2.475	-8.095	191.561	146.354	130.040	46.269	194.137	261.079	76.023	237.642	133.845	295.599	251.370	253.311	304.293	56.438	-23.987	9.3834e-05	0.00059711	8.2288e-05	422.56	2.0859e-06	3.2324e-06	1071.5	154.37	2.9231e-06	3.0615e-06	360.09	150.62	56.182	12.572	1.2061e-06	35.983	0.00017148	0.00014591	4.4832e-05	391.79	1.7242e-06	1.8046e-06	988.48	142.44	1.7486e-06	1.7143e-06	330.12	140.26	52.766	11.815	1.7401e-06	33.452	192.932	68.738	45.659	-26.551	151.082	113.390	-27.157	-24.321	131.141	66.497	-25.932	-24.489	-22.865	-22.080	106.967	-22.714	-8191	255	
1579.364	1	1	0	0	0.27895	0.19858	0.28061	0.19994	0.072333	0.27217	0.20303	0.053545	0.28447	0.25281	0.15727	0.046943	0.27945	0.11202	0.21739	0.1202	-1.4917	-2.3292	-2.1042	-2.1354	-2.5396	-2.0104	-2.3375	-2.3958	-1.8312	-2.4875	-2.1833	-2.1375	-2.3937	-2.0146	-2.1813	-2.6042	168.821	230.877	72.172	304.458	131.504	178.584	259.356	5.753	56.042	-4.912	279.048	-17.180	3.861	265.239	146.698	252.565	7.7183e-05	0.00041168	9.6336e-05	423.13	5.0183e-06	3.1421e-06	1068.6	152.63	1.9033e-06	6.8754e-06	355.82	149.15	55.933	12.676	3.4156e-06	35.769	0.00017177	0.000158	4.5469e-05	389.95	1.7275e-06	1.7987e-06	984.29	141.98	1.7592e-06	1.7481e-06	328.7	138.38	52.478	11.933	1.7827e-06	33.336	203.165	31.898	63.651	-26.963	138.931	94.246	-27.387	-24.528	147.659	107.902	-25.828	-24.448	-23.037	-21.476	127.413	-23.074	-8191	255	
1579.460	1	1	0	0	0.22646	0.18071	0.40957	0.1985	0.23068	0.051249	0.31183	0.22007	0.25882	0.019837	0.17707	0.27331	0.10591	0.09893	0.24022	0.043708	-1.6667	-2.4437	-2.3	-2.2167	-2.6708	-2.1729	-2.4479	-2.5042	-2.0625	-2.3167	-2.3625	-2.1917	-2.4167	-2.3083	-2.1188	-2.5604	-33.448	-30.438	284.387	161.309	240.044	24.126	295.565	309.903	117.100	66.461	147.205	233.560	301.917	57.213	74.588	186.196	0.0001026	0.00029183	0.00011998	420.5	3.3822e-06	4.2917e-06	1063	152.49	1.925e-06	2.9508e-06	355.98	148.18	55.501	12.732	2.2935e-06	35.63	0.00017027	0.00016771	4.6495e-05	387.27	1.6837e-06	1.6767e-06	982.75	141.85	1.8077e-06	1.7061e-06	328.97	138.31	52.096	11.897	1.7992e-06	33.22	195.670	59.737	35.083	-26.620	116.736	126.754	-26.994	-24.834	82.355	110.486	-25.839	-24.288	-23.045	-21.652	110.362	-22.549	-8191	255	
1579.556	1	1	0	0	0.11835	0.1622	0.10847	0.29333	0.26094	0.29481	0.24889	0.011181	0.17969	0.12224	0.1039	0.13144	0.25774	0.076547	0.20455	0.079341	-1.4021	-2.3937	-2.4167	-2.0729	-2.5104	-2.1396	-2.3583	-2.3583	-2	-2.4333	-2.5771	-2.0479	-2.325	-2.3688	-1.9667	-2.5187	-4.405	30.216	155.422	263.548	33.593	128.943	189.419	286.785	225.613	-9.440	253.021	-5.059	279.979	228.324	216.693	13.730	8.0454e-05	0.00024215	0.0001031	415	3.8699e-06	4.5723e-06	1063.5	153.21	3.3869e-06	2.6622e-06	355.39	148.38	56.042	12.736	4.713e-06	35.668	0.0001691	0.00015594	4.2634e-05	384.43	1.8255e-06	1.7326e-06	982.91	142.25	1.8653e-06	1.7181e-06	329.25	138.15	52.307	11.987	1.8777e-06	33.321	207.250	56.686	36.288	-26.882	116.898	139.106	-27.323	-24.774	129.771	113.377	-25.838	-24.178	-22.734	-22.061	131.437	-23.047	-8191	255	
1579.652	1	1	0	0	0.14852	0.17231	0.22866	0.084151	0.076954	0.11303	0.18226	0.37716	0.063204	0.15457	0.074945	0.19282	0.080846	0.19339	0.17424	0.16369	-1.4417	-2.2812	-2.5396	-1.9208	-2.4271	-2.2188	-2.2542	-2.3208	-2.1979	-2.2354	-2.3542	-1.9958	-2.4958	-2.4333	-2.1271	-2.675	-41.499	250.137	96.211	307.025	92.131	141.319	186.258	286.944	-8.543	30.388	261.869	216.879	-33.687	27.762	74.726	161.754	0.00010412	0.00051555	0.00013315	422.34	4.7341e-06	3.1683e-06	1064.9	152.21	2.455e-06	4.4837e-06	356.55	148.92	55.26	12.721	5.654e-06	35.638	0.00017333	0.000164	4.5233e-05	387.02	1.7406e-06	1.7717e-06	981.76	141.62	1.8273e-06	1.8338e-06	328.98	138.2	52.121	11.986	1.8373e-06	33.334	200.595	72.576	39.447	-26.788	141.683	124.379	-27.646	-24.577	142.162	103.967	-25.942	-24.446	-22.976	-21.656	144.388	-22.763	-8191	255	
1579.773	1	1	0	0	0.41215	0.15015	0.048726	0.16915	0.15237	0.16477	0.2495	0.25071	0.24235	0.099311	0.20081	0.2878	0.2201	0.21807	0.056342	0.014626	-1.7188	-2.2875	-2.3479	-2.0042	-2.3958	-2.3854	-2.0708	-2.4917	-2.1208	-2.1417	-2.4104	-2.0854	-2.4042	-2.3354	-1.9979	-2.7062	-27.856	217.467	228.940	-8.927	71.569	311.047	172.258	-9.070	102.926	161.851	238.846	305.339	96.448	158.900	45.684	290.037	0.00010749	0.0004208	6.8511e-05	417.58	3.9758e-06	5.5576e-06	1056.4	152.27	9.8919e-07	4.0615e-06	354.68	148.66	55.381	12.685	4.9611e-06	35.732	0.0001697	0.00016009	4.335e-05	386.51	1.7494e-06	1.7009e-06	979.86	141.49	1.7497e-06	1.7356e-06	327.67	138.34	52.204	11.96	1.7033e-06	33.525	213.854	40.382	36.013	-26.672	117.727	106.908	-27.235	-24.929	147.166	130.443	-25.714	-24.208	-23.169	-22.264	109.922	-22.827	-8191	255	
1579.867	1	1	0	0	0.20001	0.15018	0.17243	0.20961	0.12219	0.18224	0.42911	0.24978	0.18897	0.12827	0.13817	0.41	0.24088	0.096446	0.084473	0.1585	-1.75	-2.1958	-2.5958	-2.3438	-2.3312	-2.5271	-2.15	-2.3958	-2.3583	-2.2458	-2.4875	-2.2562	-2.3	-2.3604	-2.0396	-2.5375	168.830	303.350	82.836	292.705	61.759	198.619	225.284	-16.508	182.550	61.357	237.641	261.624	260.194	18.331	159.381	306.872	9.0914e-05	0.00047449	0.00011528	420.82	3.3012e-06	4.9748e-06	1068.9	152.75	2.6357e-06	1.5622e-06	359.2	149.63	56.219	12.634	2.325e-06	36.097	0.0001732	0.00015971	4.4639e-05	388.09	1.7347e-06	1.7799e-06	984.64	141.97	1.756e-06	1.7854e-06	330.4	139.13	52.493	11.927	1.6612e-06	33.69	209.690	47.911	23.656	-26.604	111.543	112.483	-27.351	-24.734	144.946	88.166	-26.357	-24.120	-23.250	-21.542	101.627	-23.034	-8191	255	
1579.963	1	1	0	0	0.042624	0.087712	0.13719	0.040324	0.029375	0.078308	0.18843	0.18828	0.18623	0.16048	0.18613	0.20921	0.090708	0.10071	0.27928	0.11507	-1.8271	-2.0875	-2.4833	-2.0896	-2.4083	-2.5104	-2.0812	-2.5104	-2.4062	-2.0812	-2.3792	-2.1646	-2.2375	-2.2792	-2.0333	-2.4	-23.328	143.619	136.269	108.541	157.661	48.422	150.480	275.449	264.801	188.491	287.902	-25.966	0.013	74.856	271.821	-23.247	8.3121e-05	0.00013222	0.0001151	419.78	5.6882e-06	3.4083e-06	1068.6	153.76	3.6319e-06	1.796e-06	358.33	149.74	56.2	12.89	1.95e-06	36.383	0.00017575	0.00016441	4.6094e-05	388.97	1.8058e-06	1.7532e-06	985.7	142.91	1.8742e-06	1.8245e-06	331.61	139.93	52.858	12.137	1.7705e-06	33.97	187.443	138.804	45.067	-26.845	160.803	86.875	-27.285	-24.613	158.060	132.652	-26.134	-24.173	-22.767	-21.737	112.073	-22.530	-8191	255	
1580.060	1	1	0	0	0.022474	0.20901	0.42513	0.27809	0.19489	0.14469	0.45353	0.30762	0.17242	0.16996	0.17704	0.31684	0.20606	0.087778	0.21709	0.26166	-1.7583	-1.9521	-2.45	-2.1542	-2.2438	-2.5333	-2.1896	-2.3021	-2.2771	-1.975	-2.45	-2.2792	-2.2667	-2.525	-1.8687	-2.3146	10.864	18.769	256.513	263.816	10.628	29.950	-34.931	252.482	296.143	215.386	42.661	256.618	42.667	20.054	226.571	288.449	0.00012025	0.00050263	9.5028e-05	421.07	3.7021e-06	3.9407e-06	1073	154.34	9.6726e-07	4.9082e-06	361.08	151.48	56.594	12.796	1.7433e-06	36.248	0.00017466	0.00016745	4.631e-05	390.87	1.8111e-06	1.7036e-06	990.41	143.31	1.8403e-06	1.7099e-06	332	140.49	53.162	12.135	1.79e-06	33.834	202.398	55.382	71.977	-27.102	108.191	112.743	-27.523	-24.563	107.875	116.200	-26.030	-24.302	-22.687	-21.875	83.980	-22.958	-8191	255	
1580.156	1	1	0	0	0.091585	0.071213	0.23151	0.087518	0.18105	0.10604	0.20851	0.46241	0.074112	0.18365	0.20833	0.13494	0.30675	0.1519	0.1989	0.23014	-1.7854	-2.1167	-2.425	-2.2604	-2.0646	-2.5938	-2.1146	-2.2333	-2.5521	-1.9813	-2.4521	-2.3333	-2.1021	-2.525	-2.2042	-2.3354	-4.090	284.953	108.777	279.489	104.532	195.570	281.156	157.483	310.997	30.939	314.787	-42.166	243.063	237.509	22.332	225.182	9.6937e-05	0.00059419	0.00013335	421.55	1.3292e-06	4.8376e-06	1067.1	154.65	8.7972e-07	4.8605e-06	357.38	151.02	56.524	12.922	1.9197e-06	36.659	0.00017389	0.00016292	4.5009e-05	390.34	1.8647e-06	1.7019e-06	988.26	143.9	1.818e-06	1.8072e-06	332.24	140.69	53.197	12.147	1.8134e-06	34.02	183.359	50.091	53.019	-26.804	90.524	107.843	-27.368	-24.810	258.923	91.713	-26.168	-24.619	-22.932	-21.908	161.309	-22.549	-8191	255	
1580.252	1	1	0	0	0.11746	0.13477	0.19026	0.07555	0.0262	0.13981	0.3762	0.06525	0.088771	0.18668	0.22173	0.095917	0.12136	0.11913	0.25014	0.26029	-2.0062	-1.8062	-2.3312	-2.1854	-1.8021	-2.4938	-2.2938	-2.2104	-2.5312	-2.0542	-2.4646	-2.2958	-1.9792	-2.5312	-2.2958	-2.0875	259.197	281.645	146.038	-39.345	103.733	69.370	297.310	272.120	164.494	112.105	100.826	266.120	5.255	235.446	110.850	142.998	8.4875e-05	0.0005566	6.0808e-05	421.66	2.5413e-06	2.8848e-06	1071.1	155.69	2.5273e-06	2.7329e-06	359.59	151.37	56.781	13.002	2.1777e-06	36.331	0.00017579	0.00017003	4.3444e-05	391.26	1.7732e-06	1.7351e-06	991.28	144	1.8149e-06	1.7459e-06	333.33	140.47	53.268	12.194	1.8152e-06	33.794	200.690	44.496	-0.843	-26.458	99.689	113.665	-27.110	-24.497	191.358	118.791	-26.188	-23.903	-23.248	-21.614	102.960	-23.089	-8191	255	
1580.348	1	1	0	0	0.17063	0.21284	0.18081	0.15444	0.032905	0.16839	0.14757	0.096177	0.15727	0.03796	0.084341	0.06072	0.15252	0.16374	0.16053	0.29232	-1.9083	-2.2146	-2.2417	-2.3604	-2.0938	-2.35	-2.3042	-2.2417	-2.5312	-1.9937	-2.3	-2.3958	-2.0521	-2.4917	-2.1875	-2.0354	240.385	132.918	189.804	248.165	289.664	161.649	257.256	169.857	69.333	147.732	70.560	-18.734	-27.803	252.475	13.687	225.559	8.6837e-05	0.00046557	0.00013976	423.74	2.9967e-06	2.793e-06	1082	154.43	1.9051e-06	3.1119e-06	362.87	149.72	56.283	13.212	1.5134e-06	36.516	0.00018464	0.00017075	4.8539e-05	390.45	1.8635e-06	1.7972e-06	990.67	143.82	1.8251e-06	1.8324e-06	334.71	139.56	52.816	12.371	1.8253e-06	34.024	200.042	27.660	13.753	-26.924	115.652	111.806	-27.239	-24.441	122.509	107.023	-26.014	-24.243	-23.172	-21.460	140.663	-22.786	-8191	255	
1580.469	1	1	0	0	0.20466	0.19783	0.2545	0.24505	0.01363	0.1565	0.22137	0.14256	0.16466	0.31397	0.038859	0.24442	0.15102	0.21478	0.058128	0.35093	-1.8833	-1.925	-2.0521	-2.3312	-1.8563	-2.4167	-2.4125	-2.1042	-2.3917	-1.9312	-2.2062	-2.4271	-1.9458	-2.1854	-2.3396	-2.0708	83.754	38.331	25.660	305.040	291.012	150.943	218.888	-3.988	206.543	281.107	261.976	125.962	51.901	263.945	119.121	307.453	0.00010195	0.00027695	0.0001397	418.22	4.9098e-06	2.3459e-06	1072.1	154.39	2.083e-06	4.3171e-06	358.67	148.99	56.488	13.149	3.2054e-06	36.193	0.00018068	0.0001736	4.6774e-05	388.32	1.8422e-06	1.7379e-06	989.84	144.01	1.7595e-06	1.8091e-06	332.4	138.74	52.731	12.277	1.8643e-06	33.854	203.609	58.144	37.441	-26.600	169.156	131.649	-27.394	-24.857	102.148	175.885	-25.646	-24.519	-22.802	-21.360	133.483	-23.042	-8191	255	
1580.565	1	1	0	0	0.20282	0.20382	0.23085	0.3916	0.17226	0.11517	0.075732	0.24318	0.17441	0.20714	0.19511	0.061818	0.2161	0.15362	0.05575	0.10357	-1.8125	-2.2417	-2.1396	-2.4375	-1.9208	-2.3187	-2.2958	-2.0229	-2.3854	-2.0938	-2.2229	-2.3625	-2	-2.3958	-2.1708	-1.9229	-41.418	188.695	83.390	254.627	216.570	122.962	234.920	259.035	-37.433	32.515	279.821	278.914	227.290	73.579	195.540	167.021	0.00010199	0.00040496	5.2955e-05	420.56	3.7766e-06	4.1394e-06	1067.5	154.6	2.5439e-06	4.747e-06	357.7	149.39	55.368	13.013	3.9627e-06	36.72	0.00017982	0.00017623	4.5909e-05	388.43	1.9249e-06	1.8423e-06	988.68	143.95	1.8234e-06	1.8571e-06	332.34	139.02	52.395	12.282	1.7802e-06	34.087	206.370	64.929	49.196	-26.599	123.489	109.531	-27.021	-24.372	121.984	101.057	-25.882	-24.276	-23.369	-22.053	127.272	-22.919	-8191	255	
1580.636	1	1	0	0	0.23893	0.049383	0.19845	0.27852	0.10493	0.1457	0.20548	0.23167	0.16118	0.2058	0.19834	0.11384	0.19942	0.061098	0.24715	0.12308	-1.9875	-2.1437	-2.0333	-2.3	-2.225	-2.1875	-2.3625	-1.9479	-2.4729	-2.2375	-2.2313	-2.5208	-2.1854	-2.2354	-2.2833	-2.0646	-42.740	79.348	251.092	196.612	91.903	167.509	248.260	266.668	252.786	5.464	172.713	298.544	-27.871	232.317	214.002	-40.321	0.00010606	0.00042431	0.00010129	417.5	2.8605e-06	1.9324e-06	1075.9	155.2	3.8865e-06	2.0878e-06	362.9	148.87	56.315	13.3	1.5691e-06	36.322	0.00017639	0.00017152	4.7631e-05	387.44	1.8567e-06	1.8399e-06	988.51	143.77	1.8543e-06	1.7011e-06	334.65	139.1	52.819	12.428	1.8322e-06	33.955	194.483	67.134	28.701	-26.764	159.674	118.011	-27.145	-24.842	143.348	131.486	-26.211	-24.242	-23.035	-21.178	96.883	-22.930	-8191	255	
1580.733	1	1	0	0	0.12153	0.079057	0.18128	0.071585	0.16749	0.10616	0.14871	0.11778	0.023064	0.26073	0.2093	0.024353	0.192	0.19991	0.076126	0.063239	-1.8563	-2.2125	-2.0042	-2.4062	-1.9833	-2.2167	-2.5438	-2.0125	-2.2313	-2.2792	-2.1396	-2.5438	-2.0833	-2.1271	-2.4146	-2.1896	72.015	114.871	232.841	78.373	307.288	131.775	261.559	-35.494	101.282	283.872	310.127	82.475	142.899	-6.569	6.482	15.890	9.4071e-05	0.00032688	0.00012087	420.61	2.1116e-06	3.1687e-06	1071.4	155.72	3.2718e-06	4.9769e-06	362.95	150.23	55.952	13.166	4.6973e-06	36.715	0.0001735	0.00017021	4.8228e-05	388.24	1.788e-06	1.8313e-06	990.04	144.54	1.82e-06	1.8389e-06	335.29	139.63	52.607	12.422	1.7827e-06	34.085	204.905	23.792	24.111	-26.618	184.017	126.947	-27.450	-24.521	139.158	77.756	-25.675	-24.301	-22.816	-21.643	142.671	-23.172	-8191	255	
1580.853	1	1	0	0	0.18091	0.14311	0.1455	0.25118	0.48416	0.099023	0.063202	0.41564	0.22925	0.093361	0.29476	0.12934	0.096483	0.084262	0.12633	0.4461	-1.9375	-2.0438	-2.0729	-2.3729	-1.9958	-2.2812	-2.5458	-1.9917	-2.2979	-2.3417	-1.8667	-2.4146	-2.3104	-2.1063	-2.3667	-2.1562	256.456	297.445	26.736	300.489	235.591	15.716	289.417	248.157	8.046	96.274	219.177	-31.187	306.392	100.551	294.749	294.672	0.00012556	0.00038838	0.00012029	422.13	3.2663e-06	2.1935e-06	1072	154.64	3.3949e-06	2.5047e-06	363.5	148.69	55.779	13.151	2.8177e-06	36.456	0.00017325	0.00016611	4.6566e-05	389.14	1.7542e-06	1.8464e-06	989.21	144.14	1.8177e-06	1.791e-06	335.75	138.68	52.575	12.376	1.7429e-06	34.071	219.414	48.360	37.574	-26.851	109.083	122.624	-27.137	-24.829	185.418	162.899	-26.321	-24.545	-23.113	-22.023	177.671	-22.910	-8191	255	
1580.948	1	1	0	0	0.15993	0.011976	0.083012	0.35233	0.18777	0.1739	0.22582	0.0599	0.11088	0.25281	0.18992	0.13954	0.17551	0.21868	0.25222	0.096724	-1.9312	-2.4479	-1.9125	-2.5438	-2.2146	-1.9562	-2.5479	-2.2687	-2.2875	-2.5292	-2.1708	-2.6104	-2.1333	-2.0125	-2.2646	-2.2521	132.689	15.690	181.222	20.389	128.332	248.014	169.235	287.538	4.993	76.571	261.111	-38.596	180.342	285.336	254.562	297.227	0.00010331	0.00052032	0.00011717	420.25	2.0063e-06	4.0362e-06	1071.7	156.44	1.434e-06	3.0083e-06	362.31	148.57	55.919	13.164	2.7671e-06	36.517	0.00017549	0.00016321	4.6754e-05	389.82	1.8217e-06	1.8113e-06	989.75	144.86	1.8246e-06	1.7153e-06	334.15	138.87	52.622	12.315	1.7034e-06	33.975	205.039	67.641	64.025	-26.734	114.433	134.348	-27.252	-24.463	232.037	73.750	-26.182	-24.436	-23.033	-21.277	128.877	-23.193	-8191	255	
1581.046	1	1	0	0	0.18391	0.29344	0.28507	0.069728	0.27681	0.15905	0.34988	0.16684	0.23386	0.10304	0.14737	0.29633	0.017521	0.16717	0.16367	0.31358	-1.75	-2.2583	-2	-2.3917	-2.1333	-1.9542	-2.5042	-2.0271	-2.3604	-2.4729	-2.0375	-2.4313	-2.2542	-2.0646	-2.4646	-2.1896	174.432	109.275	34.719	122.883	105.388	63.957	259.021	-20.282	263.099	82.407	247.860	24.020	208.945	-2.880	16.935	74.677	9.1314e-05	0.00043847	0.00012819	423.24	4.8661e-06	4.9408e-06	1079.8	156.3	1.864e-06	3.7176e-06	362.04	150.15	56.654	13.126	2.7964e-06	36.338	0.0001684	0.00015611	4.5689e-05	390.38	1.8361e-06	1.7588e-06	992.62	145.08	1.7217e-06	1.724e-06	335.43	139.74	53.09	12.332	1.6793e-06	34.085	206.969	43.295	35.050	-26.943	114.513	131.406	-27.101	-24.682	152.452	91.902	-26.099	-24.274	-22.684	-21.712	170.663	-22.947	-8191	255	
1581.164	1	1	0	0	0.061979	0.064662	0.11391	0.19075	0.3676	0.26002	0.073993	0.21364	0.15916	0.2575	0.34697	0.267	0.19642	0.21403	0.20747	0.16313	-1.6313	-2.4458	-1.9229	-2.4146	-2.4917	-1.9979	-2.6063	-2.0938	-1.875	-2.4542	-2.0146	-2.2417	-2.2125	-1.9833	-2.3521	-2.2021	272.368	2.330	54.182	223.321	241.485	6.313	78.752	99.523	250.877	87.359	271.250	223.611	237.459	314.142	1.422	-21.947	0.00010213	0.00025824	0.00014467	422.89	1.7848e-06	5.6474e-06	1070.7	154.95	3.1079e-06	3.4577e-06	363.23	150	56.699	13.272	3.8769e-06	36.732	0.0001714	0.00015479	4.5728e-05	392.8	1.7449e-06	1.7059e-06	992.94	144.22	1.7227e-06	1.6574e-06	335.72	140.28	53.085	12.413	1.7802e-06	34.167	184.941	81.962	12.183	-26.462	126.039	93.277	-27.496	-24.451	109.124	134.552	-25.988	-24.361	-22.823	-21.790	122.125	-23.213	-8191	255	
1581.261	1	1	0	0	0.095276	0.37592	0.26735	0.25083	0.13	0.1938	0.20206	0.27043	0.24691	0.2563	0.21833	0.079217	0.13649	0.093345	0.24559	0.13072	-1.7792	-2.4229	-2.0167	-2.3979	-2.4354	-2.0854	-2.6479	-2.2792	-2.1063	-2.4396	-1.9708	-2.3042	-2.3833	-1.9708	-2.2583	-2.2938	134.432	165.743	237.659	223.441	190.805	279.903	265.000	31.304	245.395	244.451	250.085	43.024	-21.285	266.535	291.789	-19.668	0.00010395	0.00052802	7.4028e-05	426.13	2.4954e-06	4.7916e-06	1082.8	154.9	1.1813e-06	3.1958e-06	360.69	150.77	56.096	13.116	2.7034e-06	36.426	0.00017201	0.00015586	4.5677e-05	393.92	1.7187e-06	1.7298e-06	997.13	144.77	1.6431e-06	1.6837e-06	333.43	140.1	53.055	12.351	1.6519e-06	34.066	200.691	38.363	24.600	-27.012	76.611	122.052	-27.185	-25.000	90.503	132.882	-26.231	-24.427	-23.162	-21.732	126.685	-23.036	-8191	255	
1581.332	1	1	0	0	0.27845	0.15996	0.19075	0.035044	0.15523	0.12652	0.23716	0.02019	0.17614	0.20255	0.15851	0.2494	0.18527	0.20537	0.10593	0.068836	-1.3937	-2.3229	-2.2083	-2.0583	-2.5604	-2.1562	-2.3917	-2.3604	-2	-2.2833	-2.2167	-2.2646	-2.3063	-2.0542	-2.2854	-2.4208	196.995	3.833	205.682	295.272	137.663	191.052	272.382	-13.710	239.841	-41.834	271.279	269.935	27.053	79.606	58.087	233.031	8.3786e-05	0.00056641	0.00014679	423.88	3.163e-06	2.6483e-06	1083.2	155.44	2.8765e-06	2.8485e-06	361.83	151.21	56.062	13.312	3.9529e-06	37.07	0.00016836	0.00015104	4.4848e-05	391.3	1.6715e-06	1.7958e-06	995.79	144.89	1.7491e-06	1.6417e-06	334.4	140.23	52.78	12.482	1.7271e-06	34.555	198.341	43.214	32.627	-26.777	94.997	100.287	-27.174	-24.769	117.144	123.755	-25.848	-24.217	-23.177	-21.772	130.627	-23.212	-8191	255	
1581.453	1	1	0	0	0.026211	0.10631	0.1227	0.21361	0.27708	0.23501	0.15596	0.098311	0.16312	0.14129	0.099126	0.19435	0.27057	0.0947	0.011645	0.11056	-1.4917	-2.3312	-2.2	-2.1208	-2.6	-2.0667	-2.2833	-2.4479	-1.9729	-2.3208	-2.3583	-2.0917	-2.3542	-1.9	-2.2125	-2.4562	-1.408	-35.187	159.966	302.069	264.784	221.345	-10.672	173.079	152.329	56.316	210.189	251.660	10.845	109.534	69.532	192.354	8.6502e-05	0.00063662	6.1035e-05	424.93	3.6725e-06	2.9088e-06	1081.3	156.01	8.2642e-07	5.0653e-06	361.28	151.32	56.445	13.356	2.7501e-06	37.426	0.00016737	0.00015387	4.3936e-05	391.61	1.6825e-06	1.6831e-06	997.23	145.05	1.6958e-06	1.6587e-06	333.55	140.88	52.772	12.529	1.6736e-06	34.723	203.553	41.012	27.918	-27.043	146.543	111.116	-27.130	-24.584	173.248	118.975	-25.631	-24.294	-23.301	-22.274	155.802	-22.957	-8191	255	
1581.549	1	1	0	0	0.24551	0.14483	0.15234	0.18356	0.18034	0.11671	0.35516	0.053775	0.17611	0.18868	0.081979	0.34237	0.17292	0.12959	0.12252	0.33318	-1.6458	-2.45	-2.3021	-1.9875	-2.2979	-2.1292	-2.3979	-2.4146	-2.1437	-2.3104	-2.3625	-1.9896	-2.5083	-2.1375	-2.2167	-2.5875	276.773	270.484	203.965	221.426	311.372	38.450	-37.635	296.420	60.389	18.741	-38.588	274.384	257.259	301.120	69.059	-5.175	0.00013738	0.00049977	3.9768e-05	426.97	6.8552e-06	3.5553e-06	1086.1	156.24	1.7591e-06	4.4172e-06	364.03	151.01	56.404	13.246	3.3583e-06	36.936	0.00016984	0.0001513	4.5166e-05	393.61	1.6142e-06	1.7376e-06	998.54	145.08	1.7307e-06	1.6857e-06	335.24	140.78	52.947	12.413	1.6948e-06	34.393	197.809	8.705	21.965	-26.797	139.703	138.491	-27.375	-24.812	168.050	87.745	-26.116	-24.446	-22.757	-22.158	138.513	-23.345	-8191	255	
1581.645	1	1	0	0	0.053894	0.021108	0.034706	0.15993	0.1713	0.1866	0.31005	0.1285	0.11541	0.31654	0.22988	0.11045	0.1034	0.059303	0.34632	0.29864	-1.3646	-2.1646	-2.2104	-1.9208	-2.2313	-2.1271	-2.2854	-2.45	-2.0104	-2.3083	-2.2875	-1.9062	-2.3583	-2.15	-2.0271	-2.5667	132.719	313.218	157.968	240.978	-23.941	29.759	256.101	56.181	138.920	81.158	219.008	248.621	36.310	109.564	208.560	126.948	0.00011902	0.00039895	0.00011637	422.53	2.5134e-06	5.6066e-06	1075.5	156.15	2.1418e-06	5.2224e-06	360.95	150.97	56.63	13.303	1.3062e-06	36.751	0.00017455	0.00015541	4.3829e-05	390.73	1.6983e-06	1.7379e-06	995.62	145.41	1.7157e-06	1.6696e-06	334.94	140.32	52.927	12.518	1.7552e-06	34.404	195.301	53.953	17.268	-26.740	189.767	114.769	-27.490	-24.579	131.830	89.766	-25.978	-24.453	-23.134	-22.041	127.362	-23.343	-8191	255	
1581.766	1	1	0	0	0.16287	0.12201	0.2218	0.1132	0.16349	0.32218	0.080809	0.15156	0.19104	0.1038	0.1373	0.16029	0.3233	0.22664	0.15338	0.13824	-1.5229	-2.2396	-2.1771	-1.7563	-2.3937	-2.1688	-2.2562	-2.4229	-1.8896	-2.3146	-2.5083	-1.9813	-2.5208	-2.1333	-2.0792	-2.6167	33.193	-39.376	97.008	183.618	139.139	289.614	303.335	299.826	147.869	213.363	0.624	232.512	253.288	20.294	231.922	308.556	0.00013351	0.00046236	0.00012249	425.26	3.67e-06	4.0717e-06	1087.6	159.01	3.0244e-06	4.491e-06	367.38	151.63	56.739	13.438	3.1853e-06	36.971	0.00017161	0.00015887	4.3712e-05	393.52	1.6995e-06	1.7334e-06	1000.8	146.55	1.8405e-06	1.738e-06	338.32	140.75	53.088	12.623	1.7393e-06	34.611	215.691	50.767	30.585	-26.874	158.664	103.295	-27.177	-24.995	149.034	131.488	-25.957	-24.456	-23.425	-21.508	147.187	-22.870	-8191	255	
1581.860	1	1	0	0	0.10686	0.14317	0.24015	0.081683	0.32607	0.1166	0.25731	0.080347	0.026007	0.15266	0.21475	0.4712	0.27188	0.18707	0.088802	0.30635	-1.7062	-2.1125	-2.3208	-2.0542	-2.325	-2.2021	-2.225	-2.4104	-2.1333	-1.9479	-2.725	-1.9896	-2.3979	-2.2708	-2.1813	-2.5417	43.235	166.267	297.023	57.028	12.502	277.803	244.878	134.430	83.447	212.356	306.381	290.465	81.791	199.689	-16.045	-16.662	0.0001045	0.00037008	0.00015273	428.94	3.6686e-06	3.401e-06	1093.6	157.97	2.7965e-06	2.9673e-06	370.31	154.61	57.489	13.671	1.9619e-06	37.63	0.00017182	0.00015871	4.4207e-05	395.24	1.7748e-06	1.6964e-06	1006.4	146.82	1.8215e-06	1.7139e-06	340.78	143.06	53.824	12.71	1.6811e-06	35.03	215.726	81.836	83.398	-26.096	134.264	104.194	-27.359	-24.334	145.026	113.804	-26.011	-24.278	-23.257	-21.988	153.504	-23.274	-8191	255	
1581.934	1	1	0	0	0.20832	0.18165	0.046304	0.037983	0.2512	0.1988	0.23761	0.21249	0.073116	0.20522	0.18209	0.023179	0.16075	0.25469	0.04406	0.13548	-1.825	-2.25	-2.4167	-2.1229	-2.45	-2.4688	-2.1083	-2.5292	-2.1562	-2.1312	-2.5021	-2.0854	-2.3438	-2.4917	-2.0292	-2.3458	25.281	163.321	100.163	21.169	-32.582	120.558	266.792	244.007	145.346	192.737	210.998	60.343	241.020	177.058	28.806	193.231	0.00010539	0.00044995	9.0678e-05	430.7	6.3933e-06	2.7387e-06	1090.8	158.53	1.9336e-06	5.6346e-06	366.21	153.22	57.363	13.497	3.0047e-06	37.673	0.00017057	0.0001501	4.0099e-05	396.49	1.6519e-06	1.6006e-06	1007.5	146.95	1.7069e-06	1.658e-06	337.99	143.09	53.758	12.642	1.6583e-06	35.034	211.937	40.865	28.384	-27.118	116.281	156.319	-27.352	-24.549	171.426	143.569	-26.112	-24.106	-23.268	-22.007	137.749	-22.881	-8191	255	
1582.030	1	1	0	0	0.071047	0.17691	0.12513	0.034329	0.11359	0.22265	0.074907	0.064421	0.13133	0.20959	0.25414	0.32173	0.20644	0.18847	0.10062	0.28846	-1.7229	-2.1167	-2.4542	-2.0875	-2.1583	-2.5	-2.1833	-2.4979	-2.25	-2.1042	-2.6521	-2.1875	-2.2875	-2.55	-2.0687	-2.3104	1.728	126.533	-0.282	51.731	177.484	283.387	284.711	161.823	54.592	144.645	222.920	297.412	282.349	276.429	94.000	169.628	0.00010296	0.00063419	8.8445e-05	430.78	1.2981e-06	6.8299e-06	1097.2	158.48	1.8262e-06	3.4281e-06	367.7	156.5	58.225	13.395	2.1688e-06	37.549	0.00016668	0.0001517	4.0865e-05	398.3	1.6482e-06	1.6252e-06	1012.5	147.03	1.6156e-06	1.6455e-06	339.02	145.11	54.353	12.654	1.6406e-06	35.187	226.024	46.092	51.491	-26.792	100.601	129.455	-27.406	-24.638	164.775	102.707	-26.244	-24.422	-23.259	-22.219	112.222	-23.197	-8191	255	
1582.149	1	1	0	0	0.2971	0.432	0.25156	0.07989	0.19328	0.28557	0.095171	0.2872	0.19337	0.2146	0.24211	0.2997	0.166	0.10845	0.23377	0.12325	-1.8604	-1.8646	-2.3792	-2.1958	-2.1729	-2.5604	-2.1646	-2.2833	-2.1375	-1.9521	-2.4646	-2.5104	-2.0708	-2.7583	-2.0083	-2.4042	3.228	162.714	182.329	232.789	21.328	59.167	308.375	238.393	136.372	197.983	224.934	-25.893	217.857	293.646	83.746	306.171	0.0001058	0.00033989	0.00010522	434.85	3.2525e-06	2.455e-06	1097.6	159.07	3.1667e-06	3.8654e-06	367.26	156.77	58.361	13.517	2.9425e-06	37.948	0.00016296	0.00015766	4.2104e-05	401.16	1.7009e-06	1.5753e-06	1016.6	147.4	1.7488e-06	1.5988e-06	338.88	146.03	54.938	12.733	1.6841e-06	35.399	200.851	72.476	47.649	-26.781	125.247	126.680	-27.489	-24.565	149.968	83.556	-25.760	-24.439	-23.251	-21.941	104.658	-22.989	-8191	255	
1582.245	1	1	0	0	0.028044	0.15515	0.054044	0.10553	0.055806	0.091011	0.24565	0.2206	0.11181	0.27028	0.04589	0.22671	0.2252	0.39136	0.12706	0.1619	-1.7167	-1.9104	-2.4146	-2.3979	-2.0208	-2.4979	-2.3479	-2.275	-2.4771	-2.0583	-2.4667	-2.2667	-2.2583	-2.5812	-2.1562	-2.3083	283.660	72.222	250.284	37.873	87.147	45.348	189.627	-16.242	201.068	272.139	297.164	245.264	118.322	305.127	193.198	265.504	8.5434e-05	0.00040701	9.3193e-05	436.36	3.2046e-06	2.3981e-06	1100.9	159.3	3.0714e-06	4.013e-06	369.03	155.34	57.702	13.303	4.2513e-06	37.743	0.00016438	0.00015073	4.1439e-05	402.34	1.7139e-06	1.5952e-06	1017.9	147.98	1.7221e-06	1.6781e-06	341.09	144.69	54.307	12.615	1.6602e-06	35.259	219.992	45.854	55.007	-26.902	118.853	112.081	-27.268	-24.454	145.382	125.800	-26.299	-24.407	-23.180	-21.558	119.539	-23.083	-8191	255	
1582.341	1	1	0	0	0.16086	0.093533	0.22356	0.24844	0.063017	0.074038	0.13512	0.19475	0.1671	0.083655	0.14771	0.10942	0.12766	0.14647	0.16748	0.14093	-1.9021	-1.9021	-2.4062	-2.0917	-2.0271	-2.5062	-2.1604	-2.3187	-2.4375	-2.0438	-2.4	-2.3688	-2.0125	-2.4875	-2.1937	-2.2167	7.130	55.345	79.595	-5.848	194.628	301.850	249.453	-32.428	84.484	202.236	196.505	253.159	283.592	86.098	140.928	135.803	0.0001025	0.00047566	6.2723e-05	435.32	3.7542e-06	2.0316e-06	1095.6	157.58	3.0801e-06	4.5721e-06	366.5	154.17	57.577	13.798	4.128e-06	37.658	0.00015871	0.00015655	4.2159e-05	399.69	1.6832e-06	1.5758e-06	1009.5	147.11	1.6644e-06	1.7209e-06	339.22	143.5	53.975	12.834	1.6822e-06	35.303	203.186	50.475	98.266	-26.678	137.286	146.809	-26.989	-24.861	169.154	106.832	-26.350	-24.626	-23.346	-22.165	102.091	-23.363	-8191	255	
1582.437	1	1	0	0	0.16952	0.065924	0.22045	0.035617	0.20738	0.2928	0.19568	0.21241	0.16888	0.076436	0.16	0.17122	0.10979	0.15314	0.15404	0.088442	-2.0208	-1.9125	-2.1688	-2.35	-1.9625	-2.5792	-2.3792	-2.1167	-2.2875	-1.8854	-2.3292	-2.3417	-1.9833	-2.4938	-2.2125	-2.0292	65.149	31.718	217.019	236.856	196.920	-32.581	263.722	183.012	280.689	113.123	247.722	254.809	193.218	228.222	8.254	283.106	0.00011103	0.00033722	0.00014582	428.76	2.2369e-06	5.4869e-07	1094.6	157.79	1.428e-06	4.2471e-06	370.12	154.3	57.339	13.784	4.2867e-06	37.978	0.00016806	0.00015565	4.2265e-05	396.51	1.7099e-06	1.6901e-06	1009.4	147.31	1.7172e-06	1.678e-06	340.67	144.04	54.006	12.903	1.6887e-06	35.498	212.238	25.137	62.398	-26.770	130.585	114.845	-27.121	-24.492	149.245	48.771	-25.891	-24.472	-22.963	-22.262	149.400	-23.267	-8191	255	
1582.533	1	1	0	0	0.15609	0.196	0.21761	0.098471	0.16984	0.20528	0.11866	0.19581	0.15953	0.097801	0.30278	0.15392	0.21809	0.19685	0.1917	0.15277	-2	-2.2771	-2.2083	-2.1854	-1.9125	-2.3854	-2.3771	-2	-2.4021	-2.0833	-2.175	-2.3542	-2.0583	-2.2208	-2.3187	-2.1146	217.514	88.070	159.932	-2.020	80.870	277.424	296.199	237.167	-31.747	284.434	-34.555	285.526	164.895	301.649	27.198	203.970	0.00011397	0.00040539	0.00015807	431.92	4.0792e-06	3.2049e-06	1093.3	158.62	2.8287e-06	3.0163e-06	365.98	153.96	57.458	13.714	1.5708e-06	38.269	0.00016988	0.0001601	4.3503e-05	397.19	1.7719e-06	1.6255e-06	1009.9	147.24	1.6732e-06	1.6286e-06	339.74	143.99	53.986	12.884	1.6751e-06	35.77	225.112	71.531	41.268	-26.522	90.511	112.787	-27.437	-24.600	140.696	144.086	-25.774	-24.399	-23.452	-21.896	131.754	-22.838	-8191	255	
1582.629	1	1	0	0	0.093144	0.20517	0.11228	0.36841	0.25526	0.24911	0.066761	0.14217	0.16214	0.34206	0.33751	0.24306	0.18044	0.20424	0.070298	0.10318	-1.8062	-2.0083	-1.9688	-2.4375	-2.0896	-2.1604	-2.5396	-1.9875	-2.2104	-2.025	-2.2125	-2.5292	-2.0938	-2.2646	-2.3438	-2.2375	73.074	317.503	62.917	-28.265	89.954	297.241	142.106	131.326	273.797	206.541	229.560	3.157	209.878	219.872	123.551	-2.503	0.00011767	0.00024819	9.6665e-05	428.34	1.9623e-06	2.5792e-06	1100.3	158.5	3.0782e-06	3.1586e-06	368.11	154.9	57.267	13.751	4.2468e-06	38.236	0.00016465	0.00015493	4.2953e-05	396.88	1.7633e-06	1.6815e-06	1012.6	147.41	1.6653e-06	1.688e-06	339.71	144.11	53.695	12.878	1.6591e-06	35.573	208.982	84.206	49.789	-27.164	114.993	96.021	-27.294	-24.444	158.214	105.488	-25.794	-24.489	-22.862	-21.741	133.187	-23.404	-8191	255	
1582.726	1	1	0	0	0.056128	0.13132	0.25536	0.17215	0.17502	0.28419	0.23713	0.20524	0.03383	0.20903	0.078008	0.17604	0.1984	0.23065	0.11654	0.37942	-2.0167	-2.1146	-2	-2.5187	-2.0062	-2.3167	-2.2313	-1.9438	-2.3875	-2.2375	-2.0646	-2.6708	-2.0542	-2.1458	-2.4271	-1.9854	79.614	-14.802	9.628	145.433	203.359	265.029	262.439	-28.793	13.788	302.016	22.515	-21.399	-13.773	247.170	154.454	144.985	0.0001276	0.00065379	0.00010519	428.79	2.7269e-06	3.2652e-06	1099	157.45	2.7641e-06	5.7801e-06	365.26	155.45	57.887	13.645	4.6408e-06	38.131	0.0001672	0.00015042	4.0429e-05	398.28	1.6783e-06	1.6804e-06	1014.2	146.81	1.5967e-06	1.6837e-06	338.36	145	54.092	12.815	1.658e-06	35.637	216.406	36.852	44.165	-26.508	164.385	104.138	-27.042	-24.474	152.715	114.917	-25.940	-24.424	-22.815	-22.511	143.895	-22.848	-8191	255	
1582.846	1	1	0	0	0.11179	0.10778	0.29344	0.12148	0.30439	0.12642	0.38542	0.2271	0.070124	0.19367	0.22851	0.02008	0.19333	0.10445	0.044053	0.12545	-1.8062	-2.2792	-2.1312	-2.4292	-2.175	-2.175	-2.3021	-1.8979	-2.3312	-2.1917	-1.9021	-2.5271	-2.0625	-2.2625	-2.3729	-1.9667	190.525	-19.649	53.662	202.372	136.951	211.129	294.199	186.441	256.333	134.121	264.505	181.704	133.255	54.997	-42.454	158.937	9.2081e-05	0.00031336	8.8373e-05	431.67	2.5867e-06	5.941e-06	1100.9	158.61	2.2369e-06	4.1567e-06	368.36	156.24	57.955	13.772	3.2239e-06	38.294	0.0001707	0.00015307	4.2151e-05	398.39	1.6789e-06	1.6741e-06	1013.9	147.09	1.7697e-06	1.6479e-06	339.09	145.56	54.501	12.892	1.6006e-06	35.847	198.405	34.071	53.457	-26.291	106.731	98.344	-27.391	-24.474	144.092	101.540	-26.039	-24.581	-23.216	-21.751	138.523	-23.091	-8191	255	
1582.941	1	1	0	0	0.23799	0.11422	0.10844	0.31496	0.17256	0.020759	0.1576	0.28185	0.069784	0.12424	0.18692	0.24343	0.13089	0.1608	0.13104	0.087722	-1.7083	-2.2542	-1.9688	-2.3	-2.1312	-2.1646	-2.5458	-2.1125	-2.2562	-2.375	-2.0167	-2.4729	-2.1042	-1.9583	-2.4479	-2.0438	-3.459	5.287	225.745	223.232	42.159	74.904	307.159	273.729	118.071	41.726	196.123	301.659	-19.156	46.122	-40.326	100.535	0.00012636	0.00035781	0.00011939	433.73	3.7512e-06	4.2713e-06	1101	158.03	2.1943e-06	5.048e-06	373.5	155.21	57.936	13.542	4.6415e-06	37.861	0.0001682	0.00014798	4.1911e-05	400.19	1.6634e-06	1.6595e-06	1015.4	146.97	1.6304e-06	1.5348e-06	342.67	144.66	54.309	12.728	1.5783e-06	35.448	221.925	52.624	16.112	-26.494	115.548	103.829	-27.023	-24.831	183.296	138.429	-26.176	-24.457	-23.478	-21.607	114.375	-22.520	-8191	255	
1583.037	1	1	0	0	0.09	0.12293	0.20846	0.2445	0.15904	0.14979	0.11008	0.15533	0.12557	0.17159	0.13712	0.27542	0.23343	0.19967	0.064954	0.15098	-1.675	-2.2354	-1.9125	-2.3187	-2.2938	-2.0646	-2.3438	-1.9646	-2.0583	-2.4437	-1.9562	-2.2625	-2.3354	-2.0646	-2.4354	-2.0021	300.589	308.686	290.499	-21.141	249.130	111.019	285.153	236.579	237.064	245.656	5.515	284.667	163.128	-26.882	113.570	-9.137	0.00010626	0.00049306	0.00014333	436.19	2.698e-06	2.2265e-06	1101.4	159.41	2.5762e-06	3.0727e-06	367.8	157.3	57.867	13.655	2.1871e-06	38.101	0.00016808	0.00014984	4.2151e-05	400.95	1.6193e-06	1.5958e-06	1015.8	147.92	1.6702e-06	1.5844e-06	339.17	146.24	54.472	12.765	1.4849e-06	35.474	203.892	65.057	29.222	-26.673	127.865	144.688	-27.343	-24.673	138.130	136.246	-25.782	-24.339	-23.349	-21.838	140.515	-23.130	-8191	255	
1583.133	1	1	0	0	0.21211	0.11618	0.14309	0.15491	0.11809	0.089566	0.09153	0.19053	0.32652	0.048022	0.21075	0.097724	0.36288	0.23143	0.14314	0.18655	-1.5729	-2.1104	-1.6958	-2.1	-2.3896	-2.15	-2.6437	-2.3333	-2.0833	-2.5021	-2.1688	-2.35	-2.2333	-2.0625	-2.2708	-2.2292	21.884	192.017	33.878	93.356	172.127	51.817	78.735	207.718	73.625	161.830	317.052	100.873	50.962	98.430	145.874	55.693	0.00012336	0.00054529	5.7176e-05	433.71	4.3314e-06	4.953e-06	1106.4	157.75	3.2826e-06	1.778e-06	368.37	157.64	58.059	13.378	3.9115e-06	37.986	0.0001674	0.00014145	4.1368e-05	400.21	1.5821e-06	1.5857e-06	1018.9	147.01	1.6475e-06	1.4518e-06	339.59	146.08	54.525	12.664	1.6207e-06	35.419	212.009	69.068	34.261	-26.766	132.535	115.779	-27.220	-24.460	137.816	129.104	-25.637	-24.215	-22.635	-21.785	124.445	-22.902	-8191	255	
1583.229	1	1	0	0	0.091277	0.27522	0.0085867	0.25358	0.10894	0.077668	0.20006	0.17334	0.0525	0.3496	0.11466	0.23147	0.16516	0.21383	0.20865	0.21395	-1.5583	-2.35	-2.2062	-2.1833	-2.4083	-1.9646	-2.4437	-2.1417	-2.3083	-2.3438	-2.0229	-2.3396	-2.3063	-1.7771	-2.2792	-2.1583	227.704	155.215	164.510	-30.399	314.324	156.152	190.097	291.056	-41.137	302.170	271.229	0.206	233.002	304.891	261.884	105.710	0.00010159	0.00041969	0.00013664	434.26	3.0336e-06	3.0689e-06	1099.4	157.56	2.2724e-06	3.4004e-06	366.16	153.66	57.289	13.643	3.2573e-06	37.922	0.00015859	0.00013893	4.1887e-05	399.37	1.5136e-06	1.5581e-06	1012.9	146.48	1.6123e-06	1.5473e-06	338.66	143.86	53.777	12.74	1.6086e-06	35.362	194.622	51.601	37.972	-26.946	148.635	113.514	-27.225	-24.723	157.666	110.269	-26.487	-24.286	-23.069	-21.929	116.535	-22.884	-8191	255	
1583.325	1	1	0	0	0.038001	0.18256	0.15744	0.37318	0.10862	0.16519	0.21642	0.17217	0.33335	0.045315	0.15988	0.40849	0.22942	0.1113	0.037907	0.16702	-1.4896	-2.3875	-1.9833	-2.3396	-2.3896	-2.1771	-2.5833	-2.2917	-2.1688	-2.3	-2.1437	-2.2875	-2.3604	-2.0667	-2.2354	-2.2917	263.771	-20.779	119.749	102.734	130.999	191.171	18.990	-17.759	8.059	8.276	281.502	257.639	227.517	251.373	121.329	297.644	0.00012567	0.00032135	0.0001152	429.41	2.5282e-06	2.1956e-06	1095.2	158.06	3.8946e-06	3.5216e-06	366.32	155.42	56.562	13.68	2.2671e-06	37.981	0.00016325	0.00014455	4.2139e-05	398.99	1.6413e-06	1.5527e-06	1012.4	146.56	1.7045e-06	1.6239e-06	338.21	144.7	53.77	12.838	1.6525e-06	35.57	207.127	44.774	43.509	-26.777	149.005	81.523	-27.493	-25.021	157.475	142.340	-26.006	-24.456	-23.053	-22.196	131.036	-23.231	-8191	255	
1583.446	1	1	0	0	0.11308	0.087386	0.072578	0.24583	0.27384	0.16903	0.16237	0.1586	0.080898	0.08609	0.16898	0.24639	0.15346	0.14657	0.0399	0.2427	-1.6646	-2.25	-2.0521	-2.3167	-2.35	-2.0042	-2.5083	-2.4375	-1.9562	-2.5479	-2.2521	-2.2979	-2.4188	-2.1333	-2.3708	-2.4583	289.352	117.493	44.606	63.497	264.079	-15.136	216.896	41.204	1.603	298.022	301.276	272.595	291.691	227.970	218.704	174.614	9.6214e-05	0.00018679	5.565e-05	432.16	1.4364e-06	2.1644e-06	1100.6	156.14	2.4995e-06	2.6558e-06	364.36	155.41	57.623	13.584	3.9825e-06	37.858	0.00016719	0.00014828	4.335e-05	398.4	1.6548e-06	1.5749e-06	1015.5	146.26	1.7428e-06	1.6755e-06	336.97	144.8	54.039	12.734	1.6193e-06	35.587	209.817	78.888	-6.598	-26.629	120.860	102.281	-27.274	-24.326	127.318	79.609	-26.208	-24.312	-23.310	-21.625	132.469	-23.222	-8191	255	
1583.542	1	1	0	0	0.11551	0.063192	0.060651	0.16029	0.16326	0.12672	0.24103	0.15262	0.23806	0.17245	0.24308	0.25728	0.26222	0.084076	0.1639	0.050455	-1.5521	-2.5042	-2.225	-1.9979	-2.6271	-1.9937	-2.35	-2.3833	-2.175	-2.3563	-2.3604	-2.2917	-2.6125	-2.0396	-2.1937	-2.6333	152.254	240.543	-18.360	297.309	117.566	46.881	317.014	208.016	161.775	39.064	-4.167	264.717	176.398	198.768	299.823	275.905	8.9815e-05	0.0003368	0.00012413	429.16	3.6679e-06	4.1172e-06	1099.7	158.59	2.0624e-06	4.4447e-06	367.39	156.54	57.608	13.579	1.9942e-06	38.156	0.00017154	0.00016051	4.3786e-05	398.81	1.6582e-06	1.6304e-06	1017.4	147	1.694e-06	1.684e-06	338.91	145.6	53.939	12.739	1.6792e-06	35.601	204.917	68.230	31.829	-26.528	124.792	122.878	-27.206	-24.459	154.054	81.373	-25.967	-24.667	-23.089	-21.672	158.115	-22.740	-8191	255	
1583.638	1	1	0	0	0.1762	0.092849	0.33147	0.13869	0.23763	0.33322	0.11663	0.30213	0.14573	0.037901	0.010653	0.20915	0.24131	0.28273	0.023244	0.13767	-1.6875	-2.5312	-2.1625	-1.8979	-2.5229	-2.1042	-2.1729	-2.4333	-2.0896	-2.3771	-2.2333	-2.1063	-2.5208	-2.2708	-2.4292	-2.5563	240.553	161.267	308.278	222.567	216.338	217.319	-28.535	251.425	6.825	169.232	81.810	-33.585	-29.148	-33.242	65.080	229.651	0.000112	0.00042417	8.7758e-05	433.23	3.0395e-06	3.3575e-06	1096.1	157.97	1.8607e-06	2.6475e-06	365.72	156.53	57.313	13.564	2.729e-06	38.28	0.00016587	0.00014706	4.2678e-05	400.32	1.6006e-06	1.6593e-06	1018.1	147.07	1.621e-06	1.6469e-06	339.47	145.79	53.999	12.72	1.5662e-06	35.607	205.507	46.467	81.566	-26.688	86.638	139.071	-27.068	-24.635	162.627	103.526	-25.795	-24.705	-22.926	-21.358	105.816	-23.021	-8191	255	
1583.734	1	1	0	0	0.21953	0.21905	0.2028	0.17226	0.027889	0.16418	0.099094	0.03176	0.18878	0.15776	0.14745	0.26989	0.014489	0.31075	0.065187	0.10442	-1.5542	-2.2479	-2.1604	-2.0479	-2.45	-2.0125	-2.4062	-2.4646	-2.0625	-2.1167	-2.3125	-2.0438	-2.2438	-2.1958	-1.9833	-2.6146	124.138	102.704	61.362	218.711	-37.559	203.676	197.548	25.788	292.866	93.111	176.470	253.928	230.432	70.791	193.394	212.030	0.00011329	0.00042354	5.8556e-05	431.39	5.0739e-06	4.3348e-06	1105.9	157.89	2.4663e-06	2.8105e-06	366.45	157.31	57.874	13.425	3.8508e-06	37.93	0.00016865	0.00014373	4.0743e-05	400.34	1.6536e-06	1.6882e-06	1020.5	146.92	1.6743e-06	1.5926e-06	339.77	145.89	54.342	12.7	1.5339e-06	35.458	200.753	85.903	18.878	-26.704	121.387	118.905	-27.207	-24.547	105.249	94.865	-26.043	-24.451	-22.706	-21.862	119.770	-22.946	-8191	255	
1583.806	1	1	0	0	0.099148	0.065692	0.25141	0.41389	0.19846	0.088514	0.22708	0.33022	0.28568	0.16351	0.091561	0.11729	0.080297	0.17197	0.1354	0.08809	-1.6292	-2.1667	-2.3917	-1.8083	-2.3792	-2.0771	-1.9854	-2.4604	-1.9396	-2.0229	-2.2896	-2.0979	-2.2313	-2.3417	-2.1833	-2.5396	229.177	305.164	167.816	231.213	178.031	233.301	280.299	-9.578	6.058	1.534	101.784	14.267	249.976	75.679	238.046	-19.232	0.00010016	0.00034313	0.00012598	433.54	4.3679e-06	1.1552e-06	1104.9	158.83	2.5651e-06	1.4717e-06	364.9	156.96	57.656	13.606	2.572e-06	38.229	0.00015953	0.00014212	4.1541e-05	400.17	1.5571e-06	1.5795e-06	1021.9	147.41	1.6195e-06	1.64e-06	337.92	146.24	54.185	12.702	1.6522e-06	35.614	219.182	1.768	52.069	-26.671	111.088	125.595	-27.168	-24.349	147.420	135.695	-26.018	-24.287	-23.062	-22.005	102.376	-22.919	-8191	255	
1583.925	1	1	0	0	0.17013	0.18573	0.11891	0.17565	0.16198	0.078039	0.063806	0.14123	0.14237	0.10061	0.16808	0.23849	0.20689	0.18254	0.07031	0.23177	-1.6375	-2.2104	-2.2646	-2.0625	-2.2042	-2.2542	-2.2167	-2.4	-2.2083	-2.0104	-2.4188	-1.9396	-2.2583	-2.3875	-1.7708	-2.4729	107.105	16.951	109.663	238.784	99.761	299.951	222.951	309.655	274.878	215.572	292.052	306.398	164.965	-33.373	291.542	278.997	0.00011259	0.00043751	0.00013438	434.36	5.2287e-06	2.9335e-06	1110	158.2	3.011e-06	5.0932e-06	368.15	156.51	57.388	13.431	3.4786e-06	38.308	0.00015957	0.00015275	3.9682e-05	401.52	1.616e-06	1.5682e-06	1021.3	146.94	1.6334e-06	1.5631e-06	338.46	145.8	54.115	12.647	1.5551e-06	35.573	206.691	84.004	52.494	-26.889	143.856	118.384	-27.351	-24.797	133.453	110.334	-25.764	-24.425	-23.203	-21.976	138.948	-22.871	-8191	255	
1584.021	1	1	0	0	0.18971	0.099447	0.11498	0.20148	0.088423	0.22075	0.18857	0.13651	0.13145	0.1317	0.28414	0.033316	0.059233	0.17191	0.23581	0.23275	-1.7771	-2.15	-2.3208	-2.0875	-2.3271	-2.4083	-2.1333	-2.4917	-2.2771	-2.0021	-2.6646	-2.125	-2.3333	-2.4021	-2.0375	-2.4	278.572	38.681	262.838	304.213	160.948	193.218	289.135	149.911	315.116	212.700	295.897	-39.378	87.921	291.124	122.359	266.889	9.3963e-05	0.0003036	7.6075e-05	430.97	5.0376e-06	2.8787e-06	1104.4	158.25	1.5083e-06	2.6222e-06	366.96	156.19	57.833	13.678	4.1664e-06	38.367	0.00016895	0.00015496	4.1758e-05	399.21	1.6588e-06	1.5314e-06	1020	146.81	1.6744e-06	1.5947e-06	337.94	145.9	54.1	12.763	1.6914e-06	35.777	216.216	-2.733	36.577	-26.670	153.995	139.548	-27.398	-24.924	102.362	112.322	-25.927	-24.266	-23.031	-22.246	113.654	-23.315	-8191	255	
1584.117	1	1	0	0	0.31723	0.28219	0.073533	0.076213	0.31307	0.31619	0.14562	0.095653	0.19986	0.10649	0.21673	0.17592	0.082053	0.17309	0.34329	0.025973	-2.0042	-1.8854	-2.5042	-2.1167	-2.1729	-2.4396	-2.2354	-2.3625	-2.2458	-2.0104	-2.5875	-2.3833	-2.0917	-2.4458	-1.8417	-2.6	256.071	244.204	272.641	34.111	218.265	307.324	268.676	100.016	285.820	151.094	223.567	17.316	315.547	-31.486	262.354	31.114	8.5656e-05	0.00029101	8.459e-05	431.51	3.5689e-06	4.5411e-06	1107.4	157.43	2.279e-06	4.632e-06	367.13	156.72	57.664	13.665	3.2078e-06	38.556	0.00016663	0.00014869	3.9922e-05	399.22	1.6281e-06	1.6592e-06	1021.1	147.11	1.656e-06	1.5994e-06	339.28	146.42	54.182	12.792	1.6823e-06	35.858	218.685	105.491	55.066	-26.788	117.190	129.550	-27.375	-24.450	158.853	94.149	-25.842	-24.268	-23.271	-22.212	109.128	-22.741	-8191	255	
1584.238	1	1	0	0	0.18617	0.12669	0.16229	0.21174	0.072415	0.15824	0.10883	0.11398	0.19212	0.11485	0.05017	0.28065	0.22646	0.1084	0.20988	0.093183	-1.8729	-1.9083	-2.5271	-2.4188	-2.1625	-2.4104	-2.0458	-2.2313	-2.3729	-2.0938	-2.6562	-2.2229	-2.0708	-2.4208	-2.1104	-2.4	266.631	217.978	194.343	293.449	244.656	13.326	125.255	246.705	145.350	56.018	130.905	251.722	-5.738	192.685	11.746	269.466	0.0001109	0.00051343	0.00010116	432.08	5.3657e-06	1.8475e-06	1104.2	157.9	3.4859e-06	3.6025e-06	365.21	157.19	57.204	13.523	2.7564e-06	38.239	0.0001643	0.00015613	3.9855e-05	398.28	1.6609e-06	1.5927e-06	1019.4	146.6	1.6967e-06	1.6321e-06	337.85	145.92	53.964	12.747	1.6623e-06	35.663	204.842	29.934	3.287	-26.604	124.587	96.143	-27.446	-24.816	100.407	107.864	-25.935	-24.549	-22.829	-21.995	126.311	-22.827	-8191	255	
1584.334	1	1	0	0	0.28351	0.46006	0.31676	0.2596	0.15471	0.23707	0.057607	0.26637	0.09995	0.082008	0.32115	0.29185	0.15668	0.18997	0.10254	0.31468	-1.8146	-2.0104	-2.3375	-2.0646	-2.125	-2.2208	-2.2812	-2.4333	-2.5104	-2.025	-2.4792	-2.2979	-2.2604	-2.3792	-2.1063	-2.4437	-15.680	187.619	231.885	108.633	249.600	89.069	146.335	203.899	163.968	-14.681	8.258	287.753	285.429	277.197	138.514	205.636	0.00010633	0.00035453	7.3407e-05	430.43	2.4194e-06	2.5186e-06	1100.2	157.1	2.5845e-06	3.3326e-06	367.24	156.38	57.953	13.758	1.7873e-06	38.419	0.00016626	0.00015413	4.2906e-05	396.81	1.7132e-06	1.5761e-06	1015.5	146.62	1.7188e-06	1.648e-06	338.54	145.62	54.185	12.886	1.6582e-06	35.801	204.284	40.552	20.564	-26.816	149.722	109.983	-27.289	-24.903	126.103	55.556	-26.100	-24.510	-22.919	-22.074	138.444	-23.153	-8191	255	
1584.430	1	1	0	0	0.041559	0.20483	0.073189	0.052903	0.22339	0.18094	0.20489	0.2107	0.10768	0.071461	0.098262	0.096266	0.064235	0.061752	0.043153	0.27464	-1.8687	-1.9896	-2.4333	-2.1729	-2.0167	-2.4354	-2.1542	-2.4104	-2.3333	-2.0021	-2.5271	-2.5521	-2.1937	-2.5146	-2.3063	-2.3646	106.452	152.428	287.990	122.538	162.636	236.279	262.570	238.952	69.109	111.319	276.696	255.864	92.481	65.915	56.968	178.584	9.6066e-05	0.00031171	4.478e-05	431.67	6.2676e-06	4.1714e-06	1101.3	157.09	1.8133e-06	2.5179e-06	367.06	155.6	56.652	13.539	4.9627e-06	38.142	0.00016285	0.0001631	4.3774e-05	397.67	1.7735e-06	1.6278e-06	1015.7	146.74	1.6566e-06	1.6718e-06	338.26	145.03	53.612	12.717	1.7597e-06	35.726	184.655	39.039	18.060	-26.959	140.330	140.839	-27.330	-25.001	134.627	125.761	-26.080	-24.516	-23.210	-22.088	156.471	-23.315	-8191	255	
1584.526	1	1	0	0	0.14984	0.093222	0.13569	0.10652	0.18581	0.20581	0.092838	0.25108	0.058834	0.19719	0.17963	0.29741	0.19702	0.23297	0.15514	0.13872	-2.0792	-1.9521	-2.1104	-2.2833	-1.8792	-2.4583	-2.2229	-2.1167	-2.4417	-2.175	-2.2729	-2.6125	-2.0521	-2.3917	-2.2875	-2.125	87.675	155.393	115.079	8.283	262.643	1.968	230.991	273.867	60.064	69.447	229.054	212.767	300.143	303.675	264.364	293.090	9.0873e-05	0.00051272	0.00011064	428.04	3.8716e-06	2.4073e-06	1098.9	157.15	1.7754e-06	2.0143e-06	365.36	156.61	57.388	13.616	3.4865e-06	38.027	0.00016445	0.00015027	4.1899e-05	396.33	1.6131e-06	1.6176e-06	1013.1	146.72	1.7718e-06	1.5694e-06	337.12	145.53	53.895	12.769	1.6796e-06	35.605	194.430	52.754	16.799	-26.551	146.361	112.448	-27.432	-24.386	127.942	117.666	-26.167	-24.315	-23.293	-21.899	109.681	-23.287	-8191	255	
1584.622	1	1	0	0	0.061219	0.28767	0.25335	0.10276	0.22262	0.033597	0.24759	0.022102	0.13999	0.22157	0.26594	0.23589	0.05483	0.049811	0.23019	0.21164	-1.9958	-1.9333	-2.1604	-2.3896	-2.0062	-2.3479	-2.4667	-2.0187	-2.4688	-2.0187	-2.1667	-2.4625	-1.9771	-2.2667	-2.2833	-2.0375	-12.588	133.038	161.880	115.696	146.542	205.940	256.581	251.836	61.618	187.877	68.038	275.489	154.038	-8.694	293.618	306.859	9.4906e-05	0.00026234	0.00011162	432.45	2.883e-06	3.4291e-06	1099.7	157.56	2.6151e-06	3.0953e-06	364.26	156.32	57.234	13.585	3.4813e-06	38.638	0.00016327	0.00014953	4.1675e-05	398.38	1.6658e-06	1.6779e-06	1015.9	146.21	1.6032e-06	1.5512e-06	337.22	145.64	54.132	12.787	1.7031e-06	35.82	201.634	76.107	33.005	-26.688	174.351	98.098	-27.408	-24.589	152.122	134.498	-25.819	-24.525	-22.986	-21.402	129.754	-22.872	-8191	255	
1584.718	1	1	0	0	0.18328	0.3086	0.26083	0.2389	0.2313	0.14677	0.23567	0.11489	0.036663	0.16551	0.13805	0.41084	0.1128	0.40461	0.088319	0.16874	-1.8375	-2.1021	-2.1271	-2.3646	-2.0979	-2.2917	-2.4437	-2.0854	-2.3937	-2.2375	-2.2792	-2.3396	-1.9792	-2.3104	-2.3688	-1.9771	113.475	110.689	65.065	280.569	3.497	49.975	241.880	281.585	172.984	212.701	224.216	315.277	177.471	63.434	51.940	-19.471	8.7758e-05	0.00057974	6.5977e-05	432.57	3.5736e-06	4.4267e-06	1101.3	157.99	1.8153e-06	4.9999e-06	366.43	156.09	57.866	13.63	4.3267e-06	38.213	0.00017023	0.00014718	4.3145e-05	399.01	1.685e-06	1.6182e-06	1016.5	146.66	1.5676e-06	1.5969e-06	337.47	145.68	54.19	12.787	1.5231e-06	35.741	217.692	45.759	100.732	-27.135	102.859	124.926	-27.509	-24.586	104.802	123.071	-25.899	-24.512	-23.161	-21.849	127.184	-23.193	-8191	255	
1584.815	1	1	0	0	0.19202	0.17236	0.065093	0.22934	0.23836	0.37137	0.088773	0.1112	0.13215	0.051718	0.056074	0.14323	0.058138	0.07606	0.22249	0.10076	-2.0396	-2.1146	-2.1333	-2.5187	-2.0208	-2.0833	-2.6	-1.9708	-2.4188	-2.2562	-2.05	-2.5604	-2.1333	-2.0062	-2.35	-1.9208	170.364	178.477	205.488	266.969	100.634	-10.217	161.952	119.279	223.904	95.245	244.371	-37.342	60.960	26.174	91.537	301.844	0.00012945	0.00043398	7.9333e-05	431.67	2.4249e-06	1.7488e-06	1104.4	158.34	2.3435e-06	2.5729e-06	366.91	156.19	57.63	13.594	4.1184e-06	38.147	0.00016469	0.00014997	4.3346e-05	400.22	1.6106e-06	1.6121e-06	1018.5	146.94	1.6288e-06	1.6391e-06	337.96	145.87	54.171	12.784	1.5347e-06	35.691	216.399	11.534	31.926	-26.771	147.679	147.569	-26.958	-24.667	166.644	101.282	-25.806	-24.369	-22.857	-22.048	164.959	-23.209	-8191	255	
1584.935	1	1	0	0	0.27654	0.2833	0.090769	0.2339	0.093009	0.19441	0.40323	0.31725	0.053094	0.17555	0.11002	0.16774	0.066138	0.16831	0.18785	0.26033	-1.9646	-2.1542	-2.0354	-2.4292	-2.0417	-2.3042	-2.4083	-2.0438	-2.3354	-2.225	-2.2271	-2.525	-2.1604	-2.1979	-2.5417	-2.1917	209.901	0.220	38.831	-11.060	-34.527	82.667	290.911	88.484	-21.345	2.337	57.165	295.680	317.040	71.492	232.143	-4.374	9.3943e-05	0.00054001	9.2046e-05	431.94	3.7108e-06	5.1818e-06	1103.8	157.62	3.2555e-06	2.5398e-06	364.73	157.03	57.896	13.679	4.6044e-06	38.437	0.00016459	0.00014707	4.1616e-05	398.91	1.5958e-06	1.6547e-06	1017.4	146.41	1.6608e-06	1.6747e-06	336.65	146.34	54.267	12.908	1.5707e-06	35.895	204.118	31.909	33.647	-26.571	131.004	93.243	-27.598	-24.914	145.694	81.969	-26.072	-24.908	-23.181	-22.027	141.445	-23.402	-8191	255	
1585.030	1	1	0	0	0.17113	0.17941	0.073598	0.14827	0.14979	0.25475	0.1376	0.44595	0.19668	0.0095039	0.16246	0.22204	0.32629	0.14596	0.10158	0.27994	-1.7625	-2.1333	-2.0104	-2.4417	-2.1875	-1.9229	-2.5438	-1.9062	-2.3729	-2.2792	-2.0667	-2.5812	-2.0667	-2.1917	-2.3104	-2.3104	152.238	-31.958	294.271	302.323	185.309	285.485	67.833	297.841	236.733	15.128	259.003	272.957	248.083	45.910	16.739	288.911	7.9235e-05	0.00049218	6.3887e-05	432.06	3.6505e-06	4.7731e-06	1101.4	157.5	2.1553e-06	3.1926e-06	363.76	157.22	57.704	13.919	2.0755e-06	38.62	0.00016192	0.00014806	4.2792e-05	398.01	1.6637e-06	1.677e-06	1015.8	146.91	1.5951e-06	1.682e-06	337.35	146.39	54.179	13.038	1.5513e-06	36.036	210.590	34.969	75.976	-26.774	123.157	134.016	-27.704	-24.458	162.804	124.885	-26.029	-24.307	-23.286	-22.337	-35.470	-23.006	-8191	255	
1585.101	1	1	0	0	0.057164	0.13766	0.16912	0.30222	0.17949	0.036878	0.1233	0.31263	0.21551	0.18387	0.17437	0.10773	0.16539	0.16051	0.25774	0.13475	-1.6833	-2.4375	-1.8042	-2.2208	-2.1771	-2.025	-2.3958	-2.0938	-2.0667	-2.5042	-1.9521	-2.3063	-2.1917	-2.0104	-2.375	-1.9917	289.180	56.767	118.770	-13.751	130.812	298.445	266.489	296.998	64.707	136.183	-37.372	209.235	315.249	185.239	102.324	57.096	0.00012299	0.0007619	0.00011352	429.67	2.3376e-06	2.3619e-06	1098.3	158.07	6.7648e-07	3.8305e-06	368.07	156.1	57.213	13.938	2.8511e-06	38.766	0.00017034	0.00014574	4.2477e-05	396.6	1.6709e-06	1.6433e-06	1014.2	147.06	1.6672e-06	1.6503e-06	339.35	144.92	53.814	13.091	1.6571e-06	36.198	214.479	38.740	8.723	-26.501	148.459	118.185	-27.490	-25.006	127.157	106.355	-26.585	-24.549	-22.887	-22.249	106.519	-23.302	-8191	255	
1585.222	1	1	0	0	0.20044	0.293	0.10811	0.44186	0.27971	0.14415	0.17757	0.043679	0.049901	0.12666	0.060517	0.13115	0.10487	0.14275	0.18994	0.16946	-1.6979	-2.3312	-1.8292	-2.2625	-2.05	-2.1229	-2.5271	-2.1167	-2.3292	-2.5042	-2.1417	-2.1729	-2.3563	-1.9229	-2.3875	-2.2292	182.246	123.341	152.813	290.713	245.258	77.427	189.980	172.759	131.880	203.292	14.734	312.400	85.202	-25.440	67.055	289.166	0.00010256	0.00056043	6.0325e-05	426.79	2.3594e-06	3.3539e-06	1094.3	157.23	3.2951e-06	3.4077e-06	365.45	154.76	56.24	13.848	3.0441e-06	38.641	0.00017333	0.00015759	4.1832e-05	396.4	1.6913e-06	1.6651e-06	1009.7	146.54	1.7331e-06	1.6264e-06	338.44	144.64	53.416	13.013	1.6068e-06	35.981	192.710	43.825	31.284	-26.804	144.560	79.615	-27.278	-25.008	135.967	96.767	-26.156	-24.373	-23.508	-22.115	138.586	-23.128	-8191	255	
1585.318	1	1	0	0	0.17284	0.057201	0.22763	0.16421	0.074486	0.043847	0.15048	0.099314	0.11694	0.03762	0.073855	0.10806	0.13911	0.060501	0.18979	0.11664	-1.6833	-2.2458	-2.1333	-2.2083	-2.3438	-1.9042	-2.3583	-2.0187	-2.175	-2.4792	-2.0563	-2.4062	-2.3292	-2.025	-2.5104	-2.2396	277.231	140.134	200.275	123.217	99.550	168.336	200.761	-39.125	300.428	5.156	300.097	-32.209	195.047	309.359	-2.810	-12.338	0.00011704	0.00022587	6.5022e-05	426.89	1.6848e-06	3.138e-06	1093.2	156.27	3.2217e-06	3.6279e-06	365.52	155.48	57.265	13.75	2.9175e-06	38.639	0.00016362	0.00014534	4.2174e-05	395.63	1.642e-06	1.6461e-06	1008.9	145.75	1.6597e-06	1.5439e-06	335.78	144.78	53.728	12.941	1.5585e-06	35.985	207.123	80.848	59.956	-26.847	107.515	93.547	-27.261	-24.423	114.349	102.771	-26.264	-24.190	-23.250	-22.011	122.174	-23.008	-8191	255	
1585.414	1	1	0	0	0.065496	0.29335	0.075246	0.16963	0.32288	0.19063	0.33412	0.21569	0.12396	0.23381	0.15782	0.10658	0.20891	0.22178	0.11362	0.25378	-1.625	-2.3896	-2.0958	-2.4021	-2.3979	-2.1458	-2.3604	-2.2146	-1.8854	-2.3937	-2.1479	-2.1667	-2.2812	-2.0792	-2.2438	-2.3063	314.975	155.569	246.088	255.184	52.867	103.404	270.867	143.733	131.129	28.277	294.936	131.181	292.632	184.301	-14.905	271.779	0.00013495	0.00038053	0.00012066	427.79	3.2751e-06	3.8218e-06	1095.6	157.49	2.2193e-06	4.7966e-06	365.59	154.87	56.937	13.807	1.8087e-06	38.697	0.0001682	0.00014156	4.2756e-05	396.57	1.5025e-06	1.6927e-06	1011.2	146.39	1.5843e-06	1.5648e-06	336.67	144.99	53.692	12.857	1.6424e-06	35.914	213.657	46.852	36.753	-26.815	135.544	133.051	-26.892	-25.191	165.656	117.348	-26.453	-24.543	-23.177	-21.640	119.560	-23.074	-8191	255	
1585.510	1	1	0	0	0.18523	0.24806	0.072596	0.069484	0.12932	0.23251	0.34415	0.11882	0.33863	0.10777	0.48813	0.31746	0.066972	0.24885	0.11307	0.19976	-1.4208	-2.2604	-2.0208	-2.0625	-2.2396	-2.1167	-2.2812	-2.2479	-1.8417	-2.5146	-2.0729	-2.325	-2.3208	-2.0792	-2.3292	-2.2375	79.281	-15.251	289.722	265.035	129.957	306.729	219.111	246.102	192.436	-22.138	303.982	246.671	119.890	173.318	-26.652	75.080	0.00011498	0.00031904	7.2962e-05	429.14	4.6452e-06	5.5129e-06	1101.8	157.31	1.5876e-06	4.1585e-06	362.56	157.76	57.637	13.534	3.978e-06	38.08	0.0001618	0.00014635	4.0586e-05	397.89	1.6139e-06	1.5924e-06	1017.9	146.42	1.6183e-06	1.5469e-06	336.28	146.07	54.17	12.816	1.5863e-06	35.772	205.169	61.542	39.549	-26.791	137.304	95.986	-27.201	-24.442	136.575	74.417	-26.281	-24.498	-23.025	-21.611	137.579	-23.042	-8191	255	
1585.631	1	1	0	0	0.17148	0.20981	0.28013	0.33164	0.059098	0.23213	0.15223	0.025886	0.079117	0.24588	0.18109	0.1538	0.22596	0.080555	0.0038589	0.056991	-1.4062	-2.4333	-2.0938	-2.0354	-2.5062	-2.0708	-2.3	-2.4229	-1.975	-2.2333	-2.2333	-2.0958	-2.2542	-1.9667	-2.2208	-2.3917	309.171	270.526	304.013	232.553	-31.085	-23.511	159.765	175.979	64.847	64.839	-41.326	259.400	-0.212	56.661	251.974	-7.554	0.0001028	0.00074285	0.0001048	431.39	3.1855e-06	4.6566e-06	1102.2	156.85	1.8791e-06	2.2508e-06	363.11	156.58	57.83	13.811	4.3596e-06	38.823	0.00016085	0.00014697	3.9265e-05	397.14	1.5757e-06	1.5969e-06	1016.9	145.97	1.5698e-06	1.5208e-06	335.96	145.87	54.13	12.992	1.6112e-06	36.08	193.594	34.858	30.802	-26.602	90.257	103.765	-27.504	-24.256	166.929	112.337	-25.983	-24.282	-23.179	-22.150	123.620	-23.705	-8191	255	
1585.727	1	1	0	0	0.060888	0.20106	0.041376	0.16419	0.16006	0.10567	0.1768	0.34289	0.10706	0.26443	0.24893	0.40418	0.24799	0.23569	0.10067	0.029322	-1.2563	-2.1604	-2.2271	-2.0917	-2.2417	-2.1396	-2.0667	-2.2792	-1.9542	-2.5042	-2.5708	-2.0833	-2.6271	-2.2542	-2.1292	-2.55	258.581	262.392	137.549	317.320	197.468	240.896	209.462	206.733	168.874	-2.634	270.125	276.098	156.821	219.044	207.507	92.792	0.00011841	0.00042022	7.1532e-05	429.36	2.6024e-06	5.5642e-06	1093.9	156.62	2.3751e-06	4.5935e-06	364.13	156.08	57.446	13.906	2.9188e-06	38.677	0.00015884	0.00014605	4.2839e-05	396.61	1.6173e-06	1.5898e-06	1009.9	145.8	1.5759e-06	1.6085e-06	335.31	145.45	54.084	13.008	1.533e-06	36.11	221.550	51.538	9.787	-26.879	149.024	117.303	-27.179	-24.443	117.464	120.672	-25.709	-24.261	-22.645	-21.792	215.057	-23.242	-8191	255	
1585.799	1	1	0	0	0.036508	0.1886	0.25174	0.16447	0.037063	0.18537	0.15183	0.11391	0.15831	0.095553	0.22907	0.15213	0.1793	0.27615	0.44178	0.13689	-1.3958	-2.3812	-1.9917	-1.8875	-2.6333	-2.0667	-2.2521	-2.2979	-2.0687	-2.2042	-2.4271	-1.9375	-2.3896	-2.1083	-2.0896	-2.3146	110.995	90.635	189.507	306.861	16.390	204.910	38.464	-27.785	35.887	226.540	262.146	258.727	231.137	194.473	311.170	37.921	0.00011888	0.0004092	4.5505e-05	427.16	2.3524e-06	2.3763e-06	1097.9	157.4	3.0089e-06	2.5516e-06	360.63	155.31	56.736	13.927	2.0919e-06	38.669	0.00016813	0.00014597	3.9867e-05	396.89	1.5941e-06	1.5275e-06	1012.9	146.53	1.6561e-06	1.6208e-06	334.52	145.03	53.49	13.004	1.6146e-06	35.896	208.885	64.698	47.668	-26.814	169.761	139.038	-27.536	-24.989	124.391	118.696	-26.489	-24.202	-23.108	-21.522	125.477	-23.264	-8191	255	
1585.895	1	1	0	0	0.16124	0.17527	0.13131	0.066564	0.26985	0.15865	0.0091879	0.25946	0.26346	0.082175	0.10769	0.13561	0.29058	0.28983	0.19724	0.2088	-1.7042	-2.2375	-2.2271	-2.0333	-2.2979	-2.3208	-2.1917	-2.6229	-2.1479	-2.3792	-2.3312	-2.1396	-2.3083	-2.1604	-1.9833	-2.5167	224.254	158.374	200.969	18.217	-13.359	247.467	15.563	-32.801	313.532	300.853	-4.689	293.849	173.011	278.265	274.431	245.624	0.00010269	0.00038989	8.0136e-05	428.85	1.2626e-06	2.9794e-06	1092.5	156.81	1.4168e-06	5.0537e-06	363.73	154.66	56.979	13.957	1.7397e-06	38.08	0.0001676	0.00014611	4.0024e-05	395.48	1.6522e-06	1.6947e-06	1008.4	146.23	1.6678e-06	1.6749e-06	336.03	143.89	53.476	13.032	1.6675e-06	35.646	194.526	86.300	48.419	-26.132	182.379	89.654	-27.371	-24.317	101.159	116.438	-26.471	-24.507	-22.962	-22.207	114.040	-23.134	-8191	255	
1586.014	1	1	0	0	0.13847	0.17228	0.18234	0.2138	0.26953	0.27755	0.21338	0.095824	0.087303	0.036166	0.070829	0.064065	0.19853	0.075566	0.070371	0.10229	-1.6271	-2.1271	-2.4292	-2.0667	-2.4167	-2.4	-2.2438	-2.4354	-2.3021	-2.0958	-2.4354	-2.1875	-2.275	-2.2729	-1.7917	-2.4938	-38.216	120.058	17.188	314.496	-26.924	43.999	268.749	-8.839	6.726	90.276	173.751	-41.183	233.437	76.829	-7.423	239.357	8.9539e-05	0.00032505	0.00013955	421.46	1.6801e-06	3.3335e-06	1091.4	156.35	2.8258e-06	3.7702e-06	360.79	153.18	56.624	13.945	1.3012e-06	38.081	0.00017358	0.00015406	4.1817e-05	393.34	1.6447e-06	1.5046e-06	1007.7	145.67	1.7103e-06	1.5501e-06	334.43	142.94	53.138	12.99	1.6488e-06	35.519	199.677	49.130	34.201	-26.594	100.918	124.793	-27.246	-24.685	161.736	78.621	-26.413	-24.612	-23.190	-22.579	146.065	-23.168	-8191	255	
1586.110	1	1	0	0	0.18269	0.11441	0.21463	0.086159	0.35205	0.31388	0.1872	0.21389	0.059398	0.089532	0.24528	0.21146	0.13679	0.14272	0.047053	0.047659	-1.5375	-2.0021	-2.4375	-2.0354	-2.3708	-2.4688	-2.2188	-2.4188	-2.1583	-2.0917	-2.5021	-2.2708	-2.1021	-2.2792	-1.8854	-2.3604	101.209	225.517	40.117	162.945	119.595	257.990	301.253	197.401	111.245	-0.033	251.871	268.770	242.740	31.310	172.499	112.864	0.00010337	0.00042764	7.1399e-05	431.26	3.6779e-06	3.1602e-06	1099.6	157.28	9.0995e-07	4.8127e-06	364.86	154	56.329	13.606	2.7057e-06	37.574	0.00016555	0.00015063	3.695e-05	397.08	1.5765e-06	1.5409e-06	1012.2	146.47	1.6204e-06	1.53e-06	337.07	143.24	53.193	12.847	1.5076e-06	35.056	208.434	53.548	58.220	-27.068	115.514	106.047	-27.374	-24.913	156.580	128.421	-25.895	-24.333	-23.248	-21.808	147.025	-23.374	-8191	255	
1586.206	1	1	0	0	0.14692	0.032736	0.32696	0.14557	0.24898	0.31077	0.36476	0.15707	0.13957	0.39863	0.32279	0.078516	0.28277	0.25074	0.079522	0.21816	-1.6646	-1.9208	-2.4354	-2.0479	-2.1021	-2.2896	-2.1833	-2.3937	-2.25	-2.0771	-2.4271	-2.0312	-2.3167	-2.2708	-1.9	-2.2083	260.523	114.375	29.038	89.969	14.180	30.985	275.004	26.092	147.898	161.008	211.849	5.928	99.942	289.108	141.623	281.861	9.8541e-05	0.00051969	5.6095e-05	430.49	2.6647e-06	3.7547e-06	1095.6	158.09	2.364e-06	2.6626e-06	364.12	155.63	57.179	13.78	5.1528e-06	38.471	0.00015626	0.0001416	3.6659e-05	396.44	1.5718e-06	1.474e-06	1013	146.99	1.5466e-06	1.539e-06	336.9	145.13	53.942	12.96	1.5305e-06	35.831	212.763	65.984	11.396	-26.568	83.211	133.722	-27.340	-24.429	179.145	130.427	-26.032	-24.437	-23.339	-22.463	146.734	-23.207	-8191	255	
1586.327	1	1	0	0	0.16506	0.20166	0.23441	0.20381	0.16355	0.081776	0.26129	0.087869	0.32838	0.12896	0.081928	0.025766	0.095638	0.17351	0.19889	0.13604	-1.7563	-2.125	-2.3979	-2.3187	-2.1021	-2.3958	-2.1208	-2.2917	-2.2792	-2.0167	-2.5687	-2.1771	-2.1792	-2.4625	-2.1042	-2.2896	145.567	92.147	17.901	30.594	-26.333	98.491	251.151	-29.659	307.900	-19.474	276.385	132.578	146.157	232.221	142.599	215.804	0.00011427	0.00029356	0.00010552	432.35	3.0094e-06	3.3112e-06	1111.1	157.69	4.1575e-06	1.9479e-06	366.05	157.58	58.297	13.947	4.6245e-06	38.573	0.00015795	0.00014307	4.0232e-05	398.65	1.6101e-06	1.587e-06	1022.8	146.98	1.6151e-06	1.5188e-06	337.72	146.84	54.693	13.123	1.6093e-06	36.17	209.822	41.633	-14.143	-26.787	110.906	119.815	-27.176	-24.367	132.746	99.974	-25.810	-24.481	-23.140	-21.814	129.341	-23.205	-8191	255	
1586.398	1	1	0	0	0.1264	0.10938	0.085865	0.098554	0.18848	0.232	0.33057	0.08103	0.16583	0.14101	0.13013	0.15939	0.076483	0.17002	0.13734	0.22238	-1.9417	-2.0312	-2.525	-2.2042	-2.2021	-2.4375	-2.15	-2.1458	-2.3208	-2.0417	-2.3583	-2.1292	-2.2812	-2.4479	-2.125	-2.25	1.229	10.087	207.008	-33.738	145.625	215.862	314.274	58.149	-21.724	232.975	-25.482	55.532	175.062	94.521	220.331	247.213	0.00010518	0.00052156	5.7992e-05	433.53	2.3498e-06	3.6388e-06	1113.2	158.91	2.5293e-06	2.0898e-06	363.87	158.85	58.137	13.911	2.0842e-06	38.777	0.00015429	0.00014173	3.9301e-05	402.21	1.6239e-06	1.4747e-06	1026.8	147.34	1.4917e-06	1.5466e-06	337.77	147.41	54.799	13.065	1.4993e-06	36.191	198.489	51.487	24.034	-26.532	157.555	98.356	-27.314	-24.702	132.724	136.459	-25.869	-24.458	-22.926	-22.250	75.467	-22.916	-8191	255	
1586.495	1	1	0	0	0.11515	0.22714	0.1991	0.069708	0.24592	0.20933	0.23314	0.34776	0.077393	0.20333	0.17889	0.12828	0.46024	0.13357	0.12614	0.10086	-1.7812	-2.0271	-2.2167	-2.4542	-1.9375	-2.7042	-2.5	-2.0938	-2.5	-2.0854	-2.4958	-2.3375	-2.0583	-2.2313	-2.1813	-2.25	103.460	312.642	11.190	-37.362	213.968	193.553	218.628	183.071	17.045	50.008	116.362	-24.937	94.357	141.220	100.464	143.127	0.00011051	0.00031462	0.00010679	434.73	3.3016e-06	2.7917e-06	1111.2	159.54	1.9874e-06	2.566e-06	364.83	159.56	58.376	14.15	3.4399e-06	39.004	0.00015573	0.00014487	3.936e-05	401.53	1.5609e-06	1.4041e-06	1025.3	148.08	1.5701e-06	1.5165e-06	338.8	148.35	55.027	13.217	1.567e-06	36.383	206.365	35.855	10.882	-26.806	122.568	93.532	-27.394	-24.652	119.112	100.048	-25.863	-24.508	-23.474	-22.197	128.809	-23.343	-8191	255	
1586.615	1	1	0	0	0.28729	0.11787	0.12159	0.082415	0.29669	0.18422	0.19662	0.02972	0.073175	0.063708	0.12851	0.080521	0.31014	0.39281	0.19436	0.067328	-2.0833	-1.8521	-2.075	-2.4083	-1.9312	-2.2333	-2.2042	-2.1083	-2.4813	-2.1708	-2.3583	-2.4188	-1.8625	-2.4062	-2.1083	-2.1063	284.744	268.145	109.070	146.498	294.602	59.721	-22.305	131.935	183.290	114.246	31.724	-30.409	22.678	40.178	78.402	101.755	9.082e-05	0.00028094	0.00013298	434.13	1.9347e-06	3.4373e-06	1116.5	158.69	2.1932e-06	3.8945e-06	364.51	159.23	58.426	14.106	3.2746e-06	39.11	0.00015763	0.00014752	4.0063e-05	401.25	1.5267e-06	1.5573e-06	1025.6	147.82	1.6159e-06	1.5825e-06	337.53	148.24	54.933	13.218	1.5605e-06	36.534	196.975	20.535	49.277	-26.783	112.494	115.766	-27.201	-24.737	146.832	120.845	-25.650	-24.802	-23.034	-22.192	177.681	-23.375	-8191	255	
1586.711	1	1	0	0	0.21179	0.041702	0.063249	0.15837	0.18636	0.08972	0.041453	0.15264	0.08351	0.036245	0.25994	0.31404	0.17087	0.029478	0.17191	0.36025	-1.9333	-2.2229	-2.1375	-2.3792	-2.2083	-2.4583	-2.3812	-2.1208	-2.5312	-2.2167	-2.2417	-2.6583	-1.9438	-2.1042	-2.2042	-2.0771	-24.315	19.799	297.951	289.772	310.525	7.040	243.535	226.275	209.695	88.705	264.074	14.486	180.123	13.808	136.446	-3.153	9.5992e-05	0.00054559	7.3701e-05	434.17	3.7771e-06	1.8743e-06	1111.8	160.61	2.3967e-06	4.3343e-06	368.42	159.38	58.364	13.941	2.5785e-06	39.077	0.00015399	0.00014693	4.0759e-05	402.03	1.6021e-06	1.5688e-06	1027.1	148.22	1.5728e-06	1.57e-06	339.43	148.18	54.911	13.222	1.5329e-06	36.401	196.583	80.031	43.027	-26.791	154.149	76.883	-27.470	-24.473	136.836	122.711	-26.122	-24.611	-23.415	-22.306	125.918	-22.832	-8191	255	
1586.808	1	1	0	0	0.088764	0.13473	0.22666	0.05448	0.31684	0.33951	0.13764	0.19075	0.075718	0.1336	0.15619	0.44126	0.23245	0.032463	0.30997	0.25141	-1.7896	-2.1188	-2.0438	-2.4167	-2.0438	-2.2854	-2.4	-1.9292	-2.4813	-2.2354	-2.3688	-2.4313	-1.925	-2.1292	-2.1729	-2.1937	279.100	-17.105	296.009	220.901	19.082	5.977	260.245	7.992	150.248	58.474	99.838	307.564	224.499	249.445	62.948	230.906	0.00011616	0.00047107	5.3243e-05	432.35	3.4922e-06	1.6807e-06	1117.5	159.56	3.2295e-06	2.656e-06	365.14	159.16	58.256	14.104	2.8024e-06	38.972	0.00015395	0.00014424	3.8573e-05	401.31	1.5908e-06	1.5761e-06	1026.1	148.48	1.5557e-06	1.5177e-06	338.77	148.11	54.857	13.28	1.5257e-06	36.503	214.127	46.540	54.196	-26.947	114.675	126.227	-27.273	-24.791	149.894	112.203	-26.009	-24.487	-23.310	-22.337	136.094	-23.082	-8191	255	
1586.926	1	1	0	0	0.095629	0.030327	0.2799	0.14969	0.061598	0.13344	0.085517	0.076944	0.05805	0.070704	0.17829	0.32698	0.26543	0.11909	0.12798	0.10007	-1.925	-2.0667	-1.6667	-2.2833	-2.0521	-2.2438	-2.5563	-1.8208	-2.5	-2.0833	-2.1458	-2.525	-1.925	-2.1729	-2.2938	-2.0146	245.403	-28.611	121.776	266.490	92.562	204.983	202.095	239.194	304.237	247.273	286.827	299.826	-27.442	259.198	104.024	247.495	0.00011216	0.00042268	0.00011749	435.64	3.9663e-06	4.6415e-06	1111.1	159.94	2.2959e-06	4.7928e-06	365.93	158.29	57.914	14.136	4.6164e-06	39.001	0.00015886	0.00014362	3.855e-05	401.92	1.5562e-06	1.6284e-06	1025.9	148.42	1.5649e-06	1.6181e-06	338.39	148.11	54.874	13.285	1.6036e-06	36.401	210.150	44.196	39.309	-26.815	127.112	115.343	-27.281	-24.683	123.012	106.461	-25.900	-24.444	-23.324	-22.229	135.786	-23.089	-8191	255	
1586.998	1	1	0	0	0.12208	0.036936	0.14269	0.27514	0.063263	0.069256	0.29748	0.15171	0.13697	0.24154	0.13419	0.09615	0.12483	0.14381	0.28809	0.067905	-2.0333	-2.2167	-2.15	-2.3854	-2.15	-2.1479	-2.4917	-2.0375	-2.3229	-2.2479	-2.1146	-2.5375	-2.0438	-2.0417	-2.2833	-2.2354	243.328	197.480	190.816	33.456	65.777	146.479	183.592	186.980	286.128	89.042	133.716	164.285	169.807	281.456	93.692	121.080	0.00010696	0.00032632	5.6846e-05	435.47	1.9081e-06	4.1682e-06	1112.4	159.52	9.3714e-07	5.0515e-06	365.4	159.18	58.365	14.169	2.4208e-06	38.979	0.00016161	0.00014679	3.9403e-05	402.48	1.6019e-06	1.5438e-06	1024.1	148.25	1.6385e-06	1.6074e-06	338.72	147.87	54.994	13.246	1.6292e-06	36.381	206.121	49.736	60.288	-26.722	107.781	129.605	-27.465	-24.780	137.767	113.306	-25.843	-24.797	-23.081	-22.027	126.980	-23.083	-8191	255	
1587.094	1	1	0	0	0.14523	0.1296	0.1616	0.16065	0.15705	0.14702	0.12315	0.091491	0.11364	0.095582	0.1834	0.26659	0.29798	0.1428	0.10781	0.19673	-1.7896	-2.175	-1.8188	-2.4208	-2.3375	-2.1063	-2.5667	-1.9813	-2.4729	-2.275	-1.9604	-2.4437	-2.1083	-2.0875	-2.3604	-2.0917	281.249	144.674	201.950	285.429	-9.686	25.991	225.158	94.072	146.108	158.825	308.431	313.816	20.642	-20.751	146.226	-15.818	0.00012814	0.00045983	9.0868e-05	435.88	5.4087e-06	4.8665e-06	1112.6	160.35	3.7849e-06	4.2145e-06	368.14	158.28	58.854	14.091	3.6074e-06	39.074	0.00016506	0.0001529	4.324e-05	403.34	1.6389e-06	1.5817e-06	1028.8	148.8	1.6817e-06	1.5708e-06	339.31	147.8	55.204	13.264	1.5729e-06	36.519	221.800	53.450	35.837	-26.963	122.174	102.521	-27.409	-24.825	129.638	109.375	-26.160	-24.934	-23.445	-21.820	126.714	-23.087	-8191	255	
1587.190	1	1	0	0	0.28799	0.19306	0.20602	0.15503	0.06468	0.077318	0.047698	0.13444	0.30939	0.26837	0.22296	0.39968	0.1408	0.0941	0.15536	0.07748	-1.7354	-2.2229	-1.9562	-2.5438	-2.0354	-2.0938	-2.6771	-2.2333	-2.1229	-2.3021	-2.2	-2.4917	-2.4	-2.0146	-2.5833	-2.15	137.670	102.328	56.951	243.133	183.186	24.904	292.103	307.945	50.437	306.245	146.427	242.637	171.270	210.951	50.920	95.332	0.00011281	0.00055435	0.00012633	441.33	2.7761e-06	4.3499e-06	1114.7	162.43	3.5779e-06	4.6966e-06	371.2	160.02	59.486	14.27	3.3885e-06	39.624	0.00016571	0.00014759	4.2984e-05	406.65	1.6352e-06	1.5705e-06	1031.5	150.12	1.6734e-06	1.6082e-06	343.46	149.32	55.672	13.398	1.6428e-06	36.812	194.008	63.910	22.975	-26.712	148.309	128.142	-27.398	-24.945	120.741	89.164	-26.366	-24.637	-23.330	-21.979	121.432	-23.560	-8191	255	
1587.309	1	1	0	0	0.24571	0.14843	0.016615	0.24052	0.094335	0.20225	0.22931	0.23865	0.19093	0.26247	0.11861	0.11166	0.22086	0.26133	0.14753	0.28534	-1.7188	-2.5	-1.7938	-2.1917	-2.0458	-2.0771	-2.5229	-2.0271	-2.1479	-2.4354	-1.9792	-2.2833	-2.2146	-1.9354	-2.3583	-2.2687	89.170	-19.388	-26.249	-0.603	215.158	301.609	109.650	162.874	156.293	122.034	217.249	224.102	184.911	127.672	177.872	131.364	9.3985e-05	0.00040683	0.00011324	444.42	5.7097e-06	4.967e-06	1133	163.86	2.7672e-06	3.0893e-06	376.36	162.58	59.357	14.407	3.3799e-06	39.885	0.0001661	0.00014566	4.0622e-05	411.82	1.6453e-06	1.7031e-06	1045.7	152.49	1.7343e-06	1.6037e-06	347.71	151.04	56.12	13.538	1.616e-06	37.138	220.020	-10.785	33.603	-26.653	149.478	106.312	-27.297	-24.633	94.144	62.145	-26.278	-24.626	-23.173	-22.607	92.776	-23.282	-8191	255	
1587.405	1	1	0	0	0.18689	0.31285	0.21186	0.15366	0.19856	0.28953	0.13791	0.15387	0.091564	0.073238	0.23127	0.13021	0.13542	0.10894	0.2194	0.31843	-1.7667	-2.3729	-1.9458	-2.2042	-2.4021	-2.0167	-2.3708	-2.0375	-2.1604	-2.3875	-2.2292	-2.3542	-2.2646	-1.8563	-2.4813	-2.3583	12.156	102.799	248.226	-33.749	98.868	261.587	275.907	307.905	257.604	154.799	166.286	-33.728	184.302	196.429	55.253	247.765	0.00011101	0.00039474	8.9637e-05	444.45	4.085e-06	2.5029e-06	1128.6	162.85	2.6406e-06	3.9476e-06	374.32	161.8	59.675	14.79	2.5454e-06	39.99	0.00016259	0.00014831	4.2705e-05	410.11	1.5992e-06	1.6843e-06	1040.3	152.04	1.6823e-06	1.573e-06	347.09	151.06	56.134	13.769	1.7187e-06	37.286	203.586	26.712	47.167	-26.626	134.515	129.514	-27.478	-24.858	120.432	102.969	-26.110	-24.672	-23.049	-22.637	151.097	-23.500	-8191	255	
1587.502	1	1	0	0	0.12168	0.15609	0.15652	0.28647	0.13462	0.16748	0.16117	0.24506	0.10066	0.41143	0.24487	0.209	0.11378	0.081506	0.3035	0.13837	-1.5042	-2.4083	-2.1479	-2.3563	-2.3854	-2.0604	-2.5438	-2.1896	-1.9729	-2.3292	-2.025	-2.1896	-2.4042	-2.1688	-2.3458	-2.3688	261.727	47.198	192.849	311.251	17.931	118.954	222.164	299.153	235.519	198.804	95.823	307.613	-16.835	86.001	135.308	-30.809	9.1185e-05	0.00033874	7.7899e-05	445.22	5.2087e-06	2.9945e-06	1133.9	163.45	1.7525e-06	3.2505e-06	377.9	162.62	59.273	14.557	2.7679e-06	39.747	0.00016172	0.00014869	4.2143e-05	409.33	1.6465e-06	1.7143e-06	1048.3	152.47	1.6336e-06	1.6692e-06	346.83	151.27	55.932	13.715	1.7218e-06	37.248	221.091	77.947	55.692	-27.012	142.422	98.138	-27.390	-24.942	155.870	113.556	-26.746	-24.746	-23.165	-22.387	149.520	-23.370	-8191	255	
#DATA ENDS
