BOXY.EXE: ISS Imagent and Oximeter Data Acquisition Program Version 0.80
Ascii Record File

#ACQ INFORMATION
2  Detector Channels 
16  External MUX Channels 
1  Auxiliary Channels 
5000  Waveform (CCF) Frequency (Hz)
1  Waveforms Skipped 
30  Waveforms Averaged 
1  Cycles Averaged 
16  Acquisitions per Waveform 
10.0806  Updata Rate (Hz) 

#FILE INFORMATION
TRUE -- External MUX Channel results are PARSED.
FALSE -- AC DC and Phase are NOT grouped.
TRUE -- Companion Program Settings File CREATED.
FALSE -- AC data not excluded
FALSE -- DC data not excluded
FALSE -- Phase data not excluded
FALSE -- Auxillary Chn. data not excluded
Tab delimiters

#CALIBRATION STATE
TRUE -- Waveform Calibration Values APPLIED.


#AUX CALIBRATION VALUES
Val Type	aux-1	

Term	1.0000e+00	
Factor	0.0000e+00	


#WF CALIBRATION VALUES
A = Detector Channel
Val Type	A-AC1	A-AC2	A-AC3	A-AC4	A-AC5	A-AC6	A-AC7	A-AC8	A-AC9	A-AC10	A-AC11	A-AC12	A-AC13	A-AC14	A-AC15	A-AC16	A-DC1	A-DC2	A-DC3	A-DC4	A-DC5	A-DC6	A-DC7	A-DC8	A-DC9	A-DC10	A-DC11	A-DC12	A-DC13	A-DC14	A-DC15	A-DC16	A-Ph1	A-Ph2	A-Ph3	A-Ph4	A-Ph5	A-Ph6	A-Ph7	A-Ph8	A-Ph9	A-Ph10	A-Ph11	A-Ph12	A-Ph13	A-Ph14	A-Ph15	A-Ph16	

Term	0.00000e+00	0.00000e+00	0.00000e+00	0.00000e+00	0.00000e+00	0.00000e+00	0.00000e+00	0.00000e+00	0.00000e+00	0.00000e+00	0.00000e+00	0.00000e+00	0.00000e+00	0.00000e+00	0.00000e+00	0.00000e+00	0.00000e+00	0.00000e+00	0.00000e+00	0.00000e+00	0.00000e+00	0.00000e+00	0.00000e+00	0.00000e+00	0.00000e+00	0.00000e+00	0.00000e+00	0.00000e+00	0.00000e+00	0.00000e+00	0.00000e+00	0.00000e+00	0.00000e+00	0.00000e+00	0.00000e+00	0.00000e+00	0.00000e+00	0.00000e+00	0.00000e+00	0.00000e+00	0.00000e+00	0.00000e+00	0.00000e+00	0.00000e+00	0.00000e+00	0.00000e+00	0.00000e+00	0.00000e+00	
Factor	1.00000e+00	1.00000e+00	1.00000e+00	1.00000e+00	1.00000e+00	1.00000e+00	1.00000e+00	1.00000e+00	1.00000e+00	1.00000e+00	1.00000e+00	1.00000e+00	1.00000e+00	1.00000e+00	1.00000e+00	1.00000e+00	1.00000e+00	1.00000e+00	1.00000e+00	1.00000e+00	1.00000e+00	1.00000e+00	1.00000e+00	1.00000e+00	1.00000e+00	1.00000e+00	1.00000e+00	1.00000e+00	1.00000e+00	1.00000e+00	1.00000e+00	1.00000e+00	X	X	X	X	X	X	X	X	X	X	X	X	X	X	X	X	

B = Detector Channel
Val Type	B-AC1	B-AC2	B-AC3	B-AC4	B-AC5	B-AC6	B-AC7	B-AC8	B-AC9	B-AC10	B-AC11	B-AC12	B-AC13	B-AC14	B-AC15	B-AC16	B-DC1	B-DC2	B-DC3	B-DC4	B-DC5	B-DC6	B-DC7	B-DC8	B-DC9	B-DC10	B-DC11	B-DC12	B-DC13	B-DC14	B-DC15	B-DC16	B-Ph1	B-Ph2	B-Ph3	B-Ph4	B-Ph5	B-Ph6	B-Ph7	B-Ph8	B-Ph9	B-Ph10	B-Ph11	B-Ph12	B-Ph13	B-Ph14	B-Ph15	B-Ph16	

Term	0.00000e+00	0.00000e+00	0.00000e+00	0.00000e+00	0.00000e+00	0.00000e+00	0.00000e+00	0.00000e+00	0.00000e+00	0.00000e+00	0.00000e+00	0.00000e+00	0.00000e+00	0.00000e+00	0.00000e+00	0.00000e+00	0.00000e+00	0.00000e+00	0.00000e+00	0.00000e+00	0.00000e+00	0.00000e+00	0.00000e+00	0.00000e+00	0.00000e+00	0.00000e+00	0.00000e+00	0.00000e+00	0.00000e+00	0.00000e+00	0.00000e+00	0.00000e+00	-6.59245e+01	-1.24734e+02	-1.31290e+02	-1.83070e+02	-4.71720e+01	-6.49150e+01	-1.56663e+02	-1.62015e+02	-3.94459e+01	-6.42214e+01	-1.71114e+02	-1.71480e+02	-1.80686e+02	-1.76770e+02	-5.03157e+01	-1.49850e+02	
Factor	1.94318e-05	1.90944e-04	4.49887e-05	1.63081e-01	1.59961e-06	1.69595e-06	1.94177e-01	5.42487e-02	1.28390e-06	1.65075e-06	1.08414e-01	3.13847e-02	2.95052e-02	9.61121e-03	1.53840e-06	1.41149e-02	5.54059e-06	6.76180e-06	1.88700e-06	8.26207e-02	7.18682e-08	7.45135e-08	9.21061e-02	2.75920e-02	7.18242e-08	7.41166e-08	5.30887e-02	1.54427e-02	1.51454e-02	4.92050e-03	7.23774e-08	6.95805e-03	X	X	X	X	X	X	X	X	X	X	X	X	X	X	X	X	



#DISTANCE SETTINGS
A = Detector Channel
A-1	A-2	A-3	A-4	A-5	A-6	A-7	A-8	A-9	A-10	A-11	A-12	A-13	A-14	A-15	A-16	

2.5000e+00	3.0000e+00	2.5000e+00	3.0000e+00	2.0000e+00	3.0000e+00	1.5000e+00	3.0000e+00	3.0000e+00	3.0000e+00	3.0000e+00	3.0000e+00	3.0000e+00	3.0000e+00	1.5000e+00	3.0000e+00	

B = Detector Channel
B-1	B-2	B-3	B-4	B-5	B-6	B-7	B-8	B-9	B-10	B-11	B-12	B-13	B-14	B-15	B-16	

1.0000e+01	1.0000e+01	1.0000e+01	1.4400e+00	1.0000e+01	1.0000e+01	1.5100e+00	1.9400e+00	1.0000e+01	1.0000e+01	1.9900e+00	2.4900e+00	2.4100e+00	2.9000e+00	1.0000e+01	2.9800e+00	




#DATA BEGINS
time	group	step	mark	flag	A-AC1	A-AC2	A-AC3	A-AC4	A-AC5	A-AC6	A-AC7	A-AC8	A-AC9	A-AC10	A-AC11	A-AC12	A-AC13	A-AC14	A-AC15	A-AC16	A-DC1	A-DC2	A-DC3	A-DC4	A-DC5	A-DC6	A-DC7	A-DC8	A-DC9	A-DC10	A-DC11	A-DC12	A-DC13	A-DC14	A-DC15	A-DC16	A-Ph1	A-Ph2	A-Ph3	A-Ph4	A-Ph5	A-Ph6	A-Ph7	A-Ph8	A-Ph9	A-Ph10	A-Ph11	A-Ph12	A-Ph13	A-Ph14	A-Ph15	A-Ph16	B-AC1	B-AC2	B-AC3	B-AC4	B-AC5	B-AC6	B-AC7	B-AC8	B-AC9	B-AC10	B-AC11	B-AC12	B-AC13	B-AC14	B-AC15	B-AC16	B-DC1	B-DC2	B-DC3	B-DC4	B-DC5	B-DC6	B-DC7	B-DC8	B-DC9	B-DC10	B-DC11	B-DC12	B-DC13	B-DC14	B-DC15	B-DC16	B-Ph1	B-Ph2	B-Ph3	B-Ph4	B-Ph5	B-Ph6	B-Ph7	B-Ph8	B-Ph9	B-Ph10	B-Ph11	B-Ph12	B-Ph13	B-Ph14	B-Ph15	B-Ph16	aux-1	digaux	

1268.076	1	1	0	512	0.085166	0.16272	0.26893	0.21555	0.25173	0.14345	0.058763	0.33764	0.1529	0.14577	0.19008	0.15108	0.067767	0.19773	0.17973	0.29152	-2.125	-2.4729	-2.4729	-2.6021	-2.2458	-2.6479	-2.6	-2.1042	-2.4313	-2.1437	-2.5333	-2.5271	-2.0854	-2.3604	-2.5771	-2.3521	273.544	289.995	355.062	96.169	205.959	343.465	393.070	375.527	207.849	382.442	320.775	404.877	302.011	260.936	377.773	388.365	0.00065335	0.00086212	9.5464e-05	595.16	3.1071e-06	1.3301e-06	838.24	208.15	1.0097e-05	6.2711e-07	357.26	165.36	87.507	33.407	6.3033e-06	77.796	0.00079835	0.00082807	0.0002282	585.05	8.7847e-06	9.0762e-06	822.08	205.42	8.7533e-06	9.1628e-06	351.48	162.96	86.822	33.519	8.9659e-06	76.699	229.485	185.824	152.628	84.149	225.994	427.635	84.269	90.010	249.707	366.790	88.901	94.058	95.912	99.860	268.294	97.511	-8191	255	
1268.173	1	1	0	0	0.16194	0.0071447	0.4464	0.23473	0.14401	0.14277	0.15392	0.19178	0.20988	0.13358	0.20172	0.0062853	0.21069	0.061894	0.21831	0.17139	-2.125	-2.3896	-2.3604	-2.6792	-2.2333	-2.4875	-2.7292	-2.2417	-2.6354	-2.4375	-2.0979	-2.7396	-2.3	-2.4437	-2.6625	-2.2542	101.138	389.501	214.653	369.341	285.051	345.605	307.845	370.533	395.815	301.106	383.533	173.763	419.993	229.215	373.053	102.390	0.00065666	0.00042962	0.0001698	592.58	5.6714e-06	6.7708e-06	844.77	208.15	3.9177e-06	5.3384e-06	357.5	165.53	87.558	33.607	4.6676e-06	78.68	0.00082187	0.00083545	0.00022748	583.43	8.7938e-06	9.1152e-06	823.57	205.21	8.7769e-06	9.0683e-06	352.14	163.7	87.042	33.761	8.7349e-06	77.476	231.930	132.050	155.451	83.814	272.514	231.923	83.936	89.829	281.343	205.496	88.603	93.847	95.797	99.603	299.550	97.519	-8191	255	
1268.293	1	1	0	0	0.081098	0.054122	0.083619	0.22697	0.3456	0.069018	0.2701	0.062908	0.1395	0.20167	0.17164	0.33871	0.074291	0.043833	0.23223	0.23285	-2.0667	-2.3937	-2.2271	-2.6125	-2.2854	-2.4979	-2.6229	-2.0396	-2.2938	-2.4354	-2.4625	-2.7375	-2.35	-2.3937	-2.6208	-2.4583	82.151	108.509	179.040	88.547	135.680	117.358	360.764	148.070	338.112	98.402	380.416	373.903	322.321	200.006	291.541	395.073	0.00074311	0.00096125	0.00017245	597.17	2.9422e-06	6.8788e-06	846.2	210.41	6.5297e-06	3.9685e-06	359.58	167.89	88.537	33.821	5.9945e-06	78.58	0.00081594	0.00082311	0.00022481	585.26	8.7844e-06	8.9936e-06	827.97	207.16	8.5962e-06	8.8863e-06	354.13	165.63	87.666	33.827	8.4273e-06	77.512	231.969	179.161	168.753	83.615	221.760	192.853	84.031	90.029	239.921	212.820	88.951	93.747	95.094	100.054	232.600	97.620	-8191	255	
1268.389	1	1	0	0	0.20631	0.26786	0.33952	0.061396	0.14829	0.18908	0.10029	0.25062	0.17792	0.17939	0.2947	0.22974	0.068367	0.26798	0.073462	0.35439	-1.9271	-2.4625	-2.3542	-2.6125	-2.3875	-2.3	-2.5167	-2.3646	-2.4417	-2.5187	-2.2917	-2.7625	-2.4167	-2.2938	-2.6437	-2.3063	118.767	377.685	225.729	205.056	303.284	100.622	197.480	391.388	212.445	272.443	370.711	348.978	226.264	424.304	152.279	353.542	0.00068896	0.00060572	0.00020981	591.2	3.1807e-06	7.8442e-06	842	204.85	3.1944e-06	4.0926e-06	351.84	163.35	85.779	33.321	5.7747e-06	77.518	0.00079145	0.00079662	0.00022253	581.78	8.3532e-06	8.4498e-06	819.36	202.3	8.3585e-06	8.1436e-06	346.19	160.4	84.973	33.33	7.9722e-06	76.597	232.465	190.406	154.610	83.660	292.351	257.046	83.982	89.831	250.829	297.096	88.668	94.010	95.539	99.689	217.730	97.515	-8191	255	
1268.486	1	1	0	0	0.20535	0.12679	0.19471	0.13913	0.084186	0.14697	0.16202	0.31283	0.29804	0.15911	0.10953	0.13088	0.3747	0.18938	0.11823	0.12708	-1.9125	-2.6042	-2.1375	-2.4521	-2.4437	-2.4562	-2.8479	-2.2292	-2.3708	-2.5542	-2.3396	-2.5896	-2.5375	-2.2396	-2.6375	-2.5979	187.337	88.193	262.181	326.880	335.614	397.408	359.951	95.110	349.694	314.815	272.082	384.360	79.267	332.622	273.135	323.281	0.00068441	0.00074519	4.6754e-05	589.04	3.816e-06	8.4711e-06	836.36	205.75	3.257e-06	5.4508e-06	351.58	162.89	86.302	33.51	6.9153e-06	78.239	0.00077205	0.00075262	0.00020893	578.11	8.0721e-06	8.2629e-06	815.72	202.61	7.9455e-06	8.0786e-06	346.6	160.65	85.367	33.572	7.8735e-06	76.923	230.958	220.233	100.660	83.829	243.860	167.936	84.035	90.107	277.305	247.712	88.558	93.835	95.189	99.841	275.525	97.532	-8191	255	
1268.582	1	1	0	0	0.20054	0.13478	0.19038	0.17427	0.073293	0.16933	0.39126	0.18184	0.18721	0.021502	0.18161	0.15445	0.36556	0.23162	0.14137	0.20112	-1.9021	-2.5667	-2.3042	-2.5417	-2.5667	-2.2417	-2.7188	-2.3292	-2.3167	-2.6792	-2.3812	-2.6979	-2.5625	-2.1937	-2.4708	-2.4667	111.912	327.763	237.247	285.166	416.556	104.782	300.020	345.237	259.574	175.702	248.808	112.692	337.210	385.653	322.202	385.877	0.00064113	0.00062354	0.00012453	589.33	6.4504e-06	3.0657e-06	835.68	204.95	1.7972e-06	8.1735e-06	353.75	162.7	85.8	33.428	6.3806e-06	77.007	0.00076287	0.00072775	0.00020587	577.13	7.9461e-06	8.1457e-06	815.9	202.18	8.1101e-06	7.9803e-06	345.9	159.97	84.811	33.337	8.0331e-06	76.015	230.987	151.212	126.342	83.643	238.056	254.215	84.122	89.822	279.984	231.599	88.611	93.976	95.565	100.041	272.420	97.615	-8191	255	
1268.702	1	1	0	0	0.089401	0.17802	0.13103	0.1185	0.14645	0.15448	0.09208	0.22346	0.27668	0.057784	0.28426	0.072051	0.20119	0.096684	0.13837	0.14263	-1.6562	-2.6458	-2.25	-2.4479	-2.6437	-2.2979	-2.6813	-2.5687	-2.2271	-2.8021	-2.3812	-2.4667	-2.6125	-2.2646	-2.6625	-2.5854	221.168	365.092	282.721	129.073	125.762	389.599	281.249	412.913	353.787	118.448	354.479	312.633	370.232	338.999	298.640	83.143	0.00065759	0.00067665	0.00022423	591.27	9.8182e-06	8.4236e-06	837.67	204.65	3.9669e-06	6.2022e-06	350.94	161.77	85.25	33.091	5.4237e-06	76.782	0.00075301	0.00073011	0.00020781	577.61	7.6914e-06	7.9697e-06	817.18	201.53	7.9414e-06	7.8906e-06	344.4	158.85	83.988	33.112	7.916e-06	75.717	229.387	186.162	156.821	83.926	262.565	215.210	84.033	89.889	206.428	237.919	88.503	93.809	95.594	99.474	188.098	97.688	-8191	255	
1268.774	1	1	0	0	0.031928	0.11733	0.062616	0.48364	0.11194	0.10054	0.40288	0.18745	0.15915	0.17057	0.20338	0.18484	0.31511	0.13572	0.29905	0.10683	-1.7083	-2.7667	-2.2438	-2.4583	-2.7229	-2.3187	-2.5812	-2.575	-2.2	-2.5104	-2.6312	-2.6104	-2.7458	-2.2938	-2.6063	-2.5292	426.439	108.735	400.610	329.971	402.858	379.569	332.812	149.055	160.312	382.213	400.327	304.988	74.109	400.036	150.631	283.419	0.00067114	0.00027868	0.00016124	587.23	4.2039e-06	2.5496e-06	829.96	203.73	4.5771e-06	6.3042e-06	348.55	159.96	84.594	33.054	6.5705e-06	77.238	0.0007471	0.00073804	0.00020623	576.77	7.8007e-06	7.988e-06	812.35	199.93	7.7874e-06	8.0103e-06	342.28	157.68	83.62	32.989	8.0726e-06	75.93	226.365	135.563	143.190	83.806	229.763	267.097	84.162	90.008	261.607	226.107	88.531	93.833	95.439	99.688	205.216	97.707	-8191	255	
1268.870	1	1	0	0	0.29879	0.17027	0.050704	0.071584	0.12361	0.24969	0.21441	0.29826	0.10142	0.084487	0.23338	0.1901	0.13737	0.13796	0.22446	0.31116	-1.6646	-2.3812	-2.3333	-2.45	-2.8208	-2.2771	-2.5438	-2.7188	-2.1458	-2.7042	-2.4292	-2.3438	-2.7271	-2.1646	-2.5396	-2.7667	408.576	305.358	162.812	275.853	169.321	232.063	308.431	110.217	205.887	355.323	373.778	328.309	350.073	125.256	264.555	383.069	0.00066951	0.00088871	6.3101e-05	588.64	8.9748e-06	3.7589e-06	836.28	205.73	4.6567e-06	9.3216e-06	353.99	163.82	86.9	33.814	6.4378e-06	78.46	0.00075464	0.00073137	0.00020626	577.28	7.783e-06	8.0689e-06	814.21	202.66	8.1652e-06	8.1905e-06	347.17	161.42	85.664	33.658	8.1013e-06	77.073	227.755	141.855	113.158	83.877	240.544	293.015	84.152	90.006	261.050	190.316	88.711	93.706	95.458	99.832	269.634	97.645	-8191	255	
1268.966	1	1	0	0	0.19231	0.26637	0.16518	0.10763	0.24501	0.26182	0.25518	0.13074	0.16156	0.080834	0.071638	0.12411	0.16622	0.21989	0.28789	0.18457	-1.8208	-2.6229	-2.4604	-2.5042	-2.6375	-2.3917	-2.7646	-2.6688	-2.3563	-2.6729	-2.5917	-2.2896	-2.725	-2.3458	-2.4313	-3.0771	312.077	384.827	131.553	234.527	333.563	264.928	367.090	391.980	136.614	423.047	102.977	113.005	394.528	86.818	233.174	416.405	0.00068702	0.00061711	5.9775e-05	589.85	6.6223e-06	5.3011e-06	838.43	208.9	6.5205e-06	5.9548e-06	358.2	166.66	88.685	34.062	9.8046e-06	79.306	0.0007687	0.00075796	0.00021557	578.22	8.1409e-06	8.4152e-06	818.12	205.45	8.1449e-06	8.2947e-06	351.59	164.13	87.415	34.107	8.4306e-06	77.938	226.330	139.529	159.008	83.868	235.982	248.396	84.544	89.671	237.881	253.572	88.467	93.788	95.566	100.049	251.456	97.631	-8191	255	
1269.085	1	1	0	0	0.22773	0.1103	0.24453	0.077441	0.18863	0.065092	0.12895	0.1212	0.17558	0.076936	0.25133	0.20282	0.016645	0.22303	0.27289	0.13816	-1.7646	-2.4313	-2.5354	-2.2438	-2.5333	-2.3937	-2.5	-2.8583	-2.2333	-2.4542	-2.5312	-2.2646	-2.6521	-2.5021	-2.3875	-2.8792	209.349	376.944	329.629	154.837	343.647	359.154	353.922	422.700	258.488	364.791	399.137	410.588	244.567	342.419	375.659	76.768	0.00069104	0.00037094	0.00011067	591.35	5.7618e-06	6.3702e-06	844.59	209.27	5.5391e-06	8.0252e-06	359.28	167.9	88.478	34.1	3.0622e-06	79.454	0.00079266	0.00077831	0.00021532	579.85	8.2391e-06	8.5099e-06	822.07	206.41	8.3262e-06	8.6814e-06	353.06	164.99	87.634	34.161	8.3026e-06	78.043	231.476	209.454	169.096	83.856	247.838	209.694	84.255	89.774	207.478	248.719	88.471	94.019	95.405	99.786	235.350	97.678	-8191	255	
1269.181	1	1	0	0	0.14666	0.077132	0.16886	0.12793	0.12592	0.15506	0.090654	0.32023	0.17074	0.16163	0.08988	0.3816	0.090491	0.36995	0.10821	0.040486	-1.7875	-2.3354	-2.4167	-2.4062	-2.5187	-2.4292	-2.4042	-2.7875	-2.3563	-2.4938	-2.5771	-2.4854	-2.5792	-2.6292	-2.3104	-2.8771	171.022	299.889	145.492	251.845	145.711	402.562	221.611	383.026	403.448	373.854	418.693	393.385	380.991	375.181	243.582	269.761	0.00066445	0.00047548	0.00019378	586.03	5.8509e-06	4.3629e-06	840.25	207.42	4.0326e-06	5.1564e-06	356.4	164.99	87.831	33.558	4.3618e-06	78.302	0.00076142	0.00077765	0.00021463	576.62	7.9982e-06	8.4821e-06	817.33	204.57	7.9846e-06	8.3352e-06	349.28	162.85	86.712	33.693	8.1319e-06	77.042	231.004	218.711	157.278	83.903	244.048	205.637	84.023	89.808	270.232	230.144	88.462	93.686	95.532	99.550	206.152	97.511	-8191	255	
1269.277	1	1	0	0	0.085185	0.13816	0.045495	0.025349	0.15566	0.11042	0.16106	0.10787	0.069763	0.24923	0.13546	0.12793	0.065644	0.19656	0.19635	0.36668	-1.9042	-2.4729	-2.4958	-2.3875	-2.525	-2.4167	-2.3542	-2.6833	-2.6667	-2.2	-2.6646	-2.4646	-2.5729	-2.5271	-2.1813	-2.7625	176.032	150.640	337.628	398.493	171.281	188.622	368.444	401.972	180.697	430.236	147.872	297.594	310.352	355.324	256.573	412.055	0.00065962	0.0005393	9.3629e-05	588.09	5.5871e-06	7.022e-06	839.17	205.68	2.7637e-06	4.8771e-06	352.1	163.13	85.957	33.17	4.124e-06	76.963	0.0007566	0.00076584	0.00020934	576.01	7.8055e-06	8.0552e-06	816.62	203.22	8.0177e-06	8.0542e-06	345.91	160.79	84.99	33.214	7.7319e-06	75.849	227.269	166.730	147.540	83.805	211.577	230.050	84.390	89.946	202.180	267.260	88.967	93.872	95.485	99.909	224.067	97.362	-8191	255	
1269.374	1	1	0	0	0.066713	0.10205	0.16266	0.11265	0.14337	0.20605	0.074436	0.16503	0.10273	0.010176	0.16592	0.22216	0.13008	0.058509	0.07402	0.039505	-1.7938	-2.3125	-2.5479	-2.35	-2.3937	-2.5438	-2.3875	-2.75	-2.3792	-2.3354	-2.6979	-2.2438	-2.4062	-2.5708	-2.0479	-2.625	126.537	357.967	366.200	227.855	302.799	244.447	73.262	144.399	314.633	231.274	80.326	430.026	179.573	395.086	227.928	139.563	0.00065726	0.0003615	0.00012544	586.86	4.7942e-06	9.1548e-06	836.87	204.44	3.3474e-06	3.4048e-06	346.79	160.41	83.531	32.615	6.796e-06	76.14	0.00073117	0.00071491	0.00019296	575.17	7.6041e-06	7.6095e-06	812.79	199.9	7.5873e-06	7.6884e-06	341.72	157.69	82.804	32.503	7.6829e-06	74.954	229.211	131.206	118.840	83.656	249.638	216.517	84.231	89.930	253.629	283.606	88.633	93.732	95.613	99.881	261.226	97.695	-8191	255	
1269.470	1	1	0	0	0.15034	0.14692	0.31874	0.17851	0.18075	0.21051	0.10425	0.014999	0.18831	0.12769	0.16103	0.19113	0.082588	0.075496	0.1853	0.23708	-1.9813	-2.3125	-2.6375	-2.2458	-2.4625	-2.525	-2.2521	-2.5938	-2.4938	-2.1104	-2.6229	-2.6104	-2.5167	-2.5854	-2.2792	-2.75	210.399	297.935	335.242	342.763	239.007	217.760	419.796	187.079	329.283	171.802	143.665	75.274	407.567	348.103	264.859	374.563	0.00069293	0.00064548	0.00018137	591.68	3.1251e-06	2.491e-06	832.83	201.64	3.5581e-06	1.1026e-06	347.24	159.56	83.86	32.33	7.0347e-06	76.136	0.00071993	0.00070335	0.00019759	575.56	7.4024e-06	7.5183e-06	810.15	198.92	7.3497e-06	7.5219e-06	339.85	156.71	82.598	32.409	7.3244e-06	74.674	228.172	178.536	124.992	84.031	255.702	186.938	84.293	89.900	218.355	255.918	88.483	93.820	95.582	99.796	240.449	97.624	-8191	255	
1269.566	1	1	0	0	0.26834	0.075492	0.2913	0.10116	0.13153	0.14125	0.034759	0.12501	0.16794	0.21269	0.0878	0.11219	0.31612	0.37823	0.1695	0.27242	-2.075	-2.0854	-2.5438	-2.3854	-2.2604	-2.6083	-2.3937	-2.4146	-2.5646	-2.3021	-2.6625	-2.5125	-2.1562	-2.6354	-2.4229	-2.6896	333.930	299.070	297.700	115.278	225.565	156.619	300.451	381.261	90.009	124.001	352.734	223.084	107.427	163.671	104.553	378.531	0.00063653	0.00094841	6.8266e-05	580.99	2.41e-06	3.7583e-06	827.95	201.14	2.5588e-06	6.3998e-06	345.75	158.58	82.996	32.502	6.4314e-06	75.938	0.00069317	0.00069383	0.00018918	570.36	7.4428e-06	7.47e-06	806.05	197.96	7.3252e-06	7.4989e-06	338.69	156.18	82.446	32.525	7.5304e-06	74.557	231.900	174.841	147.732	83.935	216.173	218.111	84.159	89.774	271.239	224.358	88.902	93.915	95.843	99.985	227.840	97.579	-8191	255	
1269.662	1	1	0	0	0.21	0.36876	0.17199	0.23627	0.17537	0.15796	0.28231	0.16648	0.026175	0.18132	0.22422	0.069476	0.25179	0.070804	0.05325	0.11031	-2.1167	-2.3083	-2.5958	-2.4729	-2.3792	-2.6146	-2.4188	-2.4938	-2.8146	-2.2479	-2.6125	-2.5729	-2.4208	-2.7208	-2.4125	-2.6667	240.589	191.440	286.993	399.628	267.469	145.304	328.378	334.011	284.360	137.768	318.767	195.118	84.477	305.822	283.798	392.970	0.00064309	0.00064204	0.0001221	584.24	3.9645e-06	5.6296e-06	833.24	202.26	7.8727e-06	3.5536e-06	348.1	159.28	83.853	32.753	3.5805e-06	75.96	0.00071382	0.00071576	0.00019202	569.43	7.306e-06	7.4448e-06	809.7	199.18	7.297e-06	7.4515e-06	339.97	157.24	82.954	32.666	7.3252e-06	75.005	226.874	184.119	117.680	83.782	250.496	226.925	84.443	89.809	235.869	201.093	88.869	93.659	95.384	99.968	252.543	97.749	-8191	255	
1269.783	1	1	0	0	0.22465	0.27708	0.12418	0.030147	0.066587	0.16072	0.39455	0.10736	0.20263	0.062093	0.23559	0.20427	0.2206	0.043685	0.1559	0.044313	-2.0479	-2.2188	-2.5854	-2.4938	-2.3417	-2.8604	-2.4271	-2.5146	-2.6542	-2.2854	-2.6792	-2.4917	-2.2062	-2.6813	-2.4396	-2.5958	121.004	118.803	212.442	411.434	243.562	426.856	388.328	412.982	318.973	288.145	419.238	377.081	100.631	320.846	304.012	158.098	0.00066214	0.00088327	0.00021494	584.26	4.0949e-06	8.6942e-06	827.92	202.02	6.9369e-06	4.6156e-06	348.56	159.7	84.736	32.795	5.006e-06	76.576	0.00070413	0.00068666	0.00018723	572.03	7.2786e-06	7.3743e-06	809.02	198.88	7.1459e-06	7.4229e-06	341.01	157.18	83.31	32.678	7.4689e-06	75.261	228.907	150.814	133.741	84.096	287.041	225.277	84.297	90.001	222.399	217.556	88.391	93.945	95.460	99.704	270.251	97.450	-8191	255	
1269.879	1	1	0	0	0.2292	0.18122	0.11315	0.19906	0.1803	0.028109	0.20461	0.27188	0.18476	0.15996	0.12742	0.20176	0.08476	0.096836	0.19075	0.38154	-2.1646	-2.2792	-2.5938	-2.7021	-2.2417	-2.4792	-2.5125	-2.4271	-2.6708	-2.2062	-2.5354	-2.6167	-2.2167	-2.7208	-2.4521	-2.4354	386.351	101.973	150.427	104.719	368.217	111.738	368.769	366.643	91.163	223.205	419.300	316.901	191.848	104.206	78.175	359.153	0.00063303	0.0007874	0.00022193	581.04	3.2562e-06	4.9196e-06	827.46	201.41	6.1482e-06	6.1427e-06	345.58	159.59	84.397	32.458	4.9665e-06	75.52	0.0007005	0.00068746	0.00019257	571.3	7.2597e-06	7.3739e-06	807.15	199.06	7.129e-06	7.5245e-06	339.67	156.95	83.233	32.462	7.325e-06	74.174	229.038	131.182	203.724	83.872	223.097	220.021	84.265	89.758	256.457	208.718	88.400	93.741	95.543	99.792	217.109	97.631	-8191	255	
1269.975	1	1	0	0	0.30849	0.11152	0.18839	0.16961	0.454	0.22047	0.2787	0.16758	0.11519	0.14331	0.14885	0.060648	0.094585	0.21335	0.23453	0.071674	-2.0583	-2.2375	-2.4896	-2.7375	-1.9813	-2.5625	-2.4792	-2.4417	-2.5687	-2.4792	-2.7667	-2.6375	-2.3688	-2.5333	-2.5062	-2.3937	354.519	218.992	367.232	257.155	139.154	98.699	427.202	341.986	160.239	226.518	419.768	177.315	381.977	239.192	248.729	143.259	0.00062407	0.00054937	0.00019093	578.24	4.2139e-06	4.0268e-06	823.73	202.05	7.0286e-06	6.4574e-06	344.31	160.37	84.586	32.463	5.8409e-06	75.675	0.00069435	0.00067673	0.00018791	568.26	7.333e-06	7.4636e-06	804.53	198.92	7.2287e-06	7.407e-06	339.14	157.46	83.412	32.547	7.2362e-06	74.554	227.174	147.571	130.150	83.949	230.592	182.642	83.955	89.522	252.996	240.280	88.697	94.114	95.840	99.627	240.621	97.403	-8191	255	
1270.069	1	1	0	0	0.11945	0.13099	0.28674	0.14656	0.1542	0.11743	0.18021	0.16334	0.12636	0.23881	0.059902	0.37981	0.12497	0.087925	0.25762	0.26065	-2.2792	-2.2854	-2.3438	-2.7958	-2.3833	-2.5062	-2.5563	-2.2854	-2.6375	-2.35	-2.4042	-2.6875	-2.3187	-2.5625	-2.5896	-2.3	414.383	409.203	267.113	313.393	319.321	115.617	332.620	76.533	180.355	225.809	388.310	361.274	108.002	306.711	339.008	373.628	0.00060305	0.00097581	0.00014886	584.91	6.0418e-06	3.4569e-06	829.03	204.29	3.4371e-06	3.2944e-06	349.4	163.3	85.899	32.968	6.8928e-06	76.308	0.00069339	0.00067962	0.00019289	570.89	7.399e-06	7.5685e-06	808.89	201.19	7.354e-06	7.6981e-06	344.28	160.33	84.812	33.005	7.3415e-06	75.44	231.184	169.350	125.343	84.054	222.382	252.018	83.990	89.709	281.177	203.033	88.596	93.876	95.715	99.945	248.892	97.452	-8191	255	
1270.166	1	1	0	0	0.020671	0.16303	0.14843	0.25845	0.14695	0.30461	0.24123	0.34829	0.059228	0.19882	0.27502	0.10841	0.36442	0.026228	0.33653	0.16605	-2.125	-2.3917	-2.1229	-2.6625	-2.2812	-2.5333	-2.6833	-2.0625	-2.6958	-2.5646	-2.2208	-2.8292	-2.1896	-2.5042	-2.4146	-2.3438	252.889	218.382	377.286	117.220	198.443	286.315	366.522	121.839	113.260	280.515	320.916	183.229	379.871	220.575	214.206	362.293	0.00064084	0.00064951	7.0945e-05	579.57	5.8022e-06	4.7033e-06	835.25	206.25	4.4527e-06	6.9484e-06	349.54	163.61	86.015	33.194	6.183e-06	77.182	0.00069873	0.00069835	0.00019381	572.1	7.4259e-06	7.8129e-06	813.32	202.3	7.5433e-06	7.6306e-06	344.69	160.87	85.017	33.203	7.4733e-06	75.844	227.162	138.760	136.352	83.708	226.763	201.595	84.171	89.881	266.575	246.085	88.530	93.744	95.252	99.572	279.416	97.635	-8191	255	
1270.262	1	1	0	0	0.049415	0.14384	0.12611	0.24131	0.06223	0.089773	0.077143	0.15403	0.18617	0.30382	0.16646	0.22295	0.091046	0.068234	0.037383	0.31344	-1.9396	-2.3667	-2.1667	-2.65	-2.2812	-2.4375	-2.7417	-2.2812	-2.3479	-2.4625	-2.1	-2.5854	-2.4375	-2.3	-2.6667	-2.3396	379.497	232.123	294.820	252.246	165.126	327.199	104.813	89.710	256.264	430.202	317.534	426.935	393.960	201.973	312.127	408.579	0.00066952	0.00077988	0.00015688	580.7	3.322e-06	5.1834e-06	830.92	203.84	2.2328e-06	5.4202e-06	350.47	162.54	86.494	33.243	3.5987e-06	77.013	0.00072307	0.00070373	0.00019132	571.28	7.6093e-06	7.5811e-06	809.3	200.87	7.5197e-06	7.6538e-06	343.23	160.07	85.133	33.264	7.6566e-06	75.855	234.032	165.005	139.260	83.876	233.247	211.330	84.108	89.630	250.488	211.687	88.758	93.744	95.467	99.809	237.400	97.220	-8191	255	
1270.382	1	1	0	0	0.20632	0.05147	0.14503	0.10514	0.12035	0.13422	0.36607	0.072403	0.22486	0.24275	0.024375	0.17171	0.1805	0.15906	0.27991	0.11045	-2.2062	-2.4604	-2.3021	-2.7396	-2.4958	-2.4	-2.6875	-2.2792	-2.4958	-2.4979	-2.3	-2.65	-2.4792	-2.25	-2.6354	-2.5104	201.207	109.087	294.605	292.506	360.625	102.235	403.495	227.076	257.627	148.301	256.470	135.361	430.389	416.323	301.841	83.937	0.00064157	0.00049272	7.1566e-05	578.65	8.0962e-06	2.1909e-06	831.4	206.14	5.9614e-06	6.1851e-06	350.36	164.48	87.106	33.6	5.3131e-06	77.956	0.00072876	0.00070459	0.00019798	570.72	7.6442e-06	7.8039e-06	809.12	202.57	7.7209e-06	7.7477e-06	344.33	161.97	86.097	33.566	7.56e-06	76.625	228.977	196.077	170.088	83.716	254.209	255.156	83.806	89.775	286.060	210.487	88.649	93.820	95.538	99.746	262.298	97.327	-8191	255	
1270.479	1	1	0	0	0.14672	0.27177	0.028779	0.16309	0.35859	0.33935	0.11882	0.18068	0.095327	0.085969	0.42615	0.12908	0.11026	0.007678	0.17897	0.18046	-1.8271	-2.4396	-2.1792	-2.5542	-2.5458	-2.125	-2.6729	-2.4458	-2.5729	-2.7542	-2.3521	-2.6875	-2.2625	-2.3187	-2.5917	-2.3583	245.567	241.476	333.575	109.679	226.779	408.450	338.035	230.037	243.666	384.527	392.541	203.920	393.499	147.389	197.439	357.646	0.00066222	0.00090225	0.00023911	585.41	6.1937e-06	3.0793e-06	833.08	204.79	3.2128e-06	7.6781e-06	350.57	165.16	86.586	33.65	5.8361e-06	78.754	0.00072504	0.00069865	0.00019864	571.73	7.543e-06	7.7977e-06	812.52	201.96	7.6844e-06	7.695e-06	344.78	162.24	85.586	33.637	7.5286e-06	77.135	235.654	193.749	140.691	83.727	290.436	351.698	84.265	89.926	256.350	213.400	88.359	93.897	95.254	99.936	253.156	97.443	-8191	255	
1270.575	1	1	0	0	0.14029	0.27081	0.11162	0.33573	0.09203	0.095248	0.2363	0.19429	0.32558	0.16786	0.039157	0.27381	0.12627	0.20061	0.0585	0.20769	-1.7396	-2.4875	-2.2021	-2.7521	-2.3979	-2.1937	-2.6875	-2.4104	-2.4021	-2.9167	-2.1917	-2.6667	-2.6312	-2.1646	-2.6333	-2.5479	396.370	173.672	422.098	112.175	229.459	350.038	323.559	384.005	207.179	157.375	302.370	103.359	160.477	261.238	312.236	325.857	0.00064766	0.00085467	0.00016919	582.41	4.6637e-06	6.993e-06	827.58	203.32	4.2281e-06	3.7205e-06	343.76	159.27	84.081	32.736	2.0239e-06	76.118	0.00072158	0.00068312	0.00019519	571.75	7.4072e-06	7.4265e-06	806.71	199.28	7.4019e-06	7.1524e-06	336.46	156.9	82.688	32.573	7.1357e-06	74.741	233.891	119.188	134.867	83.996	213.141	209.434	84.155	89.533	270.302	181.636	88.351	93.719	95.407	99.786	277.599	97.663	-8191	255	
1270.646	1	1	0	0	0.091845	0.37269	0.33455	0.028667	0.30404	0.1171	0.132	0.19365	0.21358	0.12827	0.26927	0.079447	0.10922	0.16774	0.12217	0.24052	-1.9729	-2.6437	-2.0979	-2.5292	-2.5979	-2.1917	-2.5792	-2.4062	-2.2958	-2.55	-2.4313	-2.5417	-2.6021	-2.0271	-2.4562	-2.5604	319.553	336.986	81.335	259.939	290.164	240.636	365.974	403.142	292.217	199.426	420.456	365.270	406.428	430.539	250.055	341.640	0.00065288	0.00034641	7.2664e-05	574.4	8.8475e-06	3.2589e-06	814.13	198.41	3.5583e-06	4.5806e-06	339.04	157.86	83.716	32.642	6.118e-06	75.736	0.00069796	0.00065225	0.00018499	563.21	7.0566e-06	7.2405e-06	796.1	196.01	6.9834e-06	7.252e-06	334.04	155.3	82.084	32.487	7.1153e-06	74.489	229.350	109.983	239.458	83.883	273.578	233.812	83.871	89.902	245.329	215.209	88.699	93.975	95.316	99.871	255.852	97.467	-8191	255	
1270.767	1	1	0	0	0.26123	0.23053	0.20655	0.26186	0.14239	0.30054	0.072394	0.15628	0.23986	0.26656	0.23927	0.2561	0.11812	0.25257	0.10531	0.39296	-1.5875	-2.5979	-2.2125	-2.3896	-2.6646	-2.1396	-2.6042	-2.5604	-2.2313	-2.5625	-2.4792	-2.5333	-2.6437	-2.1625	-2.5062	-2.9271	180.608	312.715	213.325	423.699	356.485	176.449	130.851	328.924	165.866	375.845	326.086	361.882	339.747	393.007	400.083	407.827	0.00063858	0.00080767	0.00013825	574.08	3.7723e-06	4.8144e-06	820.18	198.83	6.0299e-06	3.47e-06	341.06	159.31	83.871	32.6	9.9899e-06	75.998	0.00068436	0.00065849	0.00018351	564.5	6.9863e-06	7.0904e-06	798.44	196.04	7.1686e-06	7.2208e-06	334.41	156.02	82.326	32.581	7.0895e-06	74.779	229.224	180.241	129.704	83.912	267.879	82.989	83.931	89.886	242.622	224.634	88.447	93.999	95.443	99.914	250.817	97.802	-8191	255	
1270.863	1	1	0	0	0.26317	0.23242	0.035916	0.18019	0.18241	0.21751	0.12633	0.054909	0.035525	0.24254	0.18165	0.12051	0.11364	0.091818	0.20359	0.34344	-1.6313	-2.5271	-2.4708	-2.3063	-2.4792	-2.4938	-2.6813	-2.5021	-2.2542	-2.5792	-2.5667	-2.4938	-2.8021	-2.3958	-2.4146	-2.8646	376.297	162.654	401.231	74.829	113.561	186.984	91.727	327.298	309.598	376.043	373.106	392.412	252.252	336.220	357.788	387.911	0.00066928	0.00053723	0.00016808	578.8	6.6115e-06	7.1316e-06	824.52	201.73	4.6364e-06	9.3123e-06	343.99	161.93	85.042	33.335	9.1864e-06	77.88	0.00068819	0.00064964	0.00018369	565.92	6.9426e-06	7.1387e-06	802.82	197.65	7.0546e-06	7.3354e-06	338.07	158.64	83.852	33.202	7.1326e-06	76.283	227.015	147.365	194.812	84.107	228.193	221.618	84.054	89.665	245.650	243.729	89.292	93.839	95.536	99.891	236.346	97.157	-8191	255	
1270.959	1	1	0	0	0.11787	0.27987	0.034662	0.17718	0.09937	0.023073	0.098306	0.14492	0.10708	0.1084	0.30951	0.19962	0.15476	0.23678	0.17198	0.38521	-1.725	-2.5958	-2.4667	-2.4542	-2.6667	-2.5417	-2.5375	-2.575	-2.2104	-2.5229	-2.5667	-2.45	-2.7583	-2.2375	-2.3896	-2.725	259.727	296.325	182.621	374.511	159.383	270.602	167.265	345.394	241.355	378.042	90.913	407.914	215.260	90.243	233.583	390.819	0.00068152	0.00045134	0.00018118	576.8	6.0966e-06	6.5968e-06	824.86	203.54	3.7428e-06	6.1816e-06	347.19	162.29	85.173	33.591	9.9071e-06	77.457	0.00068642	0.0006434	0.000184	564.91	6.9839e-06	7.2638e-06	803.68	199.69	7.2692e-06	7.3431e-06	339.5	159.58	84.333	33.442	7.3039e-06	76.262	226.390	141.905	149.624	84.088	247.911	229.082	84.443	89.864	225.551	188.197	88.602	93.760	95.209	99.796	268.979	97.291	-8191	255	
1271.055	1	1	0	0	0.053879	0.08289	0.15655	0.179	0.11773	0.047868	0.13568	0.094878	0.20688	0.23559	0.24148	0.089562	0.13502	0.42518	0.15815	0.27118	-1.85	-2.4896	-2.4958	-2.4021	-2.7354	-2.3396	-2.4	-2.6771	-2.3229	-2.5042	-2.5146	-2.2354	-2.6667	-2.3625	-2.3229	-2.8812	361.375	266.352	280.269	393.145	267.010	250.453	316.145	389.223	149.556	238.624	377.819	418.774	136.824	428.682	174.717	428.365	0.00068788	0.00054883	9.2915e-05	578.31	5.3731e-06	5.9303e-06	827.29	204.97	5.8219e-06	4.3138e-06	350.38	165.12	87.813	34.429	4.8073e-06	79.522	0.00070875	0.00066168	0.0001863	566.47	7.154e-06	7.4714e-06	801.47	201.65	7.2575e-06	7.4668e-06	343.76	162.77	86.8	34.311	7.4274e-06	77.998	229.309	162.786	123.471	84.107	286.333	267.028	84.118	90.010	256.268	190.114	88.550	93.617	95.439	99.735	248.103	97.436	-8191	255	
1271.174	1	1	0	0	0.27846	0.18285	0.14418	0.073766	0.2449	0.15642	0.19428	0.18429	0.18283	0.15627	0.29519	0.14938	0.055606	0.30489	0.28103	0.21513	-1.6792	-2.35	-2.4583	-2.35	-2.5708	-2.4562	-2.3146	-2.6896	-2.4	-2.6104	-2.6667	-2.1667	-2.6417	-2.6646	-2.1437	-2.8417	271.870	224.103	298.736	93.516	220.417	431.595	158.755	127.477	413.857	328.632	391.331	381.978	331.848	254.382	396.674	414.649	0.00065856	0.00063785	0.00018512	578.96	1.4088e-06	8.2485e-06	831.07	206.99	4.1659e-06	3.6211e-06	355.3	166.46	88.734	34.589	8.608e-06	79.636	0.00068785	0.00067856	0.00018569	567.95	7.2205e-06	7.3565e-06	808.32	203.64	7.196e-06	7.3321e-06	347.15	164.31	87.394	34.531	7.3837e-06	78.513	231.242	138.999	154.935	83.805	211.045	237.936	84.086	89.702	274.010	288.040	88.567	93.562	95.164	99.667	259.372	97.337	-8191	255	
1271.246	1	1	0	0	0.39069	0.16038	0.084907	0.3463	0.20956	0.14044	0.1573	0.16928	0.096425	0.16843	0.14564	0.047671	0.13021	0.15553	0.25343	0.074752	-1.7354	-2.3667	-2.7167	-2.1562	-2.55	-2.5771	-2.5833	-2.7042	-2.4667	-2.5896	-2.8521	-2.2208	-2.4896	-2.5396	-2.2354	-2.8583	104.600	262.433	383.832	387.320	245.215	282.457	268.851	408.687	295.611	237.280	363.388	300.028	189.799	187.538	110.542	178.580	0.00065452	0.00065257	0.0001679	583.42	7.4467e-06	5.5317e-06	833.99	207.61	1.804e-06	5.5481e-06	356.94	166.6	88.565	34.078	3.7226e-06	78.594	0.00068289	0.00067652	0.0001859	569.56	7.3151e-06	7.4158e-06	812.21	204	7.3184e-06	7.5531e-06	348.65	164.15	87.259	34.113	7.4592e-06	77.441	231.844	151.209	151.499	83.982	276.618	198.596	83.894	89.776	250.495	221.702	88.360	93.772	95.193	99.794	255.308	97.421	-8191	255	
1271.344	1	1	0	0	0.10795	0.066792	0.16711	0.074644	0.20767	0.18656	0.20834	0.14076	0.048325	0.064169	0.25054	0.27965	0.21679	0.15551	0.29121	0.13379	-1.9167	-2.0771	-2.6625	-2.2479	-2.4896	-2.5771	-2.4125	-2.7875	-2.5312	-2.2938	-2.6708	-2.4875	-2.5062	-2.6063	-2.2792	-2.7833	100.742	103.761	323.441	366.418	228.110	214.917	352.728	308.836	403.258	337.357	400.124	121.870	228.140	323.713	245.421	430.224	0.0006581	0.00073404	0.00013303	579.13	8.5614e-06	4.2566e-06	821.82	204.59	5.0695e-06	5.4405e-06	347.64	164.04	87.343	34.003	3.992e-06	78.548	0.00070357	0.00068732	0.00018853	566.35	7.3132e-06	7.5052e-06	803.67	201.81	7.2058e-06	7.4033e-06	343.14	161.65	86.28	33.95	7.1382e-06	77.374	226.380	143.184	115.706	83.792	242.097	222.133	84.334	89.736	236.269	227.297	88.683	94.062	94.907	99.259	247.454	97.500	-8191	255	
1271.463	1	1	0	0	0.2039	0.23173	0.1309	0.21136	0.17176	0.054722	0.20943	0.36874	0.26241	0.097123	0.28499	0.10385	0.21925	0.40638	0.28029	0.21465	-1.9479	-2.2833	-2.7396	-2.2188	-2.4875	-2.7271	-2.2354	-2.7	-2.3792	-2.1896	-2.8958	-2.3021	-2.4	-2.6917	-2.1188	-2.5167	395.597	392.078	372.300	401.803	145.574	392.801	363.559	333.733	317.714	414.904	124.806	172.537	77.327	120.094	234.993	383.596	0.00067995	0.00076511	9.5761e-05	579.12	7.9237e-06	6.8458e-06	829.68	205.9	3.5805e-06	6.9056e-06	348.49	163.46	86.653	33.629	7.4154e-06	77.372	0.0006999	0.00067205	0.00018441	565.94	7.2928e-06	7.2616e-06	805.14	201.55	7.1368e-06	7.2593e-06	341.32	160.9	85.376	33.519	7.1399e-06	76.242	230.606	149.815	129.644	83.548	250.140	226.198	84.200	89.797	291.157	211.636	88.596	93.678	95.754	99.655	258.740	97.674	-8191	255	
1271.559	1	1	0	0	0.055907	0.05305	0.18574	0.044103	0.080415	0.3682	0.31095	0.037227	0.19085	0.050936	0.17503	0.14468	0.21047	0.17771	0.34087	0.088904	-2.1208	-2.1708	-2.5667	-2.4083	-2.4833	-2.6958	-2.4	-2.6979	-2.5479	-2.2354	-2.7354	-2.2792	-2.1458	-2.6896	-2.2438	-2.3979	249.955	251.665	295.222	261.904	235.717	201.328	85.786	215.767	417.421	392.817	226.921	81.809	94.146	368.422	414.760	327.698	0.00061766	0.00052201	0.00011686	578.86	3.7024e-06	1.9271e-06	822.3	202.35	1.8674e-06	5.6907e-06	344.75	160.6	84.657	33.122	5.8812e-06	76.714	0.00066926	0.00065706	0.00017842	565.1	7.0672e-06	7.0527e-06	800.71	198.26	6.9345e-06	7.2312e-06	338.08	157.82	83.466	32.978	6.9838e-06	75.33	227.570	178.663	150.098	83.958	299.441	218.468	84.139	89.793	216.608	286.225	88.626	93.989	95.489	100.008	252.982	97.493	-8191	255	
1271.655	1	1	0	0	0.17609	0.15686	0.20367	0.14522	0.13469	0.10572	0.12032	0.28142	0.33732	0.15683	0.13003	0.22086	0.18226	0.011764	0.12234	0.21514	-2.0292	-2.1479	-2.6458	-2.4521	-2.1937	-2.7062	-2.4396	-2.3833	-2.6021	-2.35	-2.4896	-2.4813	-2.2521	-2.6604	-2.3104	-2.3333	91.980	410.216	322.089	89.252	292.576	71.951	426.448	340.789	335.732	308.765	96.025	112.304	329.706	344.046	374.631	380.670	0.00066559	0.00043825	0.00018117	578.19	6.7061e-06	4.9833e-06	825.53	200.56	2.2475e-06	6.2742e-06	341.69	158.3	83.782	32.624	6.5407e-06	75.813	0.00067467	0.00063933	0.00018485	563.29	6.8908e-06	6.9288e-06	799.15	197.23	6.9164e-06	6.8956e-06	334.89	155.56	82.522	32.488	6.909e-06	74.364	229.209	175.743	165.991	83.669	243.864	257.659	84.021	89.913	220.558	258.144	88.496	93.665	95.351	99.960	219.903	97.263	-8191	255	
1271.776	1	1	0	0	0.20215	0.082453	0.32595	0.13791	0.1129	0.13028	0.13895	0.26656	0.14377	0.24089	0.26565	0.22084	0.35247	0.31854	0.26193	0.15367	-2.1312	-2.0521	-2.3375	-2.65	-2.2062	-2.4542	-2.4167	-2.3896	-2.6771	-2.1937	-2.7354	-2.7104	-2.0396	-2.7229	-2.2708	-2.5375	405.336	379.383	233.479	303.492	128.596	427.750	104.795	184.629	382.151	400.490	335.817	105.252	418.032	356.591	116.568	345.134	0.00062222	0.00070465	7.9804e-05	571.75	4.7893e-06	1.7461e-06	814.86	199.01	1.6694e-06	6.6868e-06	339.82	159.24	83.695	32.615	6.8083e-06	75.931	0.00065133	0.00065247	0.00018385	559.76	6.8946e-06	6.895e-06	793.44	196.51	6.7293e-06	6.9378e-06	333.63	156.25	82.554	32.545	6.9372e-06	74.74	231.584	154.413	203.228	83.678	240.802	200.127	84.150	90.190	280.909	226.974	88.310	93.938	95.589	99.648	247.934	97.522	-8191	255	
1271.870	1	1	0	0	0.19541	0.25749	0.3716	0.336	0.30114	0.080114	0.22831	0.11246	0.097099	0.10068	0.2312	0.37616	0.24354	0.24947	0.21852	0.071965	-2.1229	-2.3146	-2.4458	-2.5854	-2.1729	-2.6979	-2.4479	-2.2958	-2.6667	-2.3646	-2.6	-2.6417	-2.3688	-2.5563	-2.4188	-2.3896	333.140	213.152	358.575	369.563	177.734	125.836	325.667	286.748	246.057	237.122	145.530	357.602	348.690	94.193	367.123	250.174	0.00066052	0.00050601	0.0001198	570.81	5.0605e-06	4.9651e-06	814.11	200.13	1.3562e-06	4.5459e-06	340.08	158.93	84.233	33.017	4.1269e-06	76.416	0.00065144	0.00062561	0.00017902	560.29	6.8824e-06	6.9667e-06	792.54	196.27	6.7332e-06	6.8768e-06	334.29	156.57	82.923	32.943	6.8205e-06	75.244	229.681	160.720	180.410	83.693	272.543	291.909	83.994	89.487	208.485	181.471	88.234	93.619	95.233	99.616	250.627	97.351	-8191	255	
1271.943	1	1	0	0	0.088864	0.13954	0.080148	0.086878	0.10425	0.059792	0.093019	0.21144	0.1702	0.24472	0.42951	0.27143	0.16395	0.22393	0.1942	0.062449	-2.1688	-2.1625	-2.2667	-2.5646	-2.1521	-2.5687	-2.5312	-2.2396	-2.5542	-2.2938	-2.3958	-2.8937	-2.3625	-2.5354	-2.3792	-2.4604	217.085	284.980	188.999	411.537	181.647	364.050	425.310	389.378	306.005	334.874	386.812	374.155	368.501	341.623	265.162	427.441	0.00062179	0.00051852	9.5323e-05	574.77	5.2533e-06	6.0552e-06	820.72	203.15	7.2466e-06	7.5081e-06	348.37	161.69	85.368	33.237	4.1612e-06	77.12	0.0006587	0.00064055	0.00018136	563.14	6.9357e-06	7.0566e-06	799.95	199.49	6.9788e-06	7.1036e-06	339.95	159.05	84.383	33.187	6.7928e-06	75.83	228.193	169.718	394.539	83.743	242.506	208.901	84.114	89.912	253.680	199.731	88.431	93.863	95.485	99.923	203.911	97.454	-8191	255	
1272.064	1	1	0	0	0.072327	0.11514	0.25695	0.10374	0.19355	0.2196	0.16894	0.071063	0.13025	0.21517	0.20506	0.23147	0.12154	0.21913	0.20836	0.20566	-2.0792	-2.1771	-2.3438	-2.55	-2.2687	-2.5729	-2.4021	-2.1542	-2.575	-2.3312	-2.5417	-2.7896	-2.1979	-2.4437	-2.5417	-2.3104	393.694	171.768	290.761	413.047	425.717	430.967	346.955	265.547	250.935	395.815	326.728	346.602	114.277	349.342	179.333	282.069	0.00065288	0.0001677	0.00012328	574.49	5.643e-06	2.5753e-06	820.87	202.35	3.8621e-06	7.1199e-06	346.64	162.94	85.847	33.499	6.5194e-06	77.268	0.00066099	0.00065303	0.00017833	563.16	7.0726e-06	7.16e-06	799.64	199.62	6.9981e-06	7.1952e-06	339.86	160.06	84.926	33.456	7.0286e-06	76.002	226.034	399.044	160.903	83.767	240.906	202.030	84.007	89.658	229.426	251.499	88.592	93.637	95.498	99.524	258.258	97.305	-8191	255	
1272.159	1	1	0	0	0.20087	0.15297	0.14525	0.27923	0.10381	0.1811	0.27163	0.13047	0.17342	0.17361	0.10874	0.30953	0.37591	0.28758	0.070564	0.21444	-2.1271	-2.4729	-2.2458	-2.5542	-2.2583	-2.4854	-2.5708	-2.4229	-2.5917	-2.5521	-2.4437	-2.7021	-2.4021	-2.5271	-2.5021	-2.2708	418.315	321.651	118.678	374.028	425.185	255.913	335.391	387.047	306.604	169.942	222.203	97.792	361.285	369.323	172.203	362.063	0.0006691	0.00081791	0.00018143	571.96	7.8855e-06	3.638e-06	819.32	204.23	5.0374e-06	7.4461e-07	347.95	164.48	87.026	33.834	5.2255e-06	78.363	0.00066492	0.00063619	0.00017874	562.01	6.9899e-06	7.1955e-06	799.29	200.79	6.9161e-06	7.1172e-06	341.04	161.01	85.939	33.814	7.0123e-06	76.96	229.558	179.467	203.846	83.739	268.158	234.265	84.370	89.615	253.886	428.486	88.272	93.661	95.515	99.631	244.881	97.488	-8191	255	
1272.255	1	1	0	0	0.10198	0.11172	0.28189	0.062793	0.090475	0.20447	0.21344	0.23553	0.10856	0.13717	0.21119	0.16216	0.31483	0.23339	0.062452	0.46126	-2.0333	-2.4771	-2.2333	-2.7271	-2.325	-2.3958	-2.7313	-2.2938	-2.5583	-2.5187	-2.4125	-2.7375	-2.525	-2.4292	-2.675	-2.3479	133.107	426.493	394.321	88.016	402.721	252.808	422.556	333.276	319.838	211.831	311.544	414.718	107.553	377.998	316.432	330.143	0.00067192	0.00075918	0.00020276	575.23	4.1999e-06	6.6634e-06	819.94	205.19	3.8374e-06	3.3406e-06	349.88	165.21	87.066	33.916	4.2141e-06	78.099	0.00069186	0.00065511	0.00018338	563.42	6.9895e-06	7.2491e-06	800.09	201.41	7.0849e-06	7.0934e-06	343.16	162.08	86.002	33.839	6.9681e-06	76.949	226.929	153.361	160.422	83.678	248.503	208.839	83.820	89.241	281.508	222.025	88.092	93.817	95.405	99.583	225.704	97.238	-8191	255	
1272.351	1	1	0	0	0.21071	0.085334	0.092442	0.12743	0.08988	0.12472	0.11433	0.14254	0.070455	0.018436	0.20659	0.17433	0.45487	0.10851	0.16496	0.18247	-2.1333	-2.3875	-2.2812	-2.7771	-2.5208	-2.2062	-2.7687	-2.3875	-2.5875	-2.6104	-2.3542	-2.6833	-2.3417	-2.4375	-2.7667	-2.3021	355.535	280.126	386.882	109.956	243.325	302.633	300.518	376.642	168.168	304.635	419.801	387.835	386.549	78.476	198.062	390.672	0.00069911	0.000443	8.4035e-05	575.38	9.2068e-06	7.8676e-06	822.2	201.17	4.131e-06	4.4134e-06	341.32	159.76	83.872	32.734	5.7307e-06	75.704	0.00067042	0.00064861	0.00018059	563.56	6.7799e-06	7.0322e-06	801.83	197.72	6.7835e-06	6.8397e-06	336.07	157.1	82.971	32.713	6.6444e-06	74.557	227.742	197.955	163.744	83.768	277.232	268.448	84.370	89.726	226.371	207.149	88.438	93.820	95.323	100.062	240.505	97.428	-8191	255	
1272.447	1	1	0	0	0.041845	0.051144	0.12792	0.13198	0.10584	0.077511	0.30434	0.11696	0.16189	0.083662	0.11354	0.17617	0.055692	0.11365	0.29013	0.09122	-2.0354	-2.6104	-2.225	-2.7833	-2.5625	-2.3396	-2.8771	-2.5875	-2.3854	-2.6208	-2.0625	-2.6437	-2.5979	-2.3083	-2.6542	-2.5438	145.611	243.620	266.240	381.476	267.374	196.072	370.118	86.095	337.057	391.449	264.306	72.881	334.004	317.925	304.490	157.678	0.00061393	0.00092508	0.00017336	570.12	5.7891e-06	4.9114e-06	807.7	198.32	1.86e-06	5.3762e-06	334.38	156.44	82.735	32.252	6.3746e-06	74.734	0.00065456	0.00061176	0.0001696	557.31	6.6613e-06	6.8122e-06	787.67	194.57	6.8834e-06	6.6577e-06	329.74	154.19	81.495	32.245	6.5995e-06	73.666	228.150	129.595	160.508	83.694	221.259	242.489	84.186	89.715	211.268	192.790	88.535	93.783	95.555	99.348	248.109	97.649	-8191	255	
1272.543	1	1	0	0	0.006948	0.20289	0.23205	0.15697	0.15677	0.081555	0.15805	0.1506	0.18284	0.1106	0.16683	0.20972	0.16482	0.30044	0.1928	0.1744	-1.8854	-2.7333	-2.2792	-2.725	-2.6229	-2.4229	-2.9333	-2.6104	-2.4042	-2.7708	-2.4083	-2.7229	-2.6708	-2.2542	-2.7354	-2.4917	353.402	357.621	93.330	348.699	265.008	335.417	384.705	216.434	241.170	341.489	215.523	394.966	146.592	396.449	292.888	366.896	0.00061698	0.00043604	0.00022205	568.2	5.3589e-06	5.3606e-06	809.33	197.99	5.0466e-06	4.0205e-06	337.35	157.05	82.904	32.349	5.6089e-06	75.582	0.00064222	0.00060679	0.00017213	556.22	6.6122e-06	6.8239e-06	789.69	194.49	6.6084e-06	6.7997e-06	330.7	154.35	81.779	32.35	6.7607e-06	74.061	230.120	153.073	169.854	83.966	218.665	210.033	84.076	90.009	229.948	226.322	88.335	93.840	95.243	99.724	216.915	97.195	-8191	255	
1272.639	1	1	0	0	0.40671	0.081876	0.20223	0.11152	0.21948	0.10253	0.090742	0.098439	0.053327	0.10738	0.15908	0.25558	0.16816	0.24274	0.022982	0.22416	-1.9542	-2.9	-2.1875	-2.425	-2.5208	-2.3167	-2.675	-2.6604	-2.3292	-2.8354	-2.2958	-2.6646	-2.6167	-2.2812	-2.7583	-2.5625	245.153	95.908	79.958	274.352	319.174	320.807	170.927	202.086	324.436	335.103	409.213	74.250	317.835	147.652	115.691	85.066	0.00065833	0.00051932	6.7048e-05	571.91	4.7783e-06	4.8621e-06	814.86	197.51	1.8679e-06	3.2167e-06	339.41	157.65	83.418	32.455	5.5726e-06	75.319	0.00067196	0.00060866	0.0001717	557.9	6.5131e-06	6.7893e-06	793.19	194.56	6.6593e-06	6.7148e-06	332.3	154.81	82.026	32.475	6.6637e-06	74.28	226.651	110.342	133.055	83.912	270.498	210.197	84.214	89.340	249.545	207.158	88.439	93.841	95.274	99.726	263.156	97.449	-8191	255	
1272.735	1	1	0	0	0.351	0.096412	0.10453	0.087515	0.29092	0.059709	0.20012	0.32789	0.148	0.17443	0.024369	0.24642	0.17992	0.26951	0.41997	0.26789	-1.8167	-2.6042	-2.3542	-2.3229	-2.6646	-2.2729	-2.5042	-2.5312	-2.1646	-2.7104	-2.4979	-2.6542	-2.9	-2.2104	-2.6292	-2.6521	357.093	409.930	421.335	390.326	301.424	286.504	309.336	399.825	260.175	106.325	348.332	389.285	116.779	179.857	161.808	384.783	0.00062944	0.00060478	0.00017156	569.09	6.6526e-06	4.2474e-06	813.1	198.91	6.0936e-06	5.9182e-06	338.24	158.04	83.35	32.928	8.8984e-06	76.038	0.0006466	0.000627	0.00017345	557.54	6.7055e-06	6.9496e-06	791.51	195.41	6.7946e-06	6.7063e-06	332.55	155.68	82.726	32.775	6.8852e-06	74.849	232.437	178.499	142.917	83.613	248.150	164.147	84.100	90.118	266.257	228.920	88.305	93.883	95.601	99.632	182.893	97.489	-8191	255	
1272.856	1	1	0	0	0.43357	0.11215	0.2289	0.22002	0.16814	0.18342	0.20399	0.10561	0.018728	0.19489	0.010747	0.18972	0.251	0.096478	0.24271	0.085688	-1.8104	-2.4375	-2.1896	-2.4417	-2.7354	-2.4833	-2.65	-2.5729	-2.1813	-2.6583	-2.5958	-2.4104	-2.7687	-2.3937	-2.3896	-2.7875	142.426	80.822	200.649	377.043	162.705	155.766	413.352	324.300	175.908	165.725	412.077	292.379	429.270	231.609	280.276	367.047	0.00068265	0.00046974	6.8614e-05	565.94	5.5487e-06	2.8297e-06	813.59	200.87	1.9835e-06	7.3559e-06	341.05	160.5	85.176	33.314	6.5726e-06	77.065	0.00066285	0.00062518	0.00018082	555.98	6.8433e-06	6.9918e-06	792.27	197.19	6.8742e-06	6.8757e-06	335.64	158.09	84.099	33.308	7.0971e-06	75.593	229.545	141.607	237.374	83.840	228.383	218.991	83.876	89.851	306.940	231.391	88.366	93.559	95.599	99.516	234.310	97.575	-8191	255	
1272.952	1	1	0	0	0.26364	0.019478	0.064047	0.048938	0.1279	0.087786	0.2327	0.043398	0.41356	0.094644	0.075433	0.18209	0.10796	0.28326	0.17757	0.19541	-1.6917	-2.5875	-2.2521	-2.2417	-2.6917	-2.3937	-2.5708	-2.7562	-2.2729	-2.6042	-2.5312	-2.2354	-2.7917	-2.3958	-2.3438	-2.6312	258.749	148.423	177.544	184.132	230.031	74.284	395.403	232.004	337.138	376.967	201.827	402.337	78.434	298.172	311.449	76.432	0.00068902	0.00036253	0.00020261	570.13	3.4123e-06	5.4654e-06	814.26	201.18	5.548e-06	1.4031e-06	345.07	161.93	85.176	33.272	4.9999e-06	76.705	0.00067159	0.00064767	0.00018076	558.34	6.9534e-06	7.1139e-06	794.76	198.28	6.9457e-06	7.1155e-06	337.41	159	84.552	33.327	7.0477e-06	75.494	232.512	160.143	187.779	83.938	243.184	209.401	84.341	90.043	271.326	224.683	88.832	93.487	95.560	99.528	225.353	97.308	-8191	255	
1273.047	1	1	0	0	0.33308	0.13794	0.043745	0.049008	0.082131	0.2814	0.42729	0.1286	0.057843	0.18218	0.12454	0.12532	0.040699	0.20013	0.052921	0.077327	-1.6375	-2.5979	-2.4104	-2.3042	-2.7604	-2.4042	-2.5125	-2.6375	-2.1437	-2.5271	-2.7958	-2.3396	-2.7562	-2.2896	-2.3042	-2.6937	229.374	73.134	286.777	276.175	217.050	215.335	372.465	341.412	367.143	416.788	378.228	339.370	74.401	279.524	183.707	202.158	0.00062522	0.00088448	0.00022162	569.52	6.066e-06	7.5758e-06	818.13	202.5	4.2995e-06	4.0673e-06	342.6	161.51	85.589	33.207	3.3703e-06	76.634	0.00067474	0.00066812	0.00018522	559.29	6.9276e-06	7.1888e-06	795.99	198.91	7.1303e-06	7.3252e-06	338.12	159.23	84.43	33.247	7.1872e-06	75.333	230.563	176.434	184.053	83.670	259.484	184.561	84.187	89.449	247.224	275.323	88.309	93.675	95.726	99.687	177.912	97.507	-8191	255	
1273.144	1	1	0	0	0.13617	0.19167	0.015389	0.14807	0.28864	0.16037	0.076426	0.19506	0.083444	0.18595	0.2216	0.15458	0.19037	0.20743	0.18583	0.14043	-1.8417	-2.4354	-2.675	-2.4813	-2.6354	-2.6063	-2.275	-2.6896	-2.4271	-2.5125	-2.5979	-2.2687	-2.6125	-2.6417	-2.3625	-2.8417	431.263	351.407	330.750	339.946	86.634	387.266	123.959	313.205	288.749	196.653	404.622	413.830	78.813	341.302	159.350	81.269	0.00065534	0.0011149	8.8154e-05	570.38	2.5724e-06	4.7389e-06	812.43	199.28	5.9917e-06	3.5347e-06	337.59	156.69	82.729	32.227	3.7338e-06	73.851	0.00067626	0.00066657	0.00018287	558.94	6.9702e-06	7.2135e-06	791.32	196.18	7.0793e-06	7.1241e-06	331.63	154.5	81.649	32.094	6.8944e-06	72.453	228.158	185.210	259.988	83.624	235.477	212.782	83.663	89.505	262.412	230.963	88.689	93.862	95.630	99.621	300.503	97.483	-8191	255	
1273.239	1	1	0	0	0.14036	0.18228	0.052207	0.07313	0.31118	0.18464	0.11547	0.187	0.21898	0.24102	0.14509	0.13918	0.065294	0.33954	0.1931	0.20425	-1.7062	-2.6312	-2.5458	-2.275	-2.6167	-2.5792	-2.4458	-2.8958	-2.3979	-2.5521	-2.9417	-2.3542	-2.6583	-2.6375	-2.2646	-2.9854	342.639	414.837	146.281	197.642	92.014	107.199	75.605	415.656	365.394	339.614	126.081	118.985	399.174	173.159	139.491	356.025	0.00063413	0.00066482	0.00017385	563.86	1.7133e-06	3.0264e-06	805.06	195.43	3.2261e-06	4.2517e-06	332.55	154.88	80.754	31.673	4.0706e-06	72.858	0.0006587	0.00063788	0.00017564	552.6	6.7224e-06	6.8369e-06	783.53	191.76	6.7507e-06	6.8956e-06	326.66	151.49	79.903	31.537	6.7119e-06	71.81	229.329	150.847	207.941	83.618	426.552	185.343	84.115	89.820	266.143	220.278	88.525	93.991	95.327	99.802	253.535	97.312	-8191	255	
1273.335	1	1	0	0	0.17444	0.36613	0.28719	0.13673	0.12679	0.027944	0.21117	0.16495	0.18936	0.060122	0.19296	0.14882	0.29433	0.17585	0.14345	0.26297	-1.975	-2.2042	-2.7583	-2.2479	-2.4479	-2.5792	-2.3583	-2.7229	-2.4396	-2.5292	-2.8312	-2.3042	-2.5312	-2.6958	-2.15	-2.8021	402.138	384.522	250.934	364.685	403.620	142.381	147.599	311.143	269.923	221.273	417.036	82.061	377.230	420.297	410.479	290.927	0.00053018	0.00098509	0.00016371	560.82	6.561e-06	2.3923e-06	808.96	195.68	2.446e-06	2.8986e-06	333.95	153.31	80.915	31.593	5.6136e-06	73.109	0.00065314	0.0006382	0.00017611	550.88	6.8097e-06	6.9819e-06	785.94	191.88	6.7587e-06	6.8827e-06	327.52	151.25	80.014	31.502	6.8543e-06	71.962	228.235	176.641	133.929	83.889	267.718	220.082	84.164	89.703	245.784	204.240	88.790	93.816	95.733	100.037	216.645	97.281	-8191	255	
1273.456	1	1	0	0	0.1193	0.22864	0.23895	0.20828	0.12479	0.097755	0.29718	0.19497	0.35811	0.17085	0.24615	0.31052	0.31919	0.4148	0.17622	0.033239	-2.0312	-2.2938	-2.5958	-2.4104	-2.5854	-2.7167	-2.3667	-2.825	-2.275	-2.4708	-2.8375	-2.5458	-2.6292	-2.6312	-2.2313	-2.7687	332.532	193.051	121.846	412.321	382.525	190.600	322.893	336.876	380.096	325.474	334.252	412.269	392.115	417.392	208.452	114.253	0.00060694	0.0010026	0.00011629	566.36	5.0719e-06	4.209e-06	807.5	196.12	2.1627e-06	7.7225e-07	332.16	152.98	80.842	31.364	3.2953e-06	72.978	0.00065058	0.00064946	0.00017701	553.24	6.8451e-06	6.8897e-06	787.41	192.37	6.8275e-06	6.9656e-06	326.34	151.06	79.83	31.384	6.9033e-06	71.709	229.585	148.346	159.168	83.972	204.094	265.753	84.008	89.742	314.015	219.751	88.549	93.888	95.365	100.172	260.806	97.683	-8191	255	
1273.552	1	1	0	0	0.13732	0.11903	0.18683	0.041564	0.12036	0.060852	0.17686	0.15041	0.089782	0.29547	0.14285	0.20495	0.18276	0.083155	0.17889	0.078906	-2.0479	-2.1125	-2.4646	-2.5583	-2.3792	-2.7917	-2.1708	-2.8229	-2.6396	-2.1875	-2.8375	-2.6646	-2.3083	-2.8375	-2.2438	-2.6208	298.254	356.405	190.624	86.320	309.055	328.143	157.797	408.412	125.435	187.628	378.424	415.229	300.051	412.142	306.662	113.280	0.00066784	0.00038978	0.00019483	561.27	2.7673e-06	2.4436e-06	803.15	195.15	1.7536e-06	2.989e-06	333.08	154.02	81.65	31.461	5.9918e-06	72.479	0.00065431	0.00063227	0.00017188	550.68	7.0074e-06	6.9769e-06	781.56	191.54	6.8011e-06	7.1288e-06	326.16	151.08	80.354	31.505	6.8584e-06	71.642	228.584	180.513	150.922	83.816	251.488	227.913	83.965	89.657	226.234	246.309	88.402	93.546	95.657	99.743	233.685	97.291	-8191	255	
1273.648	1	1	0	0	0.23636	0.11467	0.078669	0.30538	0.24004	0.2504	0.10217	0.07557	0.35108	0.24905	0.20111	0.20721	0.034301	0.1158	0.18931	0.13144	-2.2396	-2.2167	-2.7167	-2.5167	-2.2708	-2.9167	-2.5042	-2.6729	-2.6375	-2.3396	-2.7958	-2.7146	-2.2771	-2.8792	-2.3438	-2.7542	173.030	267.395	209.035	384.108	368.200	117.053	386.115	100.154	322.808	366.088	351.151	259.679	143.536	380.257	216.771	372.349	0.00058368	0.00037306	0.00013651	560.8	5.3353e-06	8.2669e-06	802.04	195.73	2.7869e-06	6.2542e-06	334.25	155.96	82.375	31.943	7.384e-06	73.212	0.00065589	0.00063569	0.00018001	550.5	6.9803e-06	7.0706e-06	780.24	192.95	7.0202e-06	7.0885e-06	328.49	153.32	81.392	31.79	6.9512e-06	72.141	225.746	191.650	153.563	83.808	252.603	207.771	83.951	89.859	238.751	238.051	88.828	94.121	95.672	99.690	240.007	97.470	-8191	255	
1273.744	1	1	0	0	0.16361	0.19523	0.11534	0.23091	0.11932	0.08106	0.092792	0.21818	0.11492	0.054516	0.31073	0.30734	0.014681	0.13645	0.15558	0.36798	-2.2479	-2.0917	-2.6917	-2.6063	-2.3542	-2.7292	-2.2771	-2.5208	-2.6708	-2.5021	-2.5521	-2.9	-2.2979	-2.675	-2.5396	-2.4313	135.007	421.359	114.075	381.509	168.615	92.973	347.493	311.767	100.203	110.573	402.383	346.245	312.275	354.869	202.961	297.567	0.00064838	0.00061617	0.00015405	567.21	4.7622e-06	7.6924e-06	806.5	197.13	2.3833e-06	6.5971e-06	337.64	156.82	83.248	31.969	4.9385e-06	73.921	0.00067439	0.0006538	0.0001857	553.46	7.0843e-06	7.1229e-06	784.24	194.5	6.9779e-06	7.0777e-06	331.3	154.39	82.013	32.05	7.0339e-06	72.799	229.433	174.004	154.481	83.724	277.250	189.963	83.967	89.878	231.282	199.968	88.669	93.786	95.672	99.871	275.845	97.439	-8191	255	
1273.840	1	1	0	0	0.084344	0.22407	0.23246	0.14276	0.11799	0.11057	0.077768	0.055983	0.1528	0.13678	0.1603	0.12257	0.24648	0.14827	0.13747	0.23296	-2.2	-2.2687	-2.3854	-2.4917	-2.3229	-2.6875	-2.6167	-2.4167	-2.6042	-2.375	-2.5938	-2.6729	-2.3542	-2.6	-2.2938	-2.4417	329.241	340.950	223.744	383.118	161.010	298.795	366.903	340.135	141.585	137.642	415.173	430.099	133.211	330.315	185.135	388.222	0.00066792	0.00052618	0.00022205	563.86	5.072e-07	3.5755e-06	807.56	197.57	5.0378e-06	1.8276e-06	333.63	156.81	82.547	32.054	6.4998e-06	73.309	0.00066758	0.00066153	0.00018486	552.4	7.1654e-06	7.2494e-06	785.12	194.32	7.0229e-06	7.2312e-06	329.98	154.06	81.812	31.942	7.0764e-06	72.119	232.619	157.369	198.795	83.937	240.505	236.281	83.991	89.975	248.446	224.503	88.536	93.688	95.613	99.838	235.877	97.347	-8191	255	
1273.936	1	1	0	0	0.15464	0.17094	0.11408	0.15828	0.15397	0.13998	0.30728	0.2085	0.28327	0.048934	0.2041	0.10565	0.20231	0.12068	0.23345	0.0883	-2.2875	-2.2458	-2.4625	-2.6854	-2.4313	-2.5854	-2.7104	-2.5083	-2.5604	-2.6229	-2.4542	-2.7583	-2.3375	-2.7833	-2.4313	-2.2458	177.621	136.716	319.416	307.267	124.812	389.142	371.423	430.811	228.683	333.164	409.260	190.030	397.299	372.688	119.538	180.616	0.00061922	0.0003857	0.00013212	560.86	5.174e-06	5.8266e-06	798.54	196.38	5.3573e-06	3.9816e-06	336.1	155.58	82.664	32.112	6.1139e-06	73.233	0.00067336	0.00065599	0.00018433	550.57	6.9248e-06	7.1458e-06	781.09	193.4	6.9391e-06	6.9694e-06	329.29	153.43	81.639	31.807	6.963e-06	71.962	230.882	128.944	100.999	84.051	216.168	206.664	84.037	89.404	263.555	195.311	88.743	94.052	95.586	99.378	253.096	97.425	-8191	255	
1274.033	1	1	0	0	0.19619	0.050312	0.079298	0.15191	0.085958	0.17152	0.15536	0.40282	0.085098	0.12925	0.32524	0.12405	0.2944	0.10713	0.059542	0.14281	-2.2333	-2.1792	-2.5375	-2.6813	-1.9562	-2.7604	-2.7604	-2.2417	-2.5771	-2.4833	-2.4562	-2.7083	-2.1708	-2.4792	-2.6104	-2.3521	295.172	291.564	355.273	335.655	310.221	276.504	321.749	333.548	196.902	415.972	372.376	242.912	280.007	134.695	238.649	94.910	0.00064327	0.00078682	0.00015574	564.29	6.5963e-06	3.5817e-07	803.05	194.09	5.1876e-06	6.4842e-06	331.35	152.47	80.103	30.772	3.4474e-06	71.146	0.00066837	0.00064664	0.00018325	550.03	6.9267e-06	7.0898e-06	780.65	191.4	7.0868e-06	6.9053e-06	324.45	149.66	79.154	30.776	6.8811e-06	70.063	230.622	167.783	181.640	84.063	257.571	85.802	83.969	89.840	206.589	198.173	88.664	93.850	95.525	99.711	230.666	97.546	-8191	255	
1274.127	1	1	0	0	0.12436	0.14316	0.10477	0.21924	0.27735	0.26083	0.1679	0.13334	0.18687	0.18532	0.055234	0.24664	0.19234	0.035116	0.30368	0.28274	-2.1625	-2.5687	-2.2521	-2.6021	-2.2042	-2.4938	-2.7771	-2.1042	-2.8708	-2.3812	-2.3063	-2.8063	-2.2062	-2.6562	-2.6813	-2.3708	419.615	158.880	334.788	221.150	371.209	425.481	291.629	400.682	298.358	176.320	121.348	423.850	87.778	230.298	391.456	282.183	0.00061099	0.00078862	0.00013412	558.23	6.701e-06	4.2614e-06	799.18	192.01	4.4967e-06	2.7062e-06	328.53	151.41	79.693	30.892	6.5965e-06	71.084	0.00063586	0.00062766	0.00017653	548.9	6.6971e-06	6.8563e-06	778.25	189.08	6.6559e-06	6.7744e-06	322.82	149.07	78.714	30.672	6.7935e-06	70.011	227.813	150.427	179.103	83.545	242.589	221.651	83.767	89.599	263.011	269.285	88.246	93.573	95.585	99.636	204.506	97.246	-8191	255	
1274.248	1	1	0	0	0.068127	0.17972	0.14095	0.15188	0.14973	0.0087915	0.17642	0.16539	0.19133	0.046535	0.27937	0.19872	0.14042	0.11384	0.10642	0.0643	-2.0812	-2.5396	-2.2042	-2.7812	-2.5	-2.4333	-2.8021	-2.4417	-2.7313	-2.4917	-2.3417	-2.8146	-2.5	-2.4208	-2.6271	-2.35	344.971	393.163	114.374	290.936	96.507	403.769	293.559	85.422	288.007	380.022	281.619	418.224	255.552	335.406	299.931	224.582	0.00061168	0.00073155	0.0001466	559.48	4.9868e-06	5.9074e-06	799.58	192.12	5.6053e-06	2.3468e-06	327.86	150.36	79.039	30.43	6.8744e-06	70.514	0.00064056	0.000615	0.00017072	547.31	6.6719e-06	6.9107e-06	774.68	188.51	6.7376e-06	6.6924e-06	320.46	147.56	78.151	30.446	6.7129e-06	69.26	231.374	149.576	132.447	83.862	262.603	202.728	84.148	89.721	237.003	303.504	88.284	93.864	95.220	99.659	234.917	97.508	-8191	255	
1274.344	1	1	0	0	0.14255	0.12588	0.11968	0.2031	0.18811	0.14369	0.13885	0.10955	0.18388	0.17135	0.12478	0.3068	0.10814	0.099038	0.066727	0.0096555	-2.1417	-2.5875	-2.225	-2.8104	-2.2854	-2.3688	-2.6958	-2.375	-2.5	-2.6854	-2.3688	-2.7417	-2.5125	-2.3979	-2.7729	-2.4917	176.952	282.288	197.717	421.829	223.980	285.637	295.454	405.378	131.397	100.674	312.956	105.597	228.076	180.653	145.072	107.510	0.00061021	0.00061685	8.0442e-05	557.07	7.0584e-06	4.8988e-06	791.13	191.51	4.2953e-06	3.3734e-06	326.01	149.85	79.405	30.581	7.6094e-06	70.345	0.00063973	0.00063709	0.0001751	545.01	6.7153e-06	6.892e-06	770.41	188.32	6.643e-06	6.6728e-06	320.04	147.39	78.3	30.467	6.7516e-06	69.15	230.212	123.133	237.423	83.745	238.733	209.461	84.144	89.670	261.073	377.623	88.737	94.024	95.325	99.849	226.345	97.303	-8191	255	
1274.417	1	1	0	0	0.052862	0.10999	0.030342	0.052341	0.23288	0.049801	0.24217	0.13428	0.12027	0.11134	0.17037	0.142	0.2206	0.26217	0.056895	0.50106	-2.0312	-2.7875	-2.3979	-2.8	-2.5146	-2.4896	-2.8708	-2.4083	-2.5812	-2.7438	-2.4229	-2.6021	-2.4854	-2.3708	-2.8479	-2.4958	201.608	394.407	193.390	188.641	204.734	351.250	109.640	408.070	412.190	323.952	417.807	377.545	156.608	99.250	194.996	415.896	0.00057333	0.00061105	4.9976e-05	560.11	6.7838e-06	4.8732e-06	794.44	191.29	4.1864e-06	3.3589e-06	325.18	149.71	79.291	30.547	5.112e-06	70.251	0.00064496	0.00061184	0.00016995	546.96	6.5511e-06	6.8157e-06	772.36	188.24	6.6243e-06	6.4914e-06	319.58	146.89	77.848	30.333	6.4942e-06	69.095	230.877	135.072	196.801	83.834	221.885	228.968	84.475	89.704	267.530	199.619	88.461	93.994	95.653	99.728	226.993	97.419	-8191	255	
1274.536	1	1	0	0	0.13172	0.25329	0.13353	0.29043	0.17857	0.13424	0.20579	0.17208	0.16472	0.12594	0.25088	0.14951	0.18597	0.13192	0.33623	0.077093	-1.9188	-2.5333	-2.0583	-2.6333	-2.4667	-2.3771	-2.8354	-2.3854	-2.3125	-2.7	-2.3667	-2.5479	-2.5979	-2.1208	-2.5854	-2.5458	337.508	394.110	252.117	417.646	124.101	364.473	366.515	387.023	122.660	128.207	341.296	398.559	429.861	195.184	429.335	291.612	0.00060773	0.00059352	0.00014764	556.98	2.6827e-06	4.1489e-06	794.45	190.75	3.1433e-06	4.8046e-06	328.18	150.43	79.824	30.51	2.6634e-06	70.363	0.00063038	0.00060277	0.00016883	546.38	6.4508e-06	6.6938e-06	774.2	188.09	6.5505e-06	6.5493e-06	320.75	148.09	78.737	30.529	6.6393e-06	69.309	223.920	158.818	144.842	83.770	232.688	226.876	83.958	89.681	262.980	278.054	88.521	94.150	95.874	99.538	223.178	97.470	-8191	255	
1274.632	1	1	0	0	0.19687	0.12838	0.27218	0.060078	0.30604	0.079502	0.1251	0.092376	0.22116	0.15063	0.29523	0.11362	0.31402	0.036662	0.17458	0.15572	-1.6375	-2.6625	-2.2521	-2.4854	-2.5938	-2.3187	-2.7333	-2.5333	-2.4083	-2.7542	-2.3875	-2.4854	-2.6333	-2.3	-2.6167	-2.6437	317.047	342.550	308.330	317.291	97.181	342.129	317.679	428.723	247.888	101.699	429.773	80.141	147.152	193.385	371.205	402.711	0.00060931	0.00043676	0.00020172	556.53	5.9464e-06	7.905e-06	797.03	192.33	3.0536e-06	2.5047e-06	328.11	153.15	81.413	31.024	2.2648e-06	71.605	0.00064174	0.00062283	0.00017147	545.08	6.5595e-06	6.8416e-06	772.08	189.09	6.804e-06	6.6622e-06	321.76	149.93	80.066	30.99	6.8656e-06	70.431	230.488	174.331	140.582	84.004	258.724	222.974	84.080	89.883	212.599	228.458	88.534	93.953	95.639	99.806	210.589	97.553	-8191	255	
1274.728	1	1	0	0	0.24831	0.068052	0.12873	0.13555	0.25817	0.043241	0.39013	0.059239	0.12343	0.28359	0.17912	0.22353	0.24279	0.11818	0.16138	0.20512	-1.9438	-2.625	-2.4104	-2.5479	-2.6854	-2.3125	-2.6625	-2.5021	-2.3271	-2.8417	-2.5333	-2.4854	-2.8521	-2.2979	-2.4708	-2.7521	201.308	419.268	280.999	379.717	137.249	189.224	371.308	253.882	397.281	387.441	416.850	384.467	419.668	352.142	123.657	400.202	0.00060223	0.00079276	0.00016461	557.49	4.5338e-06	4.5177e-06	796.04	194.38	3.189e-06	7.1803e-06	331.86	154.17	81.489	31.411	5.2193e-06	72.496	0.00065402	0.00064377	0.00017732	547.09	6.8148e-06	7.0116e-06	776.28	191.18	6.8788e-06	6.8451e-06	325.88	152.03	80.961	31.32	6.871e-06	71.098	231.294	165.412	125.924	84.029	212.577	234.538	84.115	89.759	266.739	224.672	88.250	93.727	95.843	99.750	242.301	97.661	-8191	255	
1274.824	1	1	0	0	0.097297	0.118	0.22373	0.31765	0.01417	0.016425	0.059907	0.050738	0.31287	0.10335	0.17169	0.24775	0.15078	0.071171	0.19368	0.32002	-1.8479	-2.7083	-2.45	-2.3333	-2.7458	-2.3375	-2.475	-2.6646	-2.3479	-2.9167	-2.4917	-2.3583	-2.8521	-2.3229	-2.4271	-2.6604	171.144	340.046	244.560	406.742	341.855	222.879	385.950	193.498	415.724	240.286	185.840	424.475	423.285	376.915	191.896	391.270	0.00057568	0.00092162	0.00016958	558.07	4.0357e-06	5.0457e-06	804.61	194.24	4.4179e-06	4.3007e-06	333.84	155.85	82.639	31.695	1.9543e-06	73.263	0.00066044	0.00064046	0.00017808	548.69	6.9166e-06	6.9968e-06	779.92	192.03	6.8351e-06	6.933e-06	327.99	153.39	81.593	31.629	7.0281e-06	71.78	225.364	150.381	150.596	83.744	198.035	201.357	83.939	89.735	247.294	227.492	88.440	93.766	95.422	99.863	194.579	97.408	-8191	255	
1274.945	1	1	0	0	0.061786	0.16946	0.1432	0.092692	0.14826	0.28744	0.084587	0.35642	0.12234	0.095865	0.092938	0.24526	0.046881	0.29331	0.11138	0.25833	-1.8917	-2.6146	-2.5771	-2.4062	-2.7792	-2.3021	-2.6042	-2.6667	-2.2917	-2.6042	-2.55	-2.4625	-2.6937	-2.4167	-2.3208	-2.5271	154.424	364.771	292.318	419.197	201.526	107.922	357.437	354.564	372.336	388.584	165.003	410.493	135.701	82.783	136.626	355.226	0.00061121	0.00050571	0.00012577	559.22	7.9942e-06	3.9962e-06	802.21	195.16	4.8834e-06	7.4037e-06	330.55	153.95	80.981	31.028	3.3358e-06	70.911	0.0006549	0.0006411	0.00018055	548.13	6.8941e-06	6.9578e-06	780.17	191.43	6.8061e-06	6.8019e-06	324.4	150.88	79.928	30.871	6.9407e-06	69.712	233.518	231.065	118.465	83.452	240.962	223.311	84.184	89.777	237.966	237.400	88.367	93.815	95.467	99.742	211.931	97.407	-8191	255	
1275.040	1	1	0	0	0.19737	0.19535	0.16986	0.083406	0.12708	0.19072	0.072031	0.31775	0.11015	0.13689	0.1235	0.1957	0.23659	0.31747	0.14246	0.11783	-1.8667	-2.4271	-2.5292	-2.35	-2.675	-2.4833	-2.3625	-2.8083	-2.3708	-2.7062	-2.7438	-2.4479	-2.5938	-2.4292	-2.3292	-2.7438	366.253	198.088	355.001	311.185	397.714	112.933	343.277	351.196	92.316	297.764	313.245	348.326	366.892	346.566	264.743	133.927	0.00059739	0.00050628	0.00017457	555.02	9.4135e-06	4.3078e-06	787.85	190.19	2.7876e-06	5.0937e-06	322.98	146.25	77.007	29.676	6.1916e-06	68.804	0.00064688	0.00063162	0.0001712	543.47	6.5698e-06	6.6274e-06	767.37	186.16	6.5198e-06	6.8098e-06	316.4	144.44	76.282	29.662	6.5022e-06	67.774	225.262	153.026	140.911	83.653	255.801	186.236	83.875	89.965	247.518	220.201	88.353	93.861	95.127	100.063	224.412	97.675	-8191	255	
1275.137	1	1	0	0	0.10443	0.11455	0.059536	0.19254	0.31899	0.030578	0.08729	0.18931	0.13463	0.071887	0.065196	0.18716	0.20235	0.12952	0.11492	0.13177	-1.9146	-2.5792	-2.5854	-2.3646	-2.6312	-2.5333	-2.4021	-2.9729	-2.2333	-2.6021	-2.6333	-2.275	-2.525	-2.2917	-2.2854	-2.7438	163.109	140.035	189.811	88.672	358.342	264.085	182.382	277.931	244.197	225.971	73.010	315.038	368.143	94.425	305.171	371.588	0.00060931	0.00053184	0.00014969	551.29	2.6474e-06	4.1798e-06	792.75	188.79	2.2791e-06	3.7003e-06	320.98	146.86	77.378	29.715	5.9318e-06	69.009	0.0006195	0.00059932	0.00016876	541.31	6.5415e-06	6.5519e-06	769.86	185.35	6.3467e-06	6.6713e-06	315.71	144.3	76.343	29.734	6.4677e-06	67.898	227.419	170.000	120.150	84.089	263.027	177.991	83.837	89.986	242.813	261.514	88.920	94.035	95.525	99.689	238.366	97.674	-8191	255	
1275.232	1	1	0	0	0.25523	0.11931	0.23917	0.19296	0.15249	0.28577	0.14506	0.020929	0.053972	0.068664	0.21666	0.20637	0.090143	0.17479	0.2348	0.12151	-1.7417	-2.4208	-2.6042	-2.3396	-2.7812	-2.5667	-2.45	-2.7167	-2.4167	-2.4	-2.5604	-2.2	-2.7354	-2.6854	-2.3208	-2.65	202.831	121.259	119.961	379.835	418.630	128.619	309.979	213.952	347.581	415.940	393.472	295.918	325.517	388.936	314.308	126.093	0.00061162	0.00035698	0.00017357	553.1	5.9187e-06	6.0123e-06	791.4	188.23	7.0963e-06	1.0894e-06	321.48	147.58	77.114	29.652	1.265e-06	68.638	0.00061708	0.00060084	0.00016788	542.12	6.3578e-06	6.6121e-06	770.64	185.51	6.3955e-06	6.507e-06	316.15	144.64	76.302	29.644	6.3965e-06	67.724	230.987	175.987	168.023	83.928	299.992	207.780	84.298	89.880	232.867	240.178	88.337	93.851	95.516	99.923	217.210	97.622	-8191	255	
1275.328	1	1	0	0	0.086856	0.17238	0.10809	0.083455	0.096807	0.033759	0.091801	0.089714	0.14724	0.1271	0.042257	0.33445	0.15539	0.088652	0.17001	0.21019	-2.1542	-2.3021	-2.6813	-2.2479	-2.4958	-2.55	-2.2562	-2.7021	-2.3458	-2.2667	-2.7958	-2.4146	-2.6312	-2.7875	-2.3	-2.8479	97.407	341.650	190.264	298.968	260.746	168.384	345.832	418.990	412.153	291.531	285.821	86.126	175.058	401.728	388.637	415.606	0.00060782	0.00030142	0.00018863	554.76	2.5704e-06	2.6566e-06	786.94	189.04	6.6857e-06	2.1393e-06	320.44	147.11	77.208	30.035	6.0479e-06	69.075	0.00061468	0.00060859	0.00016588	541.53	6.5785e-06	6.5646e-06	767.22	185.23	6.2987e-06	6.6404e-06	314.76	144.58	76.391	29.949	6.3452e-06	68.115	223.999	146.674	147.370	84.144	170.084	192.876	84.086	89.936	262.768	191.541	88.563	93.813	95.849	99.724	258.748	97.567	-8191	255	
1275.424	1	1	0	0	0.17474	0.27148	0.25219	0.064475	0.20174	0.11598	0.17	0.29652	0.35177	0.13222	0.020921	0.11696	0.098471	0.11194	0.049672	0.10385	-2.0083	-2.3146	-2.9062	-2.3396	-2.5	-2.6854	-2.3771	-2.6875	-2.5833	-2.2479	-2.6729	-2.2729	-2.5938	-2.6813	-2.35	-2.725	411.171	91.758	244.631	133.664	96.850	178.804	249.007	334.870	96.695	155.270	409.423	109.470	277.070	128.637	186.662	356.024	0.00057694	0.00040567	0.0001426	555.21	3.6558e-06	8.4624e-06	790.55	188.99	1.3576e-06	3.7174e-06	323.18	146.98	77.704	30.118	3.484e-06	69.16	0.0006107	0.00060083	0.00016346	542.2	6.4657e-06	6.5292e-06	769.21	185.47	6.3511e-06	6.6696e-06	315.48	144.63	76.769	30.04	6.3068e-06	68.07	232.855	193.602	153.727	83.758	259.137	206.996	84.124	89.704	217.430	207.850	88.416	94.039	95.362	99.682	235.829	97.499	-8191	255	
1275.545	1	1	0	0	0.2069	0.18777	0.12996	0.11315	0.25634	0.19854	0.2334	0.047253	0.083318	0.1273	0.12678	0.23867	0.12847	0.24963	0.02122	0.2238	-1.9625	-2.2896	-2.7708	-2.3875	-2.4354	-2.7313	-2.375	-2.7125	-2.7375	-2.2583	-2.8292	-2.325	-2.1646	-2.6896	-2.3958	-2.9688	400.191	206.289	156.193	142.752	148.753	379.957	392.383	231.041	112.008	364.450	333.940	377.671	375.765	74.037	300.138	397.334	0.00058511	0.00046954	0.00014718	552.17	4.6412e-06	6.8654e-06	791.27	189.27	3.156e-06	5.5524e-06	323.86	148.92	78.689	30.671	7.9718e-06	70.263	0.00061587	0.00060391	0.00016433	541.37	6.4141e-06	6.5182e-06	770.11	186.6	6.7256e-06	6.6385e-06	317.32	146.72	77.709	30.575	6.5894e-06	69.462	229.093	180.230	162.822	83.895	212.096	273.207	83.691	89.902	215.162	223.943	88.302	93.880	95.433	99.607	241.295	97.654	-8191	255	
1275.641	1	1	0	0	0.23931	0.22525	0.21109	0.26315	0.10236	0.15512	0.28094	0.22228	0.20711	0.12231	0.15224	0.27177	0.062813	0.1816	0.21168	0.4138	-2.1896	-2.1958	-2.6875	-2.5125	-2.3875	-2.6875	-2.4	-2.7188	-2.6375	-2.325	-2.7104	-2.6104	-2.425	-2.6542	-2.5771	-2.4792	383.497	389.805	352.540	405.983	117.487	306.246	408.648	406.257	72.341	377.578	94.477	427.409	237.201	83.864	260.290	118.638	0.00061159	0.00052564	7.7413e-05	559.72	6.0631e-06	7.9403e-06	791.59	192.59	5.0641e-06	4.0262e-06	329.84	153.17	81.332	31.296	5.6404e-06	71.388	0.00064798	0.00062603	0.00017855	545.71	6.6685e-06	6.7984e-06	773.21	189.53	6.7072e-06	6.8451e-06	322.94	150.38	80.391	31.359	6.8997e-06	70.578	231.318	177.501	182.326	83.649	214.112	220.363	84.177	89.604	277.192	235.150	88.782	93.760	96.148	99.950	276.812	97.305	-8191	255	
1275.713	1	1	0	0	0.11217	0.27996	0.088035	0.27999	0.19369	0.061728	0.090586	0.20237	0.16884	0.10966	0.15929	0.30112	0.10773	0.28032	0.19792	0.068848	-2.1458	-2.2417	-2.7104	-2.7833	-2.3229	-2.7188	-2.3083	-2.5979	-2.5062	-2.3354	-2.4417	-2.6271	-2.3625	-2.6854	-2.2583	-2.5167	293.371	268.955	266.559	408.628	208.444	213.867	279.392	86.237	154.254	278.890	359.052	388.028	106.545	391.354	193.141	160.498	0.00060971	0.00063616	0.00014957	552.79	5.3164e-06	8.1236e-07	788.33	195.28	5.8028e-06	6.9864e-06	331.96	156.09	83.756	32.076	3.6332e-06	73.061	0.00065829	0.00064213	0.00017806	543.64	6.945e-06	7.1322e-06	773.09	192.46	7.0736e-06	7.0418e-06	326.79	153.78	82.675	32.049	7.1522e-06	71.759	229.148	154.328	128.998	83.903	243.837	338.331	83.918	90.152	238.767	216.704	88.413	93.492	95.635	99.708	202.326	97.286	-8191	255	
1275.809	1	1	0	0	0.20516	0.30469	0.37696	0.22522	0.046533	0.17449	0.31445	0.046758	0.21192	0.21256	0.23217	0.292	0.12276	0.22302	0.079778	0.15467	-2.125	-2.4396	-2.5646	-2.5833	-2.3792	-2.6458	-2.5792	-2.6021	-2.7354	-2.3937	-2.6312	-2.6104	-2.4354	-2.7896	-2.6562	-2.4354	343.096	210.286	202.680	262.762	294.336	190.466	315.347	253.425	184.736	327.334	416.754	425.727	268.952	360.166	197.186	327.868	0.00062529	0.00033692	0.00016563	553.24	8.1919e-06	8.9739e-06	796.15	195.61	6.3046e-06	2.9057e-06	333.44	156.36	83.071	32.116	8.8816e-06	73.755	0.00066033	0.00064517	0.00018138	544.35	6.9243e-06	7.0307e-06	775.75	193.03	6.9732e-06	7.0831e-06	327.48	154.36	82.637	32.115	7.0033e-06	72.11	234.303	113.808	191.147	84.135	267.065	210.355	84.177	89.600	247.311	222.206	88.892	93.544	95.297	99.878	219.138	97.535	-8191	255	
1275.929	1	1	0	0	0.20687	0.16935	0.31859	0.06538	0.11322	0.11114	0.42504	0.25455	0.070128	0.078981	0.2071	0.19602	0.19884	0.023296	0.16839	0.19221	-2.2729	-2.5146	-2.4875	-2.7438	-2.1625	-2.725	-2.5021	-2.3438	-2.7229	-2.4125	-2.4604	-2.8021	-2.4229	-2.6292	-2.5938	-2.3458	314.810	312.021	386.055	73.553	387.250	87.275	153.070	117.533	192.582	137.423	302.613	327.991	87.718	297.967	340.961	388.782	0.00066627	0.00038987	9.2656e-05	559.86	1.7589e-06	5.0559e-06	796.22	195.66	2.2923e-06	5.7066e-06	336.6	158.21	83.752	32.403	7.1547e-06	73.559	0.00067893	0.00064129	0.00018392	546.78	6.916e-06	7.1387e-06	778.09	193.16	7.0762e-06	7.0286e-06	329.97	155.24	82.688	32.238	6.8697e-06	72.183	228.329	171.469	163.950	83.633	246.532	270.583	84.020	89.533	303.157	222.771	88.334	93.719	95.591	99.873	210.354	97.335	-8191	255	
1276.024	1	1	0	0	0.19195	0.042537	0.072793	0.19801	0.36316	0.10484	0.23518	0.22423	0.21984	0.10566	0.077268	0.35442	0.1519	0.3152	0.31268	0.15922	-2.1979	-2.3083	-2.525	-2.7292	-2.25	-2.6375	-2.5563	-2.2583	-2.6208	-2.2271	-2.3854	-2.7896	-2.225	-2.6333	-2.5542	-2.3979	172.750	104.142	292.847	400.335	224.650	185.882	374.774	414.662	189.959	153.647	209.788	356.512	205.852	402.418	267.886	368.191	0.00059549	0.00073918	0.00021442	555.36	1.0872e-05	6.4549e-06	792.14	194.03	3.2057e-06	4.2778e-06	329.07	153.15	81.311	31.217	5.274e-06	70.879	0.00066531	0.0006462	0.00018433	544.94	6.8616e-06	7.0768e-06	772.13	190.74	6.8962e-06	6.9288e-06	322.04	150.45	80.075	31.087	6.7608e-06	69.854	229.515	176.168	153.836	83.707	262.613	216.603	84.201	89.725	222.487	208.205	88.899	93.724	95.305	99.599	258.279	97.571	-8191	255	
1276.120	1	1	0	0	0.12559	0.082	0.078249	0.31115	0.20527	0.1185	0.26331	0.32407	0.08026	0.15877	0.19069	0.25052	0.16625	0.14334	0.28322	0.046	-2.2146	-2.3875	-2.2062	-2.9729	-2.2	-2.5021	-2.7083	-2.2958	-2.5854	-2.5187	-2.4833	-2.7812	-2.2229	-2.5438	-2.5292	-2.4729	344.295	157.550	425.260	304.335	310.724	409.540	113.922	357.409	388.141	159.545	413.381	366.914	421.474	409.871	216.948	394.304	0.0005895	0.00034861	0.00010124	549.22	3.3072e-06	2.2955e-06	783.96	190.62	1.3928e-06	6.7469e-06	323.75	150.77	79.961	30.76	4.997e-06	70.263	0.00063748	0.00061313	0.00017534	539.39	6.7068e-06	6.9648e-06	766.22	187.81	6.8993e-06	6.7424e-06	318.18	148.02	78.899	30.728	6.5636e-06	69.222	230.569	161.259	169.165	83.905	248.206	196.605	83.731	89.728	284.371	249.835	89.165	93.814	95.690	99.967	208.212	97.883	-8191	255	
1276.218	1	1	0	0	0.11804	0.03128	0.32971	0.084716	0.19077	0.24887	0.20132	0.1637	0.13622	0.14639	0.030112	0.16004	0.070906	0.24274	0.20125	0.21454	-2.1083	-2.3333	-2.2146	-2.5146	-2.325	-2.4167	-2.575	-2.1354	-2.7625	-2.525	-2.2479	-2.7146	-2.2188	-2.4667	-2.6625	-2.3229	101.915	418.122	96.739	335.829	177.783	225.039	399.997	102.382	305.138	315.280	126.458	83.216	146.618	306.507	285.803	392.392	0.0006077	0.00066781	0.00012587	552.53	4.1708e-06	1.9864e-06	787.23	190.02	6.8168e-06	4.855e-06	321.19	149.39	78.739	30.739	5.5879e-06	70.335	0.00064198	0.0006181	0.00017104	540.68	6.516e-06	6.6821e-06	765.92	186.9	6.6708e-06	6.7489e-06	317.31	147.02	78.238	30.68	6.7896e-06	69.172	225.354	165.251	107.829	83.804	234.392	221.571	83.851	89.847	240.510	199.941	88.640	93.849	95.768	99.912	249.717	97.573	-8191	255	
1276.312	1	1	0	0	0.16494	0.17893	0.14751	0.13895	0.12707	0.27845	0.218	0.060331	0.14488	0.24792	0.10851	0.092594	0.034759	0.25607	0.12359	0.11581	-2.0292	-2.2479	-2.3333	-2.8	-2.4667	-2.2875	-2.7438	-2.2708	-2.5479	-2.6208	-2.4146	-2.5958	-2.4708	-2.3708	-2.7021	-2.3375	232.193	336.248	320.571	410.675	142.772	125.111	76.584	272.766	427.924	357.397	354.233	336.863	109.136	330.937	311.594	356.172	0.00062158	0.00079576	0.00013584	553.53	2.1261e-06	2.31e-06	785.71	190.5	3.0086e-08	3.7262e-06	323.22	150.83	79.484	30.859	5.7448e-06	70.548	0.0006493	0.00061203	0.00017449	541.26	6.5818e-06	6.8552e-06	766.66	187.1	6.7401e-06	6.8508e-06	317.83	148.27	78.695	30.86	6.7715e-06	69.397	228.843	120.253	173.627	83.771	251.978	234.244	84.184	89.938	396.707	206.704	88.905	93.851	95.673	99.751	220.112	97.254	-8191	255	
1276.408	1	1	0	0	0.1615	0.19471	0.297	0.13336	0.18028	0.049103	0.038313	0.091777	0.31092	0.22552	0.16935	0.12471	0.085091	0.079449	0.21973	0.24309	-2.0333	-2.5958	-2.2333	-2.5687	-2.5771	-2.3167	-2.6729	-2.4208	-2.4604	-2.4979	-2.2479	-2.4646	-2.2958	-2.1604	-2.6583	-2.3604	267.986	242.798	131.171	348.998	425.414	257.932	312.293	393.691	360.702	106.194	72.304	423.038	168.123	90.136	114.752	360.061	0.0006113	0.00055657	7.4964e-05	550.27	7.1603e-06	5.6044e-06	782.25	190.51	6.5681e-06	3.3832e-06	323.13	149.19	79.561	30.781	8.8398e-06	70.013	0.00064381	0.00062941	0.00017323	539.28	6.6152e-06	6.9883e-06	764.18	187.1	6.8746e-06	6.7656e-06	316.91	147.32	78.467	30.655	6.7287e-06	68.862	229.727	232.057	149.784	83.910	239.655	224.631	84.174	89.772	261.308	262.345	88.599	93.920	95.975	99.975	248.474	97.374	-8191	255	
1276.505	1	1	0	0	0.093736	0.037595	0.11279	0.28474	0.074303	0.081108	0.15209	0.10049	0.16382	0.1038	0.15867	0.37846	0.074058	0.22671	0.13546	0.10648	-1.9688	-2.4458	-2.1729	-2.6354	-2.5354	-2.2979	-2.7375	-2.3917	-2.3854	-2.7188	-2.4375	-2.6917	-2.4896	-2.275	-2.6021	-2.5	351.353	386.364	327.104	427.028	168.403	196.887	398.337	154.805	364.663	360.889	429.502	410.225	229.200	98.206	234.525	79.798	0.00061787	0.00018941	0.00029701	549.81	6.2956e-06	7.1194e-06	782.85	191.24	4.2024e-06	5.7047e-06	323.59	151.28	80.447	31.306	5.8669e-06	71.628	0.00064945	0.00061517	0.000175	539.35	6.6387e-06	6.9409e-06	764.48	188.16	6.7648e-06	6.8501e-06	318.68	149.16	79.753	31.168	6.9321e-06	70.309	230.765	262.727	165.758	83.626	250.004	235.987	84.165	89.912	228.474	250.767	88.745	93.683	95.514	99.946	227.927	97.459	-8191	255	
1276.625	1	1	0	0	0.10761	0.2163	0.20045	0.16537	0.24371	0.024521	0.21444	0.2651	0.18994	0.29425	0.2995	0.087083	0.20049	0.048153	0.017161	0.19841	-1.6958	-2.6333	-2.1271	-2.4917	-2.3396	-2.1333	-2.6562	-2.3187	-2.3354	-2.7875	-2.2875	-2.5604	-2.6458	-2.1312	-2.5229	-2.5312	169.115	136.763	204.666	375.864	356.696	387.365	86.516	315.723	252.913	383.740	248.430	335.222	365.991	378.346	295.621	390.527	0.00057934	0.0006051	0.0001092	554.31	6.5732e-06	5.5605e-06	785.25	194.18	3.7314e-06	3.6193e-06	330.52	155.17	82.49	31.877	3.2214e-06	71.62	0.00066089	0.00064236	0.00017862	541.41	6.9106e-06	7.0005e-06	766.69	190.98	6.9794e-06	7.1839e-06	323.44	151.97	81.445	31.64	7.0408e-06	70.584	228.439	180.183	127.199	83.995	207.243	202.899	84.185	89.771	213.726	256.084	88.040	93.747	95.677	99.712	182.178	97.467	-8191	255	
1276.721	1	1	0	0	0.28657	0.11206	0.1565	0.19613	0.18026	0.13051	0.22559	0.13497	0.057005	0.15513	0.12457	0.061059	0.012238	0.085625	0.073977	0.13024	-1.8417	-2.5583	-2.1833	-2.5375	-2.6167	-2.1083	-2.4583	-2.6208	-2.3937	-2.7	-2.5187	-2.5146	-2.6833	-2.0854	-2.6646	-2.6354	263.029	118.888	310.418	86.359	112.251	99.558	380.781	89.102	298.906	362.640	264.497	330.002	409.073	248.529	251.804	370.908	0.00061072	0.00072767	0.00015176	548.53	3.9313e-06	7.0135e-06	790.82	194.05	4.8014e-06	3.8829e-06	330.41	154.64	82.265	31.758	1.4099e-06	72.496	0.0006598	0.00064764	0.00018614	541.39	6.8815e-06	7.1047e-06	771.67	190.47	7.0284e-06	7.0463e-06	323.32	151.94	81.105	31.75	6.8448e-06	71.335	228.326	211.854	117.195	83.742	226.189	223.800	83.994	90.238	288.471	187.640	88.298	93.844	95.660	99.811	228.383	97.620	-8191	255	
1276.817	1	1	0	0	0.35239	0.20863	0.054794	0.21718	0.14048	0.18158	0.32752	0.28904	0.16694	0.16841	0.12234	0.11231	0.055311	0.19073	0.061707	0.03947	-1.7938	-2.6917	-2.1937	-2.4271	-2.5604	-2.2667	-2.6063	-2.3896	-2.0896	-2.7271	-2.3625	-2.3521	-2.6729	-2.225	-2.3937	-2.5708	248.001	256.824	211.443	387.018	220.663	397.279	417.437	98.413	222.231	370.170	112.029	394.182	104.986	389.548	85.765	332.597	0.0006014	0.00031555	0.0002021	551.07	6.3161e-06	4.735e-06	786.52	192.32	4.4051e-06	6.4558e-06	328.83	152.66	82.217	31.408	6.2645e-06	71.61	0.00064722	0.00064908	0.00017845	539.93	6.8833e-06	6.9411e-06	767.95	189.81	6.9807e-06	6.9355e-06	322.38	150.48	80.668	31.36	6.8765e-06	70.397	230.822	121.650	147.132	84.005	227.947	213.861	84.390	89.428	276.533	226.118	88.437	93.786	95.684	99.632	225.140	97.411	-8191	255	
1276.938	1	1	0	0	0.2244	0.087246	0.079293	0.1808	0.17034	0.036846	0.043465	0.055877	0.20739	0.1506	0.15518	0.23294	0.15346	0.20857	0.29643	0.16464	-1.7208	-2.5125	-2.4292	-2.3792	-2.7729	-2.2167	-2.5104	-2.7792	-2.1896	-2.5667	-2.5479	-2.3479	-2.4667	-2.425	-2.325	-2.7062	399.552	162.821	196.809	352.379	103.023	199.636	72.506	294.754	198.565	401.916	76.266	75.436	113.313	416.947	113.433	371.498	0.00062571	0.00036649	0.00017848	554.07	2.6218e-06	1.9907e-06	788.55	190.74	3.6492e-06	6.7673e-06	324.81	150.37	80.29	30.81	4.3855e-06	70.706	0.00065052	0.00063441	0.00017897	540.75	6.6185e-06	6.9287e-06	767.2	188.24	6.5402e-06	6.8249e-06	318.48	148.02	78.89	30.79	6.5218e-06	69.494	227.323	177.353	176.758	83.628	242.638	158.897	84.112	89.841	228.458	214.783	88.736	93.840	95.421	99.888	240.262	97.304	-8191	255	
1277.010	1	1	0	0	0.22819	0.029502	0.38391	0.086338	0.14222	0.1013	0.1389	0.086227	0.19367	0.31797	0.18405	0.097906	0.40474	0.0023403	0.15924	0.47828	-1.6958	-2.4396	-2.4146	-2.3021	-2.6562	-2.4646	-2.5187	-2.7062	-2.1896	-2.5187	-2.5542	-2.3729	-2.5917	-2.1875	-2.3333	-2.6208	273.081	201.612	322.086	400.102	118.002	318.306	326.663	274.826	151.322	385.647	428.450	77.401	407.505	386.065	342.276	383.839	0.00060324	0.00027761	0.00024501	550.73	6.4144e-06	5.0463e-06	790.4	188.94	5.6469e-06	4.977e-06	320.41	148.6	78.001	30.36	4.7456e-06	69.844	0.00062107	0.00059779	0.0001666	538.22	6.5014e-06	6.6314e-06	766.6	185.47	6.5162e-06	6.5894e-06	315.54	145.97	76.939	30.174	6.586e-06	68.547	226.176	183.574	121.168	83.809	256.749	193.537	84.100	89.513	251.453	200.829	88.501	93.663	95.826	100.060	250.839	97.664	-8191	255	
1277.106	1	1	0	0	0.15002	0.15191	0.13119	0.14146	0.16413	0.072212	0.10518	0.13546	0.54646	0.13347	0.01529	0.23888	0.15004	0.16675	0.035237	0.14406	-1.7062	-2.4708	-2.5146	-2.2417	-2.5687	-2.4813	-2.4292	-2.6937	-2.375	-2.5917	-2.5271	-2.2042	-2.7229	-2.6396	-2.2562	-2.7208	407.417	406.189	321.788	379.770	187.085	123.630	278.156	132.790	326.947	107.183	304.006	406.879	315.094	407.246	156.640	287.465	0.00058149	0.00068022	5.6108e-05	548.72	4.3237e-06	4.3021e-06	788.36	187.24	3.8255e-06	4.6798e-06	318.23	147.61	77.835	30.05	7.8506e-06	69.524	0.0006173	0.00059207	0.00016387	537.01	6.3657e-06	6.4895e-06	764.75	184.39	6.4079e-06	6.444e-06	312.65	144.69	76.828	30.112	6.2619e-06	68.322	232.300	159.191	170.823	84.139	259.627	242.707	83.875	89.736	249.685	222.814	88.560	93.693	96.025	99.536	284.250	97.731	-8191	255	
1277.225	1	1	0	0	0.10558	0.13929	0.17196	0.011988	0.081485	0.069494	0.23742	0.20752	0.035904	0.35158	0.021198	0.28392	0.15489	0.086169	0.26886	0.29724	-1.8604	-2.3438	-2.5187	-2.3354	-2.3854	-2.4813	-2.3292	-2.8375	-2.3333	-2.4333	-2.7083	-2.3292	-2.5292	-2.4146	-2.225	-2.7583	309.474	312.686	359.760	293.101	265.318	121.856	318.583	84.642	394.697	298.307	431.046	95.317	276.574	396.069	250.042	319.730	0.0006174	0.00035329	0.00019617	547.81	4.6267e-06	4.6971e-06	784.23	187.71	2.5228e-06	8.6883e-06	319.62	147.32	79.073	30.565	7.1245e-06	70.372	0.00060287	0.00059205	0.00016033	535.75	6.435e-06	6.4965e-06	762.45	184.72	6.3225e-06	6.3218e-06	314.83	145.5	77.709	30.602	6.385e-06	69.004	229.608	138.335	175.288	84.202	250.223	189.874	84.263	89.947	244.188	216.479	88.443	93.603	95.368	99.899	265.665	97.411	-8191	255	
1277.321	1	1	0	0	0.12445	0.069827	0.048444	0.2042	0.26589	0.091673	0.13063	0.048112	0.18945	0.072814	0.30522	0.32441	0.12047	0.12565	0.11318	0.27077	-1.8	-2.4104	-2.7188	-2.225	-2.5812	-2.4562	-2.4375	-2.5938	-2.5271	-2.3896	-2.8396	-2.3354	-2.3812	-2.45	-2.1229	-2.7833	332.971	188.052	158.751	323.234	84.186	205.309	77.420	269.351	141.945	362.605	305.182	81.897	333.190	219.094	340.282	408.486	0.00054207	0.00078788	0.00017848	547.41	6.0137e-06	3.0249e-06	785.34	189.41	5.7138e-06	2.644e-06	319.69	148.79	78.366	30.658	2.7078e-06	69.949	0.00060777	0.0005863	0.0001652	535.84	6.1742e-06	6.3664e-06	762.11	185.64	6.3074e-06	6.3359e-06	313.51	145.7	77.14	30.551	6.4102e-06	68.822	232.623	194.569	178.994	83.891	193.132	264.356	84.190	89.689	270.921	265.085	88.499	94.058	95.305	99.695	266.425	97.578	-8191	255	
1277.417	1	1	0	0	0.22459	0.31929	0.21196	0.34678	0.16792	0.32018	0.13039	0.12017	0.11956	0.22735	0.17293	0.29063	0.036948	0.051691	0.11065	0.11868	-1.8625	-2.3792	-2.6479	-2.1667	-2.6792	-2.5208	-2.2062	-2.65	-2.5771	-2.2604	-2.5729	-2.5625	-2.3458	-2.8229	-2.2562	-2.775	407.901	157.866	331.404	390.520	170.289	413.953	295.897	280.328	330.493	138.869	279.591	392.760	362.821	291.965	238.832	374.646	0.00060942	0.00026739	5.0558e-05	549.76	3.9837e-06	4.1794e-06	780	188.52	3.8834e-06	1.7599e-06	317.52	147.39	79.138	30.609	6.4282e-06	70.459	0.00060678	0.0005814	0.00016312	536.78	6.269e-06	6.4006e-06	762.69	184.65	6.3617e-06	6.4165e-06	313.3	145.16	77.451	30.591	6.3947e-06	69.075	232.600	174.957	153.521	83.518	240.802	235.068	84.376	89.783	290.231	269.538	88.859	93.857	95.532	99.855	262.961	97.468	-8191	255	
1277.513	1	1	0	0	0.27082	0.12772	0.065216	0.2391	0.076695	0.066492	0.16566	0.15605	0.12792	0.22895	0.12292	0.15809	0.14461	0.22528	0.13911	0.080297	-2.0438	-2.2354	-2.4396	-2.3896	-2.3479	-2.4354	-2.1792	-2.3479	-2.6167	-2.2417	-2.6146	-2.3396	-2.2562	-2.7854	-2.2958	-2.6792	429.375	78.482	179.250	374.975	195.209	336.378	402.712	304.215	119.422	171.508	273.332	80.201	109.963	114.380	378.381	346.182	0.00062331	0.00060279	0.00014591	547.96	7.059e-07	5.1307e-06	784.04	188.67	1.7646e-06	2.335e-06	319.9	147.92	78.968	30.718	1.9635e-06	70.227	0.00062115	0.0005915	0.00016551	537.82	6.4395e-06	6.6115e-06	762.87	185.8	6.4513e-06	6.6768e-06	315.08	146.13	78.126	30.652	6.4945e-06	68.963	229.853	172.405	169.913	83.979	263.623	212.012	84.345	89.653	272.725	267.327	88.428	93.813	95.802	99.863	222.683	97.411	-8191	255	
1277.609	1	1	0	0	0.2316	0.095096	0.1357	0.12939	0.11162	0.12672	0.22715	0.046035	0.17855	0.31048	0.20018	0.26158	0.10651	0.19497	0.26618	0.081061	-2.0312	-2.0396	-2.6979	-2.5563	-2.2062	-2.5833	-2.4333	-2.4375	-2.7708	-2.2375	-2.6063	-2.5896	-2.4104	-2.7938	-2.2792	-2.5583	342.762	100.295	127.276	292.942	199.722	258.429	293.303	201.491	370.170	204.200	82.831	377.859	179.029	74.521	250.601	357.375	0.00060052	0.00058354	0.00017456	546.67	3.9441e-06	6.1034e-06	781.72	189.73	4.4166e-06	5.3822e-06	324.37	149.83	80.217	31.029	6.6114e-06	71.04	0.00061988	0.00059752	0.00016772	536.97	6.514e-06	6.6277e-06	763.55	186.76	6.5653e-06	6.5363e-06	316.84	147.48	79.143	31.143	6.6898e-06	70.093	227.294	164.821	175.606	83.861	247.324	236.285	84.022	89.585	271.597	202.333	88.485	93.788	95.749	99.842	257.720	97.642	-8191	255	
1277.706	1	1	0	0	0.275	0.1989	0.13465	0.10156	0.30018	0.21417	0.10258	0.12207	0.19925	0.22806	0.25135	0.19483	0.07957	0.19439	0.19413	0.2627	-1.9229	-2.2083	-2.5896	-2.4813	-2.0333	-2.6646	-2.6312	-2.4396	-2.6521	-2.1458	-2.6229	-2.4313	-2.1042	-2.6437	-2.3104	-2.4521	225.632	212.088	317.872	180.973	297.644	309.870	401.311	184.630	348.199	122.300	381.603	77.462	85.596	313.942	414.157	358.247	0.0005627	0.00044611	0.000112	551.79	7.7417e-06	7.7996e-06	794.46	191.2	3.6352e-06	4.1468e-06	325.75	152.54	81.406	31.656	4.2313e-06	72.397	0.00062656	0.00060583	0.00016938	539.91	6.4437e-06	6.5767e-06	768.93	188.35	6.5191e-06	6.6864e-06	319.98	149.96	80.378	31.564	6.6465e-06	71.102	231.938	154.312	141.662	83.970	260.177	232.102	83.863	89.713	252.965	215.332	88.409	93.738	95.743	99.557	254.555	97.460	-8191	255	
1277.802	1	1	0	0	0.061552	0.28367	0.11405	0.16195	0.2226	0.08647	0.13005	0.28959	0.060077	0.232	0.22911	0.14909	0.23751	0.36051	0.08404	0.10705	-2.2292	-2.2313	-2.525	-2.7062	-2.2188	-2.6	-2.4625	-2.4625	-2.525	-2.1875	-2.5708	-2.6396	-2.3417	-2.7438	-2.5104	-2.3979	114.262	287.902	289.188	413.255	370.493	318.153	362.397	363.089	86.573	94.151	410.782	123.679	151.955	386.832	308.338	267.146	0.00061652	0.00068091	0.00014275	550.79	3.6554e-06	6.8794e-06	791.07	192.16	3.4496e-06	3.3306e-06	328.01	152.78	81.229	31.367	4.2139e-06	71.751	0.00063432	0.00061272	0.0001708	540.13	6.5568e-06	6.7065e-06	770.24	189.32	6.5324e-06	6.6398e-06	320.58	149.86	79.922	31.392	6.4892e-06	70.47	229.256	181.924	182.156	83.664	247.522	192.130	84.193	90.026	235.859	346.260	88.390	93.622	95.230	99.664	217.532	97.613	-8191	255	
1277.898	1	1	0	0	0.27916	0.091242	0.070892	0.25174	0.087669	0.18195	0.27075	0.08563	0.21592	0.069319	0.30307	0.1968	0.10375	0.10745	0.10832	0.27999	-2.275	-2.1708	-2.5438	-2.6646	-2.2188	-2.5167	-2.5083	-2.2021	-2.7208	-2.2667	-2.6854	-2.6375	-2.2896	-2.8021	-2.4979	-2.4667	414.177	307.270	169.834	377.636	155.517	360.946	336.409	297.999	306.143	141.291	312.320	428.908	103.012	86.032	176.337	425.779	0.00059989	0.00065966	0.00018202	545.33	5.0488e-06	3.8652e-06	784.23	189.18	2.8041e-06	4.8487e-06	320.77	147.23	78.432	30.629	5.5546e-06	69.459	0.00060888	0.00060346	0.0001684	535.48	6.2838e-06	6.4125e-06	761.27	185.43	6.2557e-06	6.4546e-06	313.56	144.66	77.25	30.452	6.3009e-06	68.369	228.780	156.459	150.043	83.956	215.479	225.807	84.035	89.853	266.049	192.512	88.327	93.814	95.321	99.903	225.698	97.699	-8191	255	
#DATA ENDS
