BOXY.EXE: ISS Imagent and Oximeter Data Acquisition Program Version 0.80
Ascii Record File

#ACQ INFORMATION
2  Detector Channels 
16  External MUX Channels 
1  Auxiliary Channels 
5000  Waveform (CCF) Frequency (Hz)
1  Waveforms Skipped 
30  Waveforms Averaged 
1  Cycles Averaged 
16  Acquisitions per Waveform 
10.0806  Updata Rate (Hz) 

#FILE INFORMATION
TRUE -- External MUX Channel results are PARSED.
FALSE -- AC DC and Phase are NOT grouped.
TRUE -- Companion Program Settings File CREATED.
FALSE -- AC data not excluded
FALSE -- DC data not excluded
FALSE -- Phase data not excluded
FALSE -- Auxillary Chn. data not excluded
Tab delimiters

#CALIBRATION STATE
TRUE -- Waveform Calibration Values APPLIED.


#AUX CALIBRATION VALUES
Val Type	aux-1	

Term	1.0000e+00	
Factor	0.0000e+00	


#WF CALIBRATION VALUES
A = Detector Channel
Val Type	A-AC1	A-AC2	A-AC3	A-AC4	A-AC5	A-AC6	A-AC7	A-AC8	A-AC9	A-AC10	A-AC11	A-AC12	A-AC13	A-AC14	A-AC15	A-AC16	A-DC1	A-DC2	A-DC3	A-DC4	A-DC5	A-DC6	A-DC7	A-DC8	A-DC9	A-DC10	A-DC11	A-DC12	A-DC13	A-DC14	A-DC15	A-DC16	A-Ph1	A-Ph2	A-Ph3	A-Ph4	A-Ph5	A-Ph6	A-Ph7	A-Ph8	A-Ph9	A-Ph10	A-Ph11	A-Ph12	A-Ph13	A-Ph14	A-Ph15	A-Ph16	

Term	0.00000e+00	0.00000e+00	0.00000e+00	0.00000e+00	0.00000e+00	0.00000e+00	0.00000e+00	0.00000e+00	0.00000e+00	0.00000e+00	0.00000e+00	0.00000e+00	0.00000e+00	0.00000e+00	0.00000e+00	0.00000e+00	0.00000e+00	0.00000e+00	0.00000e+00	0.00000e+00	0.00000e+00	0.00000e+00	0.00000e+00	0.00000e+00	0.00000e+00	0.00000e+00	0.00000e+00	0.00000e+00	0.00000e+00	0.00000e+00	0.00000e+00	0.00000e+00	0.00000e+00	0.00000e+00	0.00000e+00	0.00000e+00	0.00000e+00	0.00000e+00	0.00000e+00	0.00000e+00	0.00000e+00	0.00000e+00	0.00000e+00	0.00000e+00	0.00000e+00	0.00000e+00	0.00000e+00	0.00000e+00	
Factor	1.00000e+00	1.00000e+00	1.00000e+00	1.00000e+00	1.00000e+00	1.00000e+00	1.00000e+00	1.00000e+00	1.00000e+00	1.00000e+00	1.00000e+00	1.00000e+00	1.00000e+00	1.00000e+00	1.00000e+00	1.00000e+00	1.00000e+00	1.00000e+00	1.00000e+00	1.00000e+00	1.00000e+00	1.00000e+00	1.00000e+00	1.00000e+00	1.00000e+00	1.00000e+00	1.00000e+00	1.00000e+00	1.00000e+00	1.00000e+00	1.00000e+00	1.00000e+00	X	X	X	X	X	X	X	X	X	X	X	X	X	X	X	X	

B = Detector Channel
Val Type	B-AC1	B-AC2	B-AC3	B-AC4	B-AC5	B-AC6	B-AC7	B-AC8	B-AC9	B-AC10	B-AC11	B-AC12	B-AC13	B-AC14	B-AC15	B-AC16	B-DC1	B-DC2	B-DC3	B-DC4	B-DC5	B-DC6	B-DC7	B-DC8	B-DC9	B-DC10	B-DC11	B-DC12	B-DC13	B-DC14	B-DC15	B-DC16	B-Ph1	B-Ph2	B-Ph3	B-Ph4	B-Ph5	B-Ph6	B-Ph7	B-Ph8	B-Ph9	B-Ph10	B-Ph11	B-Ph12	B-Ph13	B-Ph14	B-Ph15	B-Ph16	

Term	0.00000e+00	0.00000e+00	0.00000e+00	0.00000e+00	0.00000e+00	0.00000e+00	0.00000e+00	0.00000e+00	0.00000e+00	0.00000e+00	0.00000e+00	0.00000e+00	0.00000e+00	0.00000e+00	0.00000e+00	0.00000e+00	0.00000e+00	0.00000e+00	0.00000e+00	0.00000e+00	0.00000e+00	0.00000e+00	0.00000e+00	0.00000e+00	0.00000e+00	0.00000e+00	0.00000e+00	0.00000e+00	0.00000e+00	0.00000e+00	0.00000e+00	0.00000e+00	-1.39035e+02	-1.26531e+02	-1.24596e+02	-1.80804e+02	-7.25877e+01	-6.93892e+01	-1.54809e+02	-1.62015e+02	-7.25300e+01	-6.55066e+01	-1.69734e+02	-1.69176e+02	-1.79665e+02	-1.75011e+02	-7.13834e+01	-1.48090e+02	
Factor	2.07196e-05	1.75471e-04	4.94896e-05	1.59281e-01	1.38751e-06	1.84430e-06	1.75738e-01	1.16506e-01	1.58342e-06	2.10923e-06	1.01319e-01	2.93076e-02	2.93043e-02	9.46954e-03	1.57524e-06	1.37912e-02	1.13244e-05	1.86183e-05	5.24104e-06	8.03654e-02	1.86286e-07	2.08226e-07	8.35337e-02	5.82145e-02	1.97906e-07	2.07924e-07	4.98347e-02	1.44784e-02	1.50484e-02	4.83635e-03	1.97216e-07	6.82973e-03	X	X	X	X	X	X	X	X	X	X	X	X	X	X	X	X	



#DISTANCE SETTINGS
A = Detector Channel
A-1	A-2	A-3	A-4	A-5	A-6	A-7	A-8	A-9	A-10	A-11	A-12	A-13	A-14	A-15	A-16	

2.5000e+00	3.0000e+00	2.5000e+00	3.0000e+00	2.0000e+00	3.0000e+00	1.5000e+00	3.0000e+00	3.0000e+00	3.0000e+00	3.0000e+00	3.0000e+00	3.0000e+00	3.0000e+00	1.5000e+00	3.0000e+00	

B = Detector Channel
B-1	B-2	B-3	B-4	B-5	B-6	B-7	B-8	B-9	B-10	B-11	B-12	B-13	B-14	B-15	B-16	

1.0000e+01	1.0000e+01	1.0000e+01	1.4400e+00	1.0000e+01	1.0000e+01	1.5100e+00	1.9400e+00	1.0000e+01	1.0000e+01	1.9900e+00	2.4900e+00	2.4100e+00	2.9000e+00	1.0000e+01	2.9800e+00	




#DATA BEGINS
time	group	step	mark	flag	A-AC1	A-AC2	A-AC3	A-AC4	A-AC5	A-AC6	A-AC7	A-AC8	A-AC9	A-AC10	A-AC11	A-AC12	A-AC13	A-AC14	A-AC15	A-AC16	A-DC1	A-DC2	A-DC3	A-DC4	A-DC5	A-DC6	A-DC7	A-DC8	A-DC9	A-DC10	A-DC11	A-DC12	A-DC13	A-DC14	A-DC15	A-DC16	A-Ph1	A-Ph2	A-Ph3	A-Ph4	A-Ph5	A-Ph6	A-Ph7	A-Ph8	A-Ph9	A-Ph10	A-Ph11	A-Ph12	A-Ph13	A-Ph14	A-Ph15	A-Ph16	B-AC1	B-AC2	B-AC3	B-AC4	B-AC5	B-AC6	B-AC7	B-AC8	B-AC9	B-AC10	B-AC11	B-AC12	B-AC13	B-AC14	B-AC15	B-AC16	B-DC1	B-DC2	B-DC3	B-DC4	B-DC5	B-DC6	B-DC7	B-DC8	B-DC9	B-DC10	B-DC11	B-DC12	B-DC13	B-DC14	B-DC15	B-DC16	B-Ph1	B-Ph2	B-Ph3	B-Ph4	B-Ph5	B-Ph6	B-Ph7	B-Ph8	B-Ph9	B-Ph10	B-Ph11	B-Ph12	B-Ph13	B-Ph14	B-Ph15	B-Ph16	aux-1	digaux	

679.775	1	1	0	256	0.15379	0.24982	0.17957	0.10769	0.20945	0.12166	0.16218	0.10149	0.28209	0.21683	0.13522	0.17974	0.29512	0.14334	0.18269	0.065449	-2.3792	-2.3104	-2.3458	-2.7208	-2.2729	-2.6583	-2.6917	-2.0958	-2.5438	-2.5	-2.5146	-2.9354	-2.3896	-2.525	-2.5375	-2.2875	494.607	279.824	291.166	360.748	178.479	244.275	393.233	437.830	176.273	439.309	462.758	268.027	465.073	174.029	180.545	371.953	0.00055447	0.00089781	0.00035722	712.57	1.0295e-05	6.8124e-06	824.38	250.05	7.6733e-06	8.748e-06	326.16	119.72	83.691	36.428	2.5255e-06	59.955	0.008606	0.01439	0.0036986	757.59	0.00013939	0.00014616	869.47	284.82	0.00013601	0.00014895	354.04	128.01	93.125	39.598	0.0001314	64.076	183.734	264.533	154.247	152.589	289.315	275.138	151.534	157.727	334.287	325.740	156.124	160.996	162.514	167.486	160.101	164.518	-8191	255	
679.896	1	1	0	0	0.23558	0.15546	0.23128	0.095345	0.074224	0.25837	0.16077	0.16064	0.21251	0.15817	0.13295	0.14298	0.16953	0.28027	0.20896	0.40693	-2.2479	-2.4667	-2.4229	-2.7438	-2.3958	-2.4729	-2.9021	-2.3854	-2.6375	-2.7583	-2.3208	-2.7854	-2.3979	-2.5125	-2.6958	-2.3292	242.044	382.904	439.941	389.640	164.944	461.110	465.154	185.059	305.810	406.570	393.172	145.730	361.462	424.286	476.290	482.397	0.00065375	0.0012298	0.00032378	715.88	8.0373e-06	1.0658e-05	830.18	251	4.4912e-06	8.8046e-07	329.51	121.91	84.784	37.189	9.9879e-06	61.214	0.0077337	0.012843	0.0032686	754.95	0.00012571	0.00012876	869.25	283.48	0.00012476	0.00013665	355.86	129.66	93.872	40.098	0.00012527	65.634	179.743	185.042	265.652	153.046	229.107	247.727	151.357	157.549	285.427	224.827	156.412	160.718	162.796	167.511	325.332	164.422	-8191	255	
679.992	1	1	0	0	0.1797	0.1625	0.20856	0.21738	0.11404	0.33665	0.18731	0.1883	0.11669	0.083353	0.33286	0.36471	0.18403	0.27952	0.19845	0.19218	-2.1604	-2.3708	-2.2792	-2.7208	-2.4042	-2.3104	-2.6167	-2.0812	-2.55	-2.6896	-2.2167	-2.925	-2.3833	-2.4396	-2.8229	-2.5646	468.671	425.599	168.261	499.877	291.501	435.651	363.692	471.679	338.353	255.703	461.367	158.224	418.014	470.600	184.630	457.255	0.00067377	0.00049952	0.00033108	715.92	4.9848e-06	2.5299e-06	836.68	252.2	1.4962e-05	1.5666e-05	332.48	123.69	85.521	37.832	6.0714e-06	62.402	0.0076531	0.012734	0.003419	759.81	0.0001364	0.00014243	883.67	292.18	0.0001474	0.00016122	366.5	133.83	97.084	41.449	0.00015488	67.836	184.446	391.636	213.109	152.883	305.562	175.898	151.381	158.098	278.808	296.846	156.457	160.652	162.676	167.244	271.903	164.459	-8191	255	
680.088	1	1	0	0	0.30205	0.19215	0.22356	0.18853	0.18897	0.2971	0.13931	0.18789	0.13713	0.22861	0.067639	0.13118	0.2832	0.25236	0.080213	0.23948	-2.05	-2.5375	-2.1458	-2.7417	-2.4708	-2.3125	-2.775	-2.5438	-2.4688	-2.55	-2.4437	-2.8563	-2.5771	-2.3563	-2.6979	-2.3792	433.043	318.137	249.548	175.051	371.826	380.488	144.521	169.895	431.293	425.792	287.443	436.899	431.503	411.608	476.450	378.599	0.00082694	0.00025593	8.7919e-05	714.28	1.1072e-05	4.01e-06	837.19	252.03	4.8118e-06	1.1882e-05	330.47	124.69	85.825	37.899	4.8308e-06	62.523	0.0092522	0.015183	0.004214	767.55	0.00015975	0.0001677	893.27	297.14	0.00016254	0.00017468	369.87	135.12	97.855	41.643	0.00016315	68.093	184.420	306.478	263.445	152.807	473.000	324.309	151.766	157.784	415.567	359.695	156.182	160.770	162.207	167.181	334.686	164.252	-8191	255	
680.160	1	1	0	0	0.16815	0.048258	0.094928	0.062885	0.1219	0.29976	0.14571	0.12657	0.16107	0.2386	0.24209	0.11424	0.045268	0.10285	0.15216	0.12917	-1.9813	-2.5812	-2.2042	-2.7667	-2.4417	-2.1375	-2.9104	-2.4938	-2.4708	-2.7	-2.3604	-2.5896	-2.4125	-2.1437	-2.5583	-2.4604	151.833	435.585	158.537	295.089	333.275	390.436	140.838	370.379	453.677	455.536	497.263	390.087	389.473	446.098	495.645	355.831	0.00072388	0.00028907	0.00030318	706.69	8.0618e-06	1.0587e-05	825.27	250.32	3.1526e-06	1.302e-05	329.85	123.79	85.671	37.469	3.3179e-06	61.64	0.0093904	0.015414	0.0043869	760.58	0.00015888	0.00017037	885.12	296.67	0.00016284	0.00017609	369.57	134.68	97.731	41.573	0.00017005	67.749	175.791	224.286	158.700	152.708	232.672	262.849	151.680	157.741	143.703	346.795	156.488	160.849	162.390	167.397	386.787	164.296	-8191	255	
680.280	1	1	0	0	0.15865	0.055557	0.15766	0.17002	0.091971	0.10242	0.070813	0.27133	0.15422	0.16802	0.1039	0.34173	0.16613	0.27577	0.10795	0.061235	-2.0708	-2.6688	-2.0771	-2.6333	-2.4104	-2.2396	-2.7646	-2.5417	-2.325	-2.6417	-2.4125	-2.6562	-2.6208	-2.2229	-2.8542	-2.7542	284.915	470.697	438.360	483.100	385.708	193.352	372.231	142.977	218.410	365.590	389.694	495.798	155.468	436.617	151.163	483.710	0.00071209	0.000998	0.00036807	705.75	5.0458e-06	7.0866e-06	826.53	248.77	1.0137e-05	5.4234e-06	328.84	123.81	85.771	38.005	5.7368e-06	62.543	0.0097906	0.016092	0.0046393	760.07	0.00016262	0.00017788	885.22	296.33	0.0001652	0.00017896	370.54	134.71	97.884	41.979	0.00016982	68.321	168.690	210.506	142.904	152.739	236.002	405.519	151.772	157.896	257.341	385.715	156.150	160.561	162.796	167.048	240.215	164.323	-8191	255	
680.377	1	1	0	0	0.21301	0.24722	0.19096	0.34084	0.2332	0.12155	0.28682	0.081541	0.03774	0.083923	0.20579	0.23693	0.26861	0.017666	0.32192	0.18966	-1.8062	-2.6917	-2.4479	-2.5062	-2.5187	-2.0833	-2.6792	-2.5396	-2.3542	-2.6771	-2.4604	-2.5646	-2.575	-2.1396	-2.6729	-2.5875	210.557	495.852	302.309	485.190	159.928	484.454	496.178	423.247	425.567	298.535	242.819	357.258	388.107	482.553	472.382	419.635	0.00081715	0.0016121	0.0001139	707.2	1.1841e-05	7.0306e-06	826.99	250.86	1.1287e-05	5.7264e-06	331.89	124.48	85.959	38.213	5.234e-06	62.629	0.0097124	0.016036	0.0046456	761.95	0.00016116	0.00018111	887.66	298.05	0.00016654	0.00017973	373.26	135.52	98.298	42.293	0.0001705	68.787	174.583	236.497	188.652	152.673	219.076	344.103	151.707	158.201	233.731	292.930	156.516	160.788	162.568	167.120	255.832	164.326	-8191	255	
680.473	1	1	0	0	0.37945	0.1755	0.053765	0.52049	0.11673	0.056594	0.076693	0.13392	0.069847	0.26694	0.33162	0.15567	0.27129	0.40009	0.12598	0.16964	-1.7167	-2.675	-2.3979	-2.5875	-2.7271	-2.4813	-2.7562	-2.5729	-2.2417	-2.8021	-2.5021	-2.4521	-2.6396	-2.4667	-2.4167	-2.7375	175.792	384.467	405.361	419.233	426.242	195.544	420.080	447.503	364.398	448.446	426.319	406.214	441.868	451.803	438.730	466.292	0.00082873	0.00077276	0.00016676	703.91	8.473e-06	1.035e-05	829.47	248.67	4.3167e-06	1.7127e-05	330.52	123.99	86.102	37.95	1.1366e-05	62.589	0.0099757	0.016498	0.0047764	761.17	0.0001665	0.00019179	890.34	299.22	0.00017783	0.00019003	373.9	136.08	98.519	42.364	0.00017534	68.768	174.880	162.195	397.280	152.624	264.513	247.218	151.606	157.792	325.313	400.908	156.271	160.572	162.338	166.941	259.337	164.743	-8191	255	
680.593	1	1	0	0	0.16826	0.14105	0.12357	0.29258	0.149	0.089289	0.17853	0.23389	0.063169	0.068791	0.20597	0.43164	0.19425	0.22442	0.20844	0.23921	-1.9688	-2.8021	-2.4625	-2.2729	-2.7104	-2.4875	-2.5771	-2.5583	-2.0979	-2.8229	-2.5583	-2.3812	-2.8875	-2.4104	-2.4437	-2.6125	445.306	341.037	228.121	435.360	430.490	381.194	485.940	437.768	294.486	276.944	150.031	414.622	140.071	142.254	163.197	396.346	0.00074184	0.0011982	7.2132e-05	700.16	4.5477e-06	9.0112e-06	823.11	249.32	1.4708e-05	1.471e-05	330.46	124.53	85.328	37.781	8.7952e-06	62.236	0.010362	0.016639	0.0048173	755.19	0.0001662	0.0001895	884.28	295.08	0.00017196	0.00017798	369.99	135.1	97.179	41.721	0.00015969	67.91	173.639	382.993	462.829	152.646	323.147	341.752	151.777	157.332	282.769	266.217	156.304	160.975	162.746	167.409	283.755	164.282	-8191	255	
680.688	1	1	0	0	0.081978	0.22601	0.11859	0.092884	0.094376	0.18065	0.11998	0.049635	0.28106	0.13979	0.31137	0.15855	0.15564	0.30707	0.042615	0.19507	-1.7958	-2.6417	-2.5812	-2.2833	-2.4917	-2.5208	-2.5146	-2.6188	-2.2417	-2.7042	-2.6688	-2.4437	-2.7354	-2.5625	-2.4062	-2.6396	470.465	458.076	200.879	469.140	258.444	422.551	318.917	468.323	320.242	435.518	140.232	469.471	417.083	465.907	433.551	384.323	0.00082921	0.0017332	0.00035676	689.02	8.1194e-06	9.6481e-06	818.51	246.64	7.9993e-06	5.5428e-06	325.99	123.09	85.214	37.207	4.3789e-06	61.641	0.0098004	0.015385	0.0044342	742.28	0.00015827	0.00018213	870.56	291.4	0.00017153	0.00017653	366.37	134.27	97.336	41.581	0.00016813	67.375	177.464	269.250	339.496	152.749	358.865	231.559	152.044	157.960	233.996	429.553	156.510	160.997	162.392	167.086	334.172	164.277	-8191	255	
680.784	1	1	0	0	0.10735	0.32011	0.089488	0.086837	0.22654	0.13078	0.26921	0.087939	0.084801	0.22559	0.10188	0.17718	0.05048	0.16908	0.226	0.18408	-1.8375	-2.5375	-2.5708	-2.2229	-2.5875	-2.4542	-2.3688	-2.8021	-2.4167	-2.5417	-2.6604	-2.2938	-2.5729	-2.5875	-2.4771	-2.9313	410.495	279.229	402.269	191.233	474.768	154.142	498.878	405.416	489.495	292.626	355.828	470.036	203.823	479.003	434.563	444.029	0.00069108	0.00080792	0.00027663	681.94	2.6026e-06	3.6626e-06	806.85	245.66	1.3378e-05	6.3847e-06	322.02	121.48	84.298	36.909	9.7667e-06	60.743	0.010551	0.016415	0.0047552	744.41	0.00016969	0.00019351	870.64	294.5	0.00018649	0.00018919	366.48	134.18	97.41	41.506	0.00018441	67.415	173.198	331.052	224.911	152.899	477.576	202.242	151.941	157.755	313.240	328.549	156.564	160.709	162.509	167.348	289.782	164.388	-8191	255	
680.880	1	1	0	0	0.055474	0.12658	0.064315	0.12601	0.033313	0.26129	0.30622	0.12158	0.31952	0.2651	0.19897	0.24975	0.25159	0.16955	0.16009	0.11595	-1.9229	-2.5167	-2.5021	-2.325	-2.3854	-2.4458	-2.4271	-2.6583	-2.3063	-2.575	-2.9271	-2.3333	-2.6125	-2.5542	-2.1875	-2.8667	280.767	190.176	340.939	154.524	483.333	277.702	422.579	422.590	252.679	306.139	386.328	442.906	365.389	420.278	191.084	474.376	0.0007108	0.00028716	9.4958e-05	681.13	5.714e-06	3.7101e-06	809.95	243.85	7.481e-06	3.8599e-06	322.72	121.06	83.342	36.554	1.2245e-05	60.669	0.011589	0.0176	0.0050962	749.2	0.00017951	0.00020521	873.26	295.42	0.0001967	0.00019597	366.25	134.28	97.156	41.473	0.00019214	67.3	175.649	269.944	225.010	152.674	280.803	271.336	151.674	157.938	210.714	405.039	156.661	160.886	162.547	167.087	291.416	164.284	-8191	255	
680.976	1	1	0	0	0.12968	0.22708	0.18757	0.32714	0.034095	0.085445	0.32556	0.10417	0.094524	0.15936	0.053904	0.12835	0.099887	0.2481	0.19129	0.13038	-1.8875	-2.3979	-2.6229	-2.1792	-2.3917	-2.5812	-2.3187	-2.6437	-2.4896	-2.5083	-2.825	-2.3875	-2.3792	-2.3312	-2.2729	-2.7729	426.797	311.624	390.576	423.165	293.239	201.198	392.931	262.009	180.253	159.141	347.965	170.132	457.024	408.303	471.340	496.560	0.00060605	0.00079065	5.7723e-05	681.71	2.6161e-06	7.1328e-06	810.29	241.75	6.859e-06	1.2902e-05	321.38	120.59	83.569	36.708	1.4483e-05	60.899	0.011962	0.018138	0.005304	752.9	0.00018511	0.00021081	875.78	296.62	0.00020447	0.00020139	369.1	134.9	97.833	41.598	0.00020089	67.714	180.425	223.976	404.878	152.670	359.369	454.982	151.779	157.744	175.358	255.922	156.356	160.872	162.429	166.982	236.390	164.555	-8191	255	
681.072	1	1	0	0	0.18541	0.25414	0.23293	0.15938	0.30994	0.23109	0.05852	0.12422	0.055949	0.11186	0.20094	0.23487	0.16686	0.11157	0.10871	0.15514	-1.9042	-2.5104	-2.5854	-2.4813	-2.6875	-2.6958	-2.3063	-2.7229	-2.5479	-2.2313	-2.7146	-2.4042	-2.525	-2.6417	-2.1979	-2.6521	476.345	225.925	186.021	441.313	447.446	252.081	378.660	352.340	195.987	354.677	148.757	245.939	297.652	357.363	229.490	250.646	0.00077244	0.0002621	0.00023862	679.05	4.8468e-06	3.9145e-06	795.96	242	5.4046e-06	1.5056e-05	320.19	119.11	82.712	36.427	9.6791e-06	60.499	0.01229	0.018899	0.0055738	754.38	0.00019271	0.00022056	875.78	297.05	0.00021051	0.00021031	367.43	134.04	96.985	41.255	0.00020369	67.046	174.690	316.347	312.391	152.798	358.089	219.625	151.490	157.738	328.386	237.626	156.211	160.740	162.754	167.086	241.185	164.457	-8191	255	
681.168	1	1	0	0	0.31552	0.092947	0.072134	0.12918	0.22665	0.26522	0.20343	0.11691	0.50995	0.16367	0.31128	0.14561	0.3708	0.13999	0.069161	0.13676	-1.9854	-2.1771	-2.6688	-2.425	-2.4646	-2.6354	-2.3083	-2.6333	-2.5938	-2.2708	-2.8187	-2.5396	-2.4854	-2.7896	-2.3583	-2.7687	260.924	411.789	284.849	487.847	181.754	362.040	404.304	385.941	390.999	455.262	475.694	491.642	193.713	142.905	202.435	268.105	0.00071476	0.0012931	0.00018597	670.67	6.9072e-06	7.2041e-06	791.72	239.31	1.3945e-06	5.8948e-06	317.6	119.54	83.336	36.303	2.5159e-05	60.085	0.011906	0.018362	0.0053786	745.17	0.00018217	0.00021082	868.98	293.67	0.00020232	0.0002096	364.79	133.73	97.213	41.44	0.00021281	67.297	177.215	172.563	249.119	152.609	180.888	415.871	151.858	158.039	383.405	305.231	156.543	160.768	162.567	167.118	278.466	164.182	-8191	255	
681.289	1	1	0	0	0.12003	0.20742	0.15728	0.1392	0.2776	0.16163	0.11425	0.06579	0.39958	0.17935	0.1201	0.19562	0.09935	0.080357	0.2485	0.032578	-2.1562	-2.2062	-2.5708	-2.4875	-2.4375	-2.8104	-2.5042	-2.6562	-2.5771	-2.1583	-2.6917	-2.5187	-2.3688	-2.6271	-2.4188	-2.6854	279.087	247.996	462.724	445.358	141.230	144.008	461.191	268.810	165.684	221.683	413.230	393.433	307.599	176.472	322.588	240.411	0.00075888	0.0004349	0.00061635	681.76	1.2143e-05	1.0797e-05	801.86	241.67	9.0518e-06	1.5351e-05	317.95	119.91	83.313	36.817	8.5682e-06	60.465	0.012602	0.020135	0.0057859	760.31	0.00020012	0.00023252	883.1	300.63	0.00022122	0.00023049	370.36	135.49	98.691	42.056	0.00022697	67.943	183.512	178.269	343.303	152.586	255.821	299.532	151.547	157.615	302.989	250.805	156.679	160.665	162.203	167.149	179.417	164.336	-8191	255	
681.385	1	1	0	0	0.03934	0.23581	0.20143	0.088622	0.24369	0.17902	0.078591	0.09687	0.21598	0.091078	0.068706	0.25199	0.047535	0.23549	0.10755	0.27774	-2.0812	-2.2188	-2.5229	-2.7542	-2.6229	-2.7875	-2.3667	-2.55	-2.6063	-2.3812	-2.5708	-2.6063	-2.2521	-2.7979	-2.2958	-2.4938	467.107	189.932	258.950	327.771	237.639	278.487	142.880	364.073	361.590	342.997	143.968	472.154	403.452	454.013	331.001	465.875	0.00079558	0.00093845	0.0003049	683.24	6.5763e-06	6.4478e-06	807.33	241.62	1.0191e-05	2.5955e-06	320.69	120.39	83.67	36.808	1.1744e-05	60.935	0.013147	0.021264	0.0059129	764.01	0.00020418	0.00023593	885.77	300.87	0.00022281	0.00023477	370.92	135.84	98.864	42.111	0.00022095	68.2	179.064	193.709	215.616	152.683	256.211	153.118	151.628	157.831	417.479	189.033	156.258	160.598	162.404	166.959	324.850	164.289	-8191	255	
681.457	1	1	0	0	0.12096	0.095893	0.15059	0.18417	0.087861	0.19606	0.33883	0.24035	0.10095	0.16173	0.084053	0.1139	0.4826	0.1907	0.081085	0.17571	-2.0833	-2.2708	-2.7083	-2.7021	-2.1667	-2.7167	-2.4854	-2.35	-2.7896	-2.1729	-2.5396	-2.6312	-2.1896	-2.6729	-2.6	-2.5938	314.644	441.548	407.914	377.639	214.990	401.472	398.882	372.169	418.947	424.642	191.403	378.375	463.292	380.745	194.171	386.560	0.00066972	0.00070827	0.00040867	677.71	7.3231e-06	6.9138e-06	798.18	241.66	1.2167e-05	1.5415e-05	321.1	120.4	83.755	37.166	6.2479e-06	61.83	0.012674	0.020503	0.0055859	755.2	0.00019864	0.00022335	879.05	298.05	0.00021225	0.00022578	369.02	135.36	98.743	42.14	0.00021078	68.484	169.721	225.045	227.183	152.521	267.603	364.672	151.915	158.055	297.087	206.402	156.311	160.472	162.313	166.830	426.637	164.361	-8191	255	
681.553	1	1	0	0	0.083509	0.11466	0.037255	0.21898	0.19534	0.055511	0.1326	0.18141	0.16095	0.18529	0.15112	0.15687	0.12833	0.048421	0.42547	0.11952	-2.2104	-2.3083	-2.7708	-2.7354	-2.2542	-2.7333	-2.5521	-2.3521	-2.5646	-2.2854	-2.6042	-2.675	-2.2771	-2.7333	-2.4062	-2.4646	226.859	453.187	191.036	361.525	408.816	429.517	430.079	228.899	330.788	146.315	268.373	173.479	316.073	489.340	488.011	480.527	0.00078166	0.0015937	0.00018114	681.44	5.4136e-06	2.4036e-06	803.58	242.34	4.2034e-06	1.1303e-05	319.75	120.96	83.591	37.087	1.059e-05	61.307	0.012308	0.019863	0.0053587	753.68	0.00019565	0.00021622	879.72	297.5	0.00021054	0.00022366	367.11	135.69	98.995	42.134	0.00021278	68.35	184.535	230.483	225.196	152.617	199.382	426.057	151.626	157.486	382.445	170.450	156.197	160.525	162.283	166.954	295.216	164.180	-8191	255	
681.672	1	1	0	0	0.10563	0.16782	0.19928	0.35654	0.20754	0.27299	0.17784	0.18473	0.082962	0.19494	0.34062	0.28093	0.26233	0.17666	0.17689	0.22889	-2.3729	-2.3042	-2.375	-2.7313	-2.2125	-2.4854	-2.65	-2.2562	-2.4688	-2.2729	-2.6375	-2.7354	-2.4688	-2.7271	-2.5563	-2.5208	430.932	335.159	143.588	403.355	417.079	402.106	377.526	172.073	227.483	242.891	358.401	445.087	175.337	412.258	352.234	258.121	0.00085137	0.0012212	0.00023307	680.97	3.6484e-06	1.1927e-05	797.31	241.12	4.78e-06	7.7627e-06	316.59	120.25	82.932	36.717	1.6484e-05	60.813	0.012456	0.020297	0.0054317	755.62	0.00020054	0.00021942	875.49	298.34	0.00021375	0.00022835	365.32	135.21	98.908	41.947	0.00021922	68.183	178.293	361.420	296.205	152.606	299.202	284.780	151.462	157.448	356.664	342.258	156.338	160.410	162.447	166.938	253.838	164.291	-8191	255	
681.768	1	1	0	0	0.12549	0.037243	0.11644	0.24663	0.068918	0.21113	0.33311	0.11849	0.12452	0.11993	0.16796	0.20239	0.079943	0.22439	0.10609	0.23589	-2.15	-2.6417	-2.2729	-2.6854	-2.0979	-2.4104	-2.525	-2.3083	-2.7188	-2.3375	-2.5354	-2.5438	-2.4354	-2.6437	-2.6562	-2.4562	178.467	419.904	197.020	483.071	318.829	263.471	453.980	436.192	349.597	300.228	149.032	445.508	437.404	455.065	443.618	466.919	0.00079089	0.00071089	0.00030489	679.13	9.3517e-06	3.3749e-06	789.67	240.85	3.8829e-06	1.6714e-06	313.24	118.15	82.32	36.444	8.3931e-06	60.143	0.01291	0.021296	0.0057855	761.85	0.00021828	0.00023513	877.85	303.71	0.00022999	0.00024571	367.69	135.12	99.794	42.094	0.00023668	68.387	174.054	204.732	156.448	152.530	479.066	269.230	151.510	157.681	323.631	382.464	156.300	160.584	162.576	166.955	211.377	164.333	-8191	255	
681.864	1	1	0	0	0.056509	0.20318	0.11786	0.25071	0.077051	0.30166	0.18895	0.206	0.14407	0.088284	0.30111	0.064685	0.10797	0.17028	0.23915	0.25358	-2.0854	-2.4292	-2.3354	-2.7521	-2.2062	-2.5667	-2.7417	-2.3083	-2.6021	-2.5896	-2.4458	-2.8625	-2.2292	-2.4875	-2.6708	-2.3771	317.472	278.692	193.260	162.439	465.743	498.812	480.135	290.588	286.282	444.482	480.495	481.596	423.605	490.880	238.041	444.731	0.00074909	0.0011321	0.00026676	669.97	4.0299e-06	5.7506e-06	788.59	237.99	8.394e-06	4.5902e-06	313.68	118.31	81.923	36.145	2.1151e-05	59.811	0.013634	0.022343	0.0061067	755.63	0.00022331	0.0002372	871.93	301.87	0.00022838	0.00024304	366.1	134.57	98.65	41.58	0.00023401	67.937	165.397	261.964	439.776	152.805	274.484	287.742	151.495	157.728	261.130	424.945	156.388	160.813	162.361	167.051	226.251	164.245	-8191	255	
681.960	1	1	0	0	0.21939	0.3153	0.13061	0.25491	0.24961	0.079287	0.11237	0.20303	0.11362	0.33563	0.17043	0.30694	0.51068	0.28874	0.21659	0.26152	-2.35	-2.5021	-2.2917	-2.75	-2.2875	-2.4437	-2.9188	-2.1667	-2.4542	-2.35	-2.1271	-2.5854	-2.3917	-2.4188	-2.7125	-2.4292	248.438	359.099	159.825	353.298	402.846	440.806	140.237	333.396	282.658	379.296	447.456	458.977	430.585	496.676	483.726	480.189	0.00054773	0.00076011	5.7707e-05	660.05	2.2998e-06	7.176e-06	770.34	235.32	3.9762e-06	3.7539e-06	309.98	117.47	81.022	35.751	6.1853e-06	59.859	0.013365	0.022166	0.0061299	742.12	0.00022229	0.00023654	862.19	299.01	0.00022636	0.00024346	363.79	133.62	97.81	41.225	0.0002324	67.756	169.662	272.579	399.368	152.819	268.124	194.981	151.864	157.965	233.772	274.630	156.448	160.788	162.564	167.062	258.805	164.486	-8191	255	
682.081	1	1	0	0	0.044921	0.22025	0.17926	0.3677	0.025578	0.092544	0.19436	0.25713	0.1761	0.09157	0.14653	0.15965	0.19661	0.21973	0.099559	0.2619	-2.3208	-2.7375	-2.175	-2.8063	-2.3646	-2.3688	-2.7542	-2.3167	-2.4688	-2.75	-2.3896	-2.5729	-2.3854	-2.2667	-2.6417	-2.525	333.062	256.404	191.475	491.518	329.129	421.173	444.760	377.349	286.629	312.273	210.687	281.306	488.544	172.013	418.233	447.529	0.00063613	0.00044859	6.0122e-05	652.85	8.1811e-06	7.6586e-06	769.25	232.81	1.1495e-05	5.5754e-06	308.98	116.63	80.417	35.707	7.1827e-06	59.317	0.013132	0.021827	0.006119	734.26	0.00021919	0.00023913	859.04	298.97	0.00023043	0.00025205	365.88	133.73	98.334	41.484	0.00024801	67.743	168.474	143.901	207.381	152.636	358.898	169.768	151.910	158.021	228.587	214.953	156.269	160.752	162.674	167.269	344.152	164.370	-8191	255	
682.153	1	1	0	0	0.29144	0.13263	0.035164	0.21872	0.22179	0.16026	0.14453	0.038217	0.065707	0.10726	0.32004	0.28575	0.40609	0.20255	0.22788	0.21677	-2.0854	-2.6479	-2.2625	-2.8729	-2.5854	-2.225	-2.9062	-2.4	-2.3312	-2.7333	-2.4292	-2.7375	-2.5938	-2.4437	-2.5833	-2.425	270.188	210.400	393.240	463.506	493.472	350.820	439.735	347.275	313.722	157.888	391.120	486.560	375.373	479.232	198.449	411.243	0.00068302	0.0010071	0.0002854	644.19	2.9807e-06	1.2708e-05	762.33	230.67	1.3735e-05	6.3514e-06	304.19	115.54	79.778	35.242	3.0557e-06	58.37	0.01395	0.023417	0.0065153	730.6	0.00022666	0.00024822	850.34	296.07	0.00022797	0.0002496	360.54	131.61	96.933	40.806	0.00023183	66.506	168.147	444.590	214.536	152.705	471.860	266.859	151.649	158.031	295.256	372.311	156.378	161.084	162.774	167.318	198.119	164.508	-8191	255	
682.273	1	1	0	0	0.24719	0.10683	0.18464	0.21101	0.27794	0.18929	0.42184	0.20794	0.14525	0.01124	0.13435	0.16545	0.31008	0.14811	0.15142	0.1646	-2.0854	-2.6604	-2.2812	-2.6208	-2.8021	-2.4833	-2.75	-2.4396	-2.3	-2.8063	-2.4313	-2.4979	-2.4292	-2.3604	-2.7188	-2.5417	180.314	319.672	432.169	213.719	446.928	428.659	439.532	425.880	252.830	411.014	387.566	454.432	490.552	356.162	291.717	429.003	0.00072879	0.00080595	4.3585e-05	642.21	4.0061e-06	3.305e-06	759.03	230.28	1.5953e-05	8.5081e-06	301.77	114.96	79.226	35.216	7.8195e-06	58.607	0.013254	0.02245	0.006322	725.26	0.00022585	0.00025232	849.96	298.33	0.00024245	0.00026752	364.21	132.33	98.443	41.515	0.00026157	67.55	185.104	236.140	196.890	152.812	195.569	287.619	151.488	157.413	265.492	178.766	156.306	160.851	162.508	166.856	257.647	164.286	-8191	255	
682.369	1	1	0	0	0.25788	0.44717	0.11232	0.12485	0.14871	0.12941	0.12319	0.066484	0.24973	0.16143	0.25342	0.015285	0.16708	0.023666	0.29576	0.20081	-1.7062	-2.7229	-2.2646	-2.7375	-2.5208	-2.4292	-2.8771	-2.5	-2.2833	-2.55	-2.4125	-2.8354	-2.5917	-2.3042	-2.6458	-2.8521	279.823	174.588	426.056	146.461	395.431	270.641	407.605	441.405	402.769	486.316	353.109	278.250	254.109	426.114	166.745	436.051	0.00065008	0.00083661	0.00061188	652	1.1989e-05	1.9626e-05	766.91	230.64	8.8804e-06	2.5722e-05	303.36	115.75	79.736	35.454	1.0232e-05	58.262	0.015503	0.026129	0.0074178	750.34	0.00026827	0.00029944	871.22	310.99	0.00028385	0.00030788	374.54	135.27	101.54	42.587	0.00029426	68.82	155.886	279.957	242.696	152.814	254.850	230.445	151.692	157.626	326.227	203.283	156.466	161.173	162.321	167.299	384.590	164.125	-8191	255	
682.466	1	1	0	0	0.20418	0.14624	0.227	0.15457	0.08401	0.1058	0.17362	0.23896	0.15902	0.084422	0.30565	0.13463	0.24332	0.15377	0.38863	0.044594	-1.9125	-2.6542	-2.5583	-2.4021	-2.5104	-2.1042	-2.7542	-2.4792	-2.3854	-2.6542	-2.6437	-2.3833	-2.9021	-2.3937	-2.6021	-2.8438	245.940	490.466	453.749	478.250	298.176	207.570	485.384	489.921	459.623	394.748	144.866	211.244	422.011	155.842	259.645	386.671	0.00084738	0.0010899	0.00056577	654	6.4483e-07	1.0793e-05	763.2	230.48	1.0857e-05	5.8609e-06	302.19	115	79.532	35.136	1.1037e-05	58.27	0.017543	0.029149	0.0082667	766.95	0.00029857	0.00033464	880.87	320.39	0.00031746	0.00033426	379.35	136.76	103.23	43.021	0.00030815	69.274	181.104	366.216	151.733	152.670	470.810	365.261	151.721	157.854	263.537	355.203	156.334	161.111	162.492	167.219	264.281	164.231	-8191	255	
682.562	1	1	0	0	0.16127	0.17202	0.11032	0.10678	0.26547	0.092429	0.21867	0.19653	0.13479	0.26496	0.098739	0.28546	0.24009	0.073854	0.12968	0.34605	-1.8208	-2.6979	-2.3271	-2.4083	-2.8104	-2.3563	-2.6917	-2.7375	-2.25	-2.4938	-2.4813	-2.4875	-2.7833	-2.2833	-2.5292	-2.7042	453.612	486.892	149.988	389.855	405.793	215.012	370.868	478.724	320.735	311.047	211.101	379.084	145.545	419.477	353.842	191.248	0.00073935	0.00096507	0.00029269	651.49	1.0947e-05	1.133e-05	755.16	228.43	1.2069e-06	1.5632e-05	300.52	114.04	78.578	35.011	1.1907e-05	57.255	0.018511	0.029672	0.0084281	767.62	0.00030104	0.00033649	877.2	318.57	0.00031861	0.0003292	376.53	135.82	102.27	42.606	0.00030414	68.346	183.881	217.992	359.686	152.501	192.082	450.317	151.509	157.770	450.540	207.665	156.648	160.554	162.501	166.901	379.832	164.363	-8191	255	
682.681	1	1	0	0	0.13297	0.18837	0.19472	0.082899	0.018933	0.16823	0.2314	0.092365	0.15668	0.13548	0.32825	0.35502	0.11499	0.16385	0.019444	0.25688	-1.6583	-2.5229	-2.4333	-2.4354	-2.6896	-2.3042	-2.4583	-2.7687	-2.2021	-2.6	-2.6917	-2.4104	-2.5771	-2.6708	-2.3646	-2.7208	172.229	204.161	149.350	150.159	231.759	206.848	428.302	213.517	268.370	406.811	428.979	495.576	256.164	468.682	235.385	491.027	0.00079316	0.0017034	0.00040592	645.68	1.4908e-05	1.021e-05	744.83	224.92	6.7996e-06	1.2744e-05	294.74	111.91	77.084	34.281	1.2749e-05	56.081	0.018372	0.029088	0.0083872	759.17	0.0002983	0.00033196	861.63	314.62	0.00031446	0.00031996	371.31	133.61	100.43	41.945	0.00030832	67.295	201.921	200.608	312.995	152.727	362.518	162.779	151.820	157.972	257.446	401.286	156.386	160.796	162.546	167.252	423.280	164.170	-8191	255	
682.752	1	1	0	0	0.085471	0.12745	0.23808	0.2147	0.063179	0.092567	0.22877	0.19422	0.3103	0.31412	0.30417	0.16166	0.22298	0.29205	0.26726	0.17489	-1.7313	-2.3729	-2.6312	-2.3812	-2.7562	-2.2917	-2.4417	-2.6708	-2.3521	-2.5625	-2.475	-2.3688	-2.7292	-2.4458	-2.3042	-2.7521	170.622	434.585	311.749	447.838	209.820	321.237	326.803	174.370	491.983	288.827	143.172	472.555	144.712	478.221	204.510	484.792	0.0008012	0.0011829	0.00073383	632.92	1.7923e-06	1.4307e-05	734.78	223.12	6.8801e-06	1.9358e-05	293.84	110.76	76.43	33.706	1.4278e-05	55.842	0.018895	0.029782	0.0086866	754	0.00030899	0.00034983	859.6	318.42	0.00033669	0.00033955	374.83	134.29	100.81	41.78	0.00032435	67.164	190.668	271.032	176.800	152.888	354.205	274.523	151.507	157.772	313.588	272.559	156.429	160.719	162.506	167.245	212.997	164.333	-8191	255	
682.848	1	1	0	0	0.055877	0.062217	0.022534	0.2351	0.13624	0.27152	0.33446	0.19876	0.10879	0.18862	0.16605	0.0090699	0.23042	0.093278	0.074762	0.3205	-1.6875	-2.4333	-2.5812	-2.2729	-2.5354	-2.4313	-2.6562	-2.7687	-2.4708	-2.5125	-2.625	-2.4042	-2.6292	-2.5729	-2.2521	-2.6688	356.668	202.657	318.203	335.117	437.521	298.352	401.129	188.375	193.431	207.598	449.133	389.881	411.385	479.863	357.207	466.710	0.00087303	0.00084011	0.00030381	621.34	1.2688e-05	1.4882e-05	723.77	219.45	6.4724e-06	1.2195e-05	289.6	110.28	75.414	33.241	5.939e-06	55.079	0.019215	0.029872	0.0088481	744.97	0.00030369	0.00034748	851.08	314.48	0.00033216	0.00033567	371.63	133.3	99.465	41.281	0.00032564	66.602	173.950	316.559	489.780	152.672	313.547	272.736	151.546	157.886	252.820	189.681	156.100	161.033	162.710	167.363	173.706	165.072	-8191	255	
682.969	1	1	0	0	0.40332	0.30215	0.17604	0.32152	0.12532	0.18439	0.2966	0.059447	0.083431	0.13977	0.24449	0.12276	0.063127	0.19594	0.3048	0.25787	-2.0042	-2.5062	-2.725	-2.3146	-2.5396	-2.3625	-2.3625	-2.8187	-2.4875	-2.3208	-2.8271	-2.3708	-2.4979	-2.6625	-2.2271	-2.925	461.666	404.082	417.535	431.016	476.994	387.036	372.395	349.062	272.508	477.547	385.441	159.324	241.951	438.180	256.645	374.479	0.00066598	0.00032117	0.00044472	615.75	9.7909e-06	6.1682e-06	721.29	217.51	3.6703e-06	1.9863e-05	289.14	110.23	75.022	33.338	7.7227e-06	55.755	0.0191	0.029907	0.0087824	737.97	0.00029509	0.00034134	844.82	307.55	0.00031459	0.00032235	366.31	132.1	97.281	40.887	0.0003063	66.092	168.601	271.728	146.033	152.726	319.807	490.592	151.858	157.637	455.554	235.480	156.440	161.100	162.746	167.490	250.606	164.885	-8191	255	
683.065	1	1	0	0	0.14002	0.218	0.1698	0.079187	0.096094	0.19245	0.21845	0.083667	0.2004	0.30051	0.13012	0.12824	0.38664	0.33217	0.23444	0.36817	-2.0167	-2.1167	-2.7	-2.2812	-2.6	-2.75	-2.3542	-2.625	-2.5104	-2.4625	-2.7917	-2.3354	-2.5083	-2.5958	-2.2687	-2.7313	377.919	491.331	325.467	439.753	398.884	162.078	450.281	454.846	441.791	465.301	214.305	392.140	379.080	170.284	464.979	153.184	0.00056999	0.001614	0.00034499	616.37	1.2713e-06	2.0055e-05	719.88	221.03	1.9554e-05	4.9231e-06	289.14	110.13	76.039	33.527	7.117e-06	55.981	0.017541	0.027745	0.008017	723.95	0.0002687	0.0003119	835.73	297.96	0.00028348	0.00029032	357.61	129.87	95.46	40.189	0.00026976	65.042	180.253	308.069	201.857	152.798	305.034	416.788	151.819	158.291	151.388	302.653	156.447	160.994	162.646	167.396	454.203	164.524	-8191	255	
683.161	1	1	0	0	0.16745	0.22841	0.31423	0.18912	0.1221	0.13761	0.37221	0.1889	0.13703	0.13474	0.191	0.18917	0.17135	0.32836	0.19618	0.078502	-2.25	-2.2958	-2.5958	-2.375	-2.6604	-2.7333	-2.2521	-2.7562	-2.4562	-2.2833	-2.9104	-2.5104	-2.5167	-2.8104	-2.2458	-2.95	452.630	178.007	339.346	472.206	400.975	269.291	409.927	467.382	398.468	240.617	421.447	496.916	469.348	495.562	414.841	482.543	0.00073098	0.00057402	0.00055587	617.24	1.2749e-05	1.2593e-05	726.42	218.8	4.0193e-06	1.9224e-05	290.4	110.18	76.174	33.296	1.1971e-05	55.774	0.01563	0.024916	0.0071168	715.21	0.00024559	0.00028646	829.95	293.52	0.00027661	0.00028841	356.92	129.89	96.163	40.513	0.00028755	65.313	166.893	450.609	154.158	152.892	261.131	287.314	151.833	158.231	242.550	267.356	156.447	160.704	162.953	167.019	163.083	164.620	-8191	255	
683.258	1	1	0	0	0.34772	0.11892	0.12265	0.30593	0.20171	0.21782	0.16805	0.18081	0.11679	0.18889	0.082526	0.14957	0.040104	0.093861	0.11477	0.12284	-2.1104	-2.3417	-2.8292	-2.4604	-2.6063	-2.5146	-2.4708	-2.6021	-2.6771	-2.3875	-2.8167	-2.4229	-2.4813	-2.7938	-2.4146	-2.6771	310.491	232.393	174.081	414.470	450.710	406.174	483.618	401.961	321.009	240.713	311.157	151.573	148.387	449.885	460.135	451.600	0.0005815	0.00059071	4.2212e-05	614.87	1.0642e-05	1.2084e-05	722.58	219.93	6.7102e-06	1.239e-05	289.67	110.55	75.864	33.752	1.3429e-05	56.114	0.017004	0.027298	0.0076488	722.41	0.00026925	0.00031249	836.27	300.18	0.00030019	0.00030931	360.57	131.2	97.641	41.037	0.00029499	66.029	184.748	187.408	430.795	152.731	145.826	179.170	151.530	158.120	298.573	328.486	156.349	160.731	162.715	167.418	160.522	164.326	-8191	255	
683.354	1	1	0	0	0.2005	0.25572	0.18412	0.37698	0.19087	0.2099	0.24923	0.025741	0.31885	0.12669	0.14821	0.042964	0.13947	0.068219	0.052623	0.21488	-2.2375	-2.2625	-2.7062	-2.4917	-2.2542	-2.6458	-2.5771	-2.5687	-2.5146	-2.175	-2.8937	-2.5125	-2.3208	-2.85	-2.2583	-2.5896	404.850	382.081	434.218	460.341	374.907	418.470	199.430	413.159	231.296	287.968	215.075	388.359	176.684	362.990	397.702	459.300	0.0006162	0.0014106	0.00011995	624.46	1.2413e-05	1.0057e-05	732.94	221.82	1.4228e-05	1.4849e-05	292.53	112.4	76.932	34.021	1.3907e-05	56.836	0.017378	0.027863	0.00767	733.61	0.00027627	0.00031545	846.59	303.17	0.00030729	0.00031973	363.37	133.02	98.867	41.422	0.00030499	66.963	183.731	184.906	318.953	152.663	442.668	461.313	151.576	157.657	194.407	209.670	156.476	160.904	162.271	166.936	241.766	164.382	-8191	255	
683.450	1	1	0	0	0.20532	0.20084	0.26258	0.28503	0.070232	0.010935	0.24124	0.25646	0.22931	0.20797	0.20346	0.24715	0.031341	0.22385	0.12854	0.15114	-2.1729	-2.3667	-2.7021	-2.6	-2.3833	-2.7	-2.5292	-2.4896	-2.6354	-2.2667	-2.7229	-2.6354	-2.2875	-2.8125	-2.5021	-2.625	429.298	370.195	183.437	436.825	192.563	479.864	485.876	411.500	360.134	144.973	459.656	482.137	412.545	432.910	431.623	401.949	0.00065965	0.0015034	4.9746e-05	628.65	4.7819e-06	2.5563e-05	732.18	223.36	6.5256e-06	3.6739e-06	291.96	112.3	76.667	34.409	1.5244e-05	57.098	0.018153	0.029139	0.0080223	745.88	0.00029898	0.0003366	858.42	312.83	0.0003341	0.00034811	369.83	135.61	101.71	42.466	0.00033602	68.593	179.280	253.394	380.847	152.588	192.073	248.358	151.997	157.720	438.035	249.322	156.462	160.975	162.691	167.202	315.933	164.286	-8191	255	
683.546	1	1	0	0	0.16357	0.23378	0.45514	0.35782	0.26489	0.19609	0.16669	0.27848	0.17206	0.075919	0.19833	0.21258	0.13119	0.26103	0.15493	0.1815	-2.15	-2.2146	-2.6104	-2.6	-2.2625	-2.7854	-2.5438	-2.2313	-2.6271	-2.4354	-2.4604	-2.7583	-2.3875	-2.8333	-2.3458	-2.4729	389.030	377.764	147.404	480.909	153.819	480.431	346.855	496.055	143.313	363.550	404.442	450.320	176.179	461.408	294.392	445.912	0.00059234	0.0007173	0.00033437	632.74	1.1051e-05	1.3317e-05	732.56	222.33	8.8935e-06	3.1858e-05	291.57	111.99	77.144	34.481	6.8471e-06	57.04	0.019964	0.032002	0.0088108	765.06	0.00032131	0.00035305	870.59	317.81	0.00034531	0.00036074	372.27	136.73	103.01	42.704	0.00034788	68.818	173.812	401.931	270.750	152.588	280.341	248.988	151.872	157.286	468.217	312.304	156.368	160.595	161.635	167.296	271.870	164.187	-8191	255	
683.642	1	1	0	0	0.18988	0.14372	0.16716	0.17573	0.32537	0.21324	0.15973	0.20653	0.16838	0.106	0.33417	0.42788	0.10572	0.22993	0.37708	0.165	-2.2583	-2.2979	-2.3063	-2.7479	-2.3042	-2.6167	-2.6729	-2.3167	-2.7146	-2.4021	-2.4167	-2.6333	-2.2229	-2.6979	-2.4688	-2.3521	359.992	449.523	360.371	439.937	314.402	424.909	299.303	470.172	269.934	400.791	236.171	429.571	368.715	149.236	490.731	144.977	0.00038307	0.00087826	0.00035591	637.41	6.2371e-06	8.3323e-06	735.69	221.46	9.673e-06	2.1599e-05	287.84	110.24	76.72	34.268	5.4253e-06	56.278	0.020368	0.032945	0.009074	771.03	0.00032939	0.00035791	868.68	319.87	0.00034411	0.00036158	370.16	135.16	102.1	42.257	0.00034758	68.142	193.610	313.485	302.450	152.706	332.177	235.083	151.726	158.020	293.151	317.353	156.620	160.533	162.430	166.998	281.578	164.498	-8191	255	
683.761	1	1	0	0	0.22364	0.18946	0.072685	0.33973	0.23756	0.24335	0.16682	0.16838	0.29553	0.29584	0.062175	0.085196	0.1502	0.037187	0.19764	0.08118	-2.4396	-2.4333	-2.35	-2.7583	-2.2771	-2.4875	-2.6417	-2.4146	-2.7	-2.4583	-2.3229	-3.025	-2.4417	-2.4396	-2.7625	-2.4229	144.068	386.310	206.290	143.413	446.284	327.244	452.663	474.901	191.345	291.274	187.873	193.495	180.230	382.322	161.389	459.505	0.00060628	0.00060924	0.0003088	634.99	7.9808e-06	1.6145e-05	726.71	223.51	5.0848e-06	1.2754e-05	289.27	110.86	76.604	34.127	3.5943e-06	55.961	0.019687	0.031926	0.0088902	763.19	0.00031739	0.00034254	860.74	315.83	0.00032308	0.00034428	366.81	133.76	100.59	41.714	0.00032933	67.43	192.361	221.338	296.712	152.781	192.477	360.838	151.583	157.878	411.288	323.640	156.334	160.680	162.348	166.868	145.178	164.192	-8191	255	
683.857	1	1	0	0	0.25267	0.5271	0.13982	0.10266	0.10086	0.14996	0.14152	0.03238	0.25614	0.056268	0.18679	0.11511	0.25779	0.091963	0.34122	0.21839	-2.3146	-2.2125	-2.3187	-2.6562	-2.2104	-2.5458	-2.8708	-2.3146	-2.7292	-2.5292	-2.475	-2.9021	-2.3229	-2.6333	-2.6083	-2.3708	418.709	256.356	416.498	309.352	373.809	170.578	435.656	385.751	163.406	158.752	197.940	492.767	411.052	438.787	286.064	329.068	0.00067774	0.00059228	0.00051148	630.23	9.6153e-06	1.8206e-05	725.44	222.26	1.5801e-05	1.0073e-05	290.16	110.56	77.305	34.077	5.8953e-06	56.239	0.018448	0.030519	0.0085602	753.9	0.00030534	0.00033553	859.34	315.09	0.00032561	0.0003552	370.39	134.59	101.91	42.235	0.00034902	68.196	177.559	357.538	278.457	152.438	259.569	359.443	151.743	157.629	309.403	312.208	156.310	161.087	162.523	166.917	174.130	164.111	-8191	255	
683.953	1	1	0	0	0.14535	0.13514	0.010399	0.086665	0.36712	0.22312	0.082373	0.15647	0.16074	0.22668	0.17345	0.28683	0.013556	0.16475	0.16165	0.29083	-2.2542	-2.6771	-2.4521	-2.9521	-2.4542	-2.6479	-2.7958	-2.3229	-2.6333	-2.6312	-2.3604	-2.8937	-2.3708	-2.65	-2.7812	-2.175	253.569	166.691	404.839	171.725	347.103	367.801	191.604	183.925	142.145	394.846	240.663	364.069	447.585	165.209	267.903	387.802	0.00068699	0.00086278	0.00020116	636.08	3.0476e-06	1.2417e-05	730.48	220.66	9.1019e-06	1.1922e-05	288.64	110.26	77.189	34.619	9.369e-06	56.655	0.019533	0.033327	0.0092439	767.36	0.0003298	0.00036524	873.88	323.38	0.0003429	0.00037921	375.24	135.56	103.82	43.059	0.0003609	69.112	159.692	305.388	221.867	152.666	278.453	239.200	151.863	157.668	415.045	277.499	156.386	160.740	161.703	166.851	458.410	164.258	-8191	255	
684.049	1	1	0	0	0.12893	0.053482	0.030161	0.25138	0.24351	0.075995	0.23454	0.23544	0.16544	0.1677	0.11261	0.044699	0.065439	0.056644	0.16369	0.17845	-2.0875	-2.6521	-2.3563	-2.7938	-2.4021	-2.4708	-2.8042	-2.2604	-2.4271	-2.5208	-2.3167	-2.6833	-2.4542	-2.45	-3.0083	-2.5542	150.384	212.002	179.070	473.079	148.688	227.387	156.197	463.867	208.049	218.238	304.503	396.845	192.006	192.616	211.428	158.404	0.00081464	0.00077105	0.00010921	649.81	8.268e-06	8.2121e-06	734.19	224.35	1.5902e-05	8.2371e-06	289.17	110.87	77.193	34.478	9.7841e-06	56.155	0.020115	0.034456	0.0095324	784.54	0.00033983	0.00037848	880.33	327.34	0.00035355	0.00039297	377.41	136.01	104.64	43.465	0.0003661	68.87	176.265	494.440	479.290	152.767	303.838	297.802	151.503	157.162	154.773	462.372	156.703	160.347	162.127	166.857	251.694	164.168	-8191	255	
684.146	1	1	0	0	0.091953	0.088116	0.084156	0.13903	0.23342	0.26339	0.26784	0.22665	0.21112	0.12529	0.19975	0.051788	0.2167	0.31038	0.09501	0.22906	-2.2188	-2.7292	-2.2875	-2.8042	-2.4292	-2.3937	-2.8583	-2.3021	-2.3958	-2.7479	-2.4062	-2.5854	-2.625	-2.4375	-2.6937	-2.3333	287.348	451.790	351.156	429.649	460.009	162.606	449.248	405.560	217.034	148.506	455.969	196.741	420.782	432.209	247.474	361.587	0.00068325	0.0011674	0.00010594	652.71	5.5355e-06	2.101e-05	729.45	222.51	1.7099e-05	1.5974e-05	284.22	108.84	76.377	34.187	4.3719e-06	55.632	0.02051	0.034642	0.0094897	779.63	0.00033806	0.00037	864.33	321.16	0.00034145	0.00037174	368.2	132.07	102.31	42.572	0.00033971	67.413	183.236	371.662	345.716	152.493	151.750	158.610	151.557	157.638	149.858	245.270	156.176	160.728	162.204	166.403	296.026	164.024	-8191	255	
684.265	1	1	0	0	0.11694	0.099883	0.1253	0.26741	0.38315	0.209	0.21007	0.27946	0.14015	0.16656	0.1106	0.17107	0.22822	0.11635	0.11804	0.29864	-2.1208	-2.6021	-2.3667	-2.8771	-2.4021	-2.3063	-2.7833	-2.4167	-2.4229	-2.6833	-2.3979	-2.7042	-2.5375	-2.4167	-2.7562	-2.5958	197.630	243.820	424.037	416.321	473.417	232.430	408.695	408.864	434.746	330.629	205.698	441.512	392.852	342.933	357.794	480.867	0.00058789	0.00029473	0.00026852	645.11	4.8425e-06	1.3829e-05	724.33	223.23	1.2918e-05	8.7969e-06	283.25	108.35	76.359	34.092	1.5577e-05	55.692	0.019673	0.03307	0.0090593	769.9	0.00033114	0.00035826	855.11	319.12	0.00033629	0.00035967	365.09	131.41	101.52	42.092	0.00032151	67.206	162.099	443.007	319.039	152.344	246.265	306.943	151.597	157.535	292.101	465.076	156.031	160.418	162.286	167.025	249.413	164.042	-8191	255	
684.361	1	1	0	0	0.13518	0.080495	0.10639	0.40158	0.3062	0.1879	0.29441	0.18336	0.059587	0.20925	0.34403	0.17745	0.09084	0.23293	0.31334	0.070108	-2.0625	-2.9854	-2.3958	-2.6792	-2.5604	-2.4625	-2.7229	-2.5333	-2.4188	-2.7146	-2.4229	-2.7208	-2.6667	-2.4042	-2.7229	-2.7896	179.277	457.986	497.645	499.556	193.735	358.948	353.142	353.105	336.856	474.037	306.694	314.635	460.807	467.085	258.661	234.013	0.00082084	0.0021384	0.00018838	648.41	1.1715e-05	4.1575e-06	725.73	222.75	1.7813e-06	2.1163e-05	285.78	108.29	76.789	34.342	5.2098e-06	56.193	0.019059	0.031285	0.0086927	765.95	0.00032146	0.00035191	853.61	319.65	0.00033541	0.0003539	367.72	132.51	102.5	42.562	0.0003318	68.197	171.815	291.193	285.285	152.610	142.476	389.904	151.533	158.236	149.141	306.712	156.268	160.815	162.370	166.920	309.264	163.918	-8191	255	
684.457	1	1	0	0	0.16084	0.10384	0.23734	0.33083	0.040658	0.30863	0.26168	0.12328	0.1691	0.20473	0.077949	0.18885	0.30888	0.46863	0.34054	0.16352	-2.0312	-2.6354	-2.2917	-2.5354	-2.7167	-2.3292	-2.7188	-2.525	-2.3521	-2.7833	-2.6396	-2.6083	-2.8583	-2.4479	-2.6854	-2.6562	262.890	355.459	443.731	166.687	171.999	164.073	421.589	460.712	313.766	360.363	415.448	202.388	358.686	475.956	298.445	399.909	0.00085724	0.0012513	0.00037244	639.99	1.7846e-05	9.3177e-06	723.07	222.04	1.8311e-05	5.0684e-06	287.17	109.4	76.432	34.157	7.9146e-06	56.142	0.0198	0.032033	0.0089938	765.18	0.00032348	0.00035215	849.83	319.29	0.0003319	0.00034495	367.52	132.76	101.35	42.132	0.0003226	67.88	193.485	216.237	304.383	152.696	183.365	294.594	151.406	157.981	207.313	392.552	156.499	160.812	162.431	166.895	224.712	164.205	-8191	255	
684.553	1	1	0	0	0.07448	0.10587	0.17041	0.3287	0.23781	0.29755	0.2023	0.20309	0.1043	0.10848	0.26227	0.21422	0.07113	0.1591	0.16289	0.25045	-1.9021	-2.8104	-2.5563	-2.4062	-2.8937	-2.4125	-2.7229	-2.7583	-2.4313	-2.7146	-2.4979	-2.6	-2.8875	-2.5167	-2.5854	-2.8	362.777	381.915	439.398	418.625	499.761	421.387	417.168	375.142	194.944	223.122	194.654	439.099	178.712	215.052	483.121	417.990	0.00070295	0.0016198	0.00011959	639.7	8.8527e-06	2.5422e-05	724.4	224.23	1.5639e-05	1.4956e-05	287.76	109.07	76.301	34.07	3.0071e-06	56.057	0.019206	0.03066	0.0088549	762.1	0.00031309	0.00034209	848.34	317.34	0.0003247	0.00033326	365.61	131.99	100.45	41.938	0.00031528	67.244	187.532	451.139	476.925	152.705	285.283	324.569	151.675	157.957	341.610	357.982	156.098	160.783	162.264	167.110	286.482	164.259	-8191	255	
684.649	1	1	0	0	0.18742	0.27563	0.16679	0.20159	0.25246	0.12862	0.25267	0.17482	0.24371	0.26091	0.10961	0.12461	0.14033	0.35689	0.14214	0.066792	-1.7812	-2.7896	-2.5729	-2.5021	-2.6437	-2.5208	-2.6271	-2.6208	-2.1854	-2.8875	-2.8167	-2.3812	-2.8833	-2.3875	-2.4354	-2.8479	348.505	226.860	423.775	185.515	378.815	405.776	373.337	302.835	316.748	411.103	242.548	444.242	277.918	486.802	363.835	215.207	0.00058147	0.00018439	0.0001452	638.95	7.8238e-06	1.3665e-05	715.77	223.25	6.7451e-06	6.0669e-06	285.16	108.5	76.426	34.261	1.0381e-05	55.438	0.018694	0.02942	0.0086858	758.56	0.0003031	0.00033793	840.57	316.76	0.0003235	0.00033302	365.99	131.55	100.27	42.131	0.0003245	67.018	179.727	387.045	387.664	152.673	294.765	494.064	151.514	157.531	494.342	317.865	156.109	160.621	162.145	167.071	322.976	164.104	-8191	255	
684.745	1	1	0	0	0.12588	0.099572	0.051344	0.35094	0.34809	0.24134	0.029815	0.040613	0.087293	0.14352	0.14552	0.43158	0.33191	0.23009	0.16371	0.039201	-1.9146	-2.4875	-2.5062	-2.3937	-2.9458	-2.3833	-2.6083	-2.8771	-2.4021	-2.6063	-2.7271	-2.4313	-2.7333	-2.5917	-2.4437	-2.9375	288.840	485.037	167.597	453.580	248.900	256.544	152.877	425.627	343.250	477.645	233.543	157.484	163.326	471.756	230.620	332.153	0.00073496	0.0018465	0.00032421	641.13	4.9396e-06	1.9041e-05	718.28	222.11	4.139e-06	1.9811e-05	285.08	108.07	75.584	33.899	6.2015e-06	55.271	0.01877	0.029753	0.0087927	759.45	0.00029882	0.00034109	842.74	314.56	0.00032097	0.00033198	364.93	131.03	99.267	41.793	0.00032495	66.641	173.151	273.729	361.292	152.838	401.702	231.738	151.437	157.621	273.397	449.654	156.109	160.583	162.623	166.702	270.760	164.312	-8191	255	
684.841	1	1	0	0	0.017959	0.089093	0.17336	0.39581	0.30582	0.26329	0.073461	0.16835	0.16024	0.38501	0.11408	0.026524	0.19395	0.098444	0.33126	0.3159	-1.9562	-2.6292	-2.6437	-2.2479	-2.675	-2.5812	-2.5208	-2.6437	-2.4062	-2.6937	-2.6667	-2.45	-2.8812	-2.5938	-2.3667	-2.8208	389.757	249.395	177.711	447.747	144.829	454.345	441.573	251.257	411.066	223.407	201.576	155.861	182.815	351.592	337.385	152.955	0.00069553	0.0012985	0.00012411	635.14	1.33e-05	5.4331e-06	717.59	221.28	8.0616e-06	1.052e-05	282.91	108.21	75.768	33.868	1.0466e-05	55.605	0.01895	0.030355	0.0090318	757.03	0.00030419	0.00035418	845.22	314.49	0.00032886	0.00034154	365.17	131.41	99.397	42.083	0.00032507	66.917	167.027	491.479	331.972	152.635	255.466	334.465	151.708	157.537	425.486	302.139	156.533	160.733	162.007	166.822	306.586	164.174	-8191	255	
684.938	1	1	0	0	0.15378	0.083871	0.05036	0.044807	0.32429	0.088193	0.20506	0.30013	0.24402	0.027905	0.18978	0.11758	0.11259	0.24921	0.2561	0.27787	-1.9771	-2.4292	-2.75	-2.4313	-2.5563	-2.6104	-2.4333	-2.7896	-2.45	-2.575	-2.9771	-2.3271	-2.7146	-2.7729	-2.4875	-2.8396	161.373	426.749	374.730	475.347	346.807	210.483	381.707	384.344	366.218	214.381	356.721	368.362	213.183	427.033	441.538	381.319	0.00071898	0.0019026	0.0004859	637.17	1.8677e-05	7.1841e-06	715.11	223.78	1.5698e-05	1.383e-05	286.69	109.97	76.939	34.401	6.6448e-06	55.833	0.019015	0.030567	0.0089253	760.98	0.0003033	0.00035824	849.18	317.3	0.00033502	0.00034834	369.04	133.04	100.56	42.461	0.00032861	67.08	176.298	238.890	406.686	152.732	218.124	271.199	151.730	157.645	252.471	259.974	155.996	160.862	162.511	167.083	409.995	164.312	-8191	255	
685.056	1	1	0	0	0.24304	0.12339	0.072866	0.18268	0.25055	0.25654	0.23996	0.23644	0.24703	0.16481	0.16695	0.019108	0.050012	0.28385	0.21138	0.159	-1.9417	-2.5729	-2.8604	-2.3021	-2.4854	-2.7313	-2.3958	-2.7188	-2.4396	-2.6083	-2.9625	-2.5042	-2.5875	-2.7479	-2.4625	-2.6688	287.983	304.516	469.998	464.272	258.401	460.332	360.901	208.449	357.128	158.031	203.481	233.634	364.818	381.992	235.870	470.066	0.00054136	0.0017858	0.00029595	630.81	1.7983e-05	6.3469e-06	716.33	219.62	1.5476e-05	1.457e-05	283.97	107.86	75.687	33.443	8.4844e-06	55.068	0.019224	0.030691	0.008753	750.99	0.00029959	0.00035038	839.61	308.08	0.00032456	0.0003349	360.77	130.18	98.39	41.358	0.00030688	65.444	195.856	417.512	341.187	152.785	211.716	480.740	152.061	157.875	187.324	317.704	156.185	160.576	162.322	167.280	266.506	164.174	-8191	255	
685.153	1	1	0	0	0.19779	0.10173	0.16408	0.20701	0.062781	0.12546	0.37708	0.067795	0.097799	0.28666	0.2476	0.15533	0.36473	0.36485	0.27796	0.14583	-1.9375	-2.1396	-2.8271	-2.3771	-2.6333	-2.7188	-2.775	-2.5979	-2.5208	-2.5583	-2.9208	-2.3854	-2.6063	-2.6125	-2.35	-2.4688	181.553	232.137	389.441	381.250	348.850	447.221	403.399	453.868	153.043	167.789	145.525	229.167	475.676	473.892	166.273	443.920	0.00071909	0.00032479	0.00024315	625.72	1.5859e-05	4.4539e-06	712.54	219.26	2.376e-06	3.2095e-06	282.99	107.76	75.78	33.443	7.5428e-06	55.266	0.018162	0.028587	0.0080591	738.52	0.00028329	0.00032981	829.67	304.06	0.00031527	0.00032502	357.96	129.76	98.382	41.404	0.00030987	65.747	172.811	212.829	466.024	152.906	327.146	460.369	151.852	157.774	176.421	177.916	155.973	160.618	162.392	166.843	269.945	164.552	-8191	255	
685.249	1	1	0	0	0.15836	0.19871	0.20956	0.10383	0.049098	0.23911	0.21454	0.1324	0.20174	0.27872	0.20522	0.331	0.18138	0.11205	0.2265	0.35571	-1.7771	-2.2583	-3.0146	-2.4167	-2.4	-2.6521	-2.4396	-2.6833	-2.6125	-2.2438	-2.7625	-2.6021	-2.5146	-2.7896	-2.3771	-2.6542	145.223	173.641	321.935	240.497	392.655	146.493	461.564	458.987	325.720	267.419	472.040	406.692	445.340	462.927	395.008	456.709	0.00049193	0.00072548	0.00011458	624.36	7.8715e-06	1.6574e-05	706.25	220.98	1.6129e-05	1.5866e-05	284.58	107.77	75.84	33.756	3.119e-06	55.317	0.018841	0.029686	0.0083144	744.23	0.00030023	0.00034335	830.64	309.86	0.0003326	0.00033936	359.51	130.76	99.427	41.649	0.00031647	66.129	174.564	254.084	287.961	152.491	252.079	474.921	151.892	157.797	183.173	234.748	156.244	160.807	162.538	167.054	338.858	164.475	-8191	255	
685.345	1	1	0	0	0.078694	0.34739	0.04618	0.14485	0.11004	0.063694	0.19079	0.09832	0.23548	0.11306	0.29687	0.069351	0.038592	0.11963	0.17543	0.013684	-2.4854	-2.3625	-2.6292	-2.6208	-2.4875	-2.8229	-2.5625	-2.5375	-2.6729	-2.3521	-2.7917	-2.5312	-2.5417	-2.9229	-2.5667	-2.5771	379.909	362.294	173.882	156.956	301.803	224.963	227.741	241.484	465.507	422.603	377.923	409.611	157.250	476.271	362.229	483.398	0.00081789	0.0017889	0.00016045	622.77	8.5022e-06	3.8074e-06	704	221.81	1.0214e-05	1.1847e-05	286.36	108.49	76.449	33.994	5.9991e-06	55.923	0.019228	0.030491	0.0084454	748.15	0.00031141	0.0003516	837.19	315.81	0.00034532	0.00035362	365.34	133.03	101.24	42.174	0.0003374	67.354	169.320	260.641	162.657	152.460	225.857	402.081	151.788	158.098	234.000	336.584	156.218	160.787	163.037	167.106	221.379	164.266	-8191	255	
685.441	1	1	0	0	0.10079	0.16573	0.24172	0.28596	0.14278	0.075779	0.20412	0.16688	0.19237	0.24122	0.068131	0.29253	0.12727	0.20843	0.17606	0.32684	-2.1625	-2.3563	-2.6792	-2.6312	-2.4083	-2.9562	-2.4854	-2.4396	-2.7979	-2.4271	-2.625	-2.7708	-2.4188	-2.9062	-2.4396	-2.6042	465.960	388.988	391.169	468.740	142.926	377.509	454.884	488.640	196.514	210.879	494.818	393.119	290.195	431.192	406.749	447.112	0.00066209	0.0012693	0.00027281	631.04	7.5284e-06	6.671e-06	712.47	222.8	3.7088e-06	1.9655e-05	288.6	109.32	77.256	34.112	6.7105e-06	55.924	0.020109	0.031634	0.0087638	764.14	0.00031956	0.00035381	848.65	320.09	0.00034776	0.00035348	367.78	134.19	101.98	42.297	0.00034154	67.861	171.338	396.684	479.809	152.711	289.150	322.272	151.602	158.018	149.745	176.864	156.152	160.756	162.378	167.241	187.201	164.374	-8191	255	
685.537	1	1	0	0	0.1773	0.09388	0.061912	0.0799	0.15572	0.1858	0.12588	0.094655	0.12542	0.084612	0.15854	0.18874	0.1348	0.14231	0.14816	0.20672	-2.4229	-2.3917	-2.625	-2.8021	-2.4938	-2.6271	-2.5958	-2.5854	-2.7396	-2.475	-2.5979	-2.7354	-2.3187	-3.0062	-2.6021	-2.6104	395.126	291.657	208.969	429.036	182.417	347.502	403.544	428.299	426.788	404.117	190.625	197.201	211.838	201.373	469.691	150.475	0.00061969	0.00083856	0.00028632	637.94	1.0885e-06	6.9684e-06	713.64	226.42	6.7469e-06	4.6567e-06	285.97	109.07	76.927	34.06	7.6847e-06	55.392	0.020039	0.03187	0.0089247	770.87	0.00032382	0.0003572	853.42	325.15	0.00035394	0.00037043	372.16	135.14	103.42	42.842	0.00037325	67.984	181.397	201.094	266.971	152.954	317.159	341.519	151.762	157.994	213.983	401.676	156.403	160.707	162.553	167.067	183.766	164.366	-8191	255	
685.633	1	1	0	0	0.11377	0.16331	0.17616	0.097599	0.18421	0.20256	0.20594	0.19252	0.070181	0.2193	0.3429	0.4117	0.2285	0.15089	0.18472	0.18023	-2.3667	-2.2771	-2.575	-2.7938	-2.3542	-2.8	-2.6146	-2.4979	-2.7479	-2.4854	-2.6562	-2.7021	-2.5042	-2.8542	-2.5583	-2.4083	206.943	435.057	286.530	223.224	474.709	142.732	215.686	476.192	425.613	188.349	462.701	388.442	166.276	373.142	356.462	337.222	0.00062373	0.0012831	0.0001051	631.21	1.3452e-05	1.7909e-05	702.98	222.69	1.6924e-05	7.3324e-06	282.69	106.81	76.292	33.84	9.428e-06	54.489	0.021147	0.034339	0.0095537	772.58	0.00033648	0.00037003	851.25	323.65	0.0003542	0.00037709	368.31	132.93	102.36	42.407	0.00037522	67.203	164.386	194.972	457.828	153.292	273.131	387.636	151.915	157.979	289.007	244.278	156.595	160.694	162.623	167.102	231.189	164.184	-8191	255	
685.754	1	1	0	0	0.24426	0.11254	0.16048	0.070823	0.10428	0.08255	0.21474	0.12654	0.10187	0.166	0.15255	0.28392	0.2963	0.10202	0.18598	0.41187	-2.2979	-2.2417	-2.3917	-2.8396	-2.3583	-2.7479	-2.6937	-2.5875	-2.8667	-2.475	-2.4917	-2.7854	-2.3896	-2.7083	-2.6833	-2.4792	204.046	168.764	264.555	172.314	374.714	331.847	468.628	279.982	428.800	319.425	470.563	472.867	140.575	408.993	481.346	418.098	0.00080122	0.0004579	0.00026026	627.58	9.5286e-06	1.9195e-05	686.22	216.02	8.7989e-06	2.4063e-05	271.08	104.12	74.36	33.186	1.1091e-05	53.619	0.021039	0.035623	0.010005	773.3	0.00035733	0.0004014	851.35	326.91	0.00038206	0.00041825	366.8	132.37	103.09	42.494	0.00039741	66.791	175.314	366.991	493.957	153.186	174.256	249.936	151.985	158.189	274.667	259.919	156.601	160.996	162.693	167.378	446.311	164.364	-8191	255	
685.850	1	1	0	0	0.11241	0.28822	0.23493	0.11844	0.21768	0.18928	0.4076	0.18588	0.21184	0.13948	0.075032	0.22911	0.12526	0.20032	0.075731	0.13295	-2.3958	-2.4	-2.5396	-2.7687	-2.1625	-2.6458	-2.7729	-2.3958	-2.7604	-2.4938	-2.4667	-2.8688	-2.3833	-2.6521	-2.775	-2.4521	216.421	261.627	448.707	463.474	444.714	227.167	423.996	444.622	428.645	317.129	263.107	418.554	398.965	247.654	473.923	250.597	0.00073599	0.0017727	0.00089045	610.21	1.1782e-05	8.5278e-06	680.36	210.61	2.2401e-05	1.8634e-05	265.44	102.4	73.12	32.506	1.0446e-05	52.58	0.021899	0.037257	0.010237	757.15	0.00035989	0.00040016	836.87	316.31	0.00036967	0.00040714	357.28	128.9	100.3	41.341	0.00036919	64.858	165.435	278.160	178.859	153.075	210.045	275.358	152.149	157.755	343.935	284.051	156.668	161.278	163.348	167.439	312.871	164.781	-8191	255	
685.946	1	1	0	0	0.21184	0.21225	0.19949	0.23567	0.23065	0.20736	0.27417	0.23385	0.27099	0.13535	0.022415	0.16401	0.31517	0.031816	0.12722	0.20549	-2.3187	-2.5958	-2.325	-2.7208	-2.4188	-2.4396	-2.7958	-2.3625	-2.8729	-2.5625	-2.3104	-2.5854	-2.3021	-2.7667	-2.7562	-2.3854	254.553	214.282	254.528	446.908	425.777	429.157	454.248	343.887	459.062	273.686	212.737	202.135	341.511	433.669	444.066	459.489	0.00055381	0.00069459	0.00067214	609.27	2.906e-06	3.1493e-05	683.84	208.99	1.6337e-05	1.1214e-05	266.33	102.56	72.026	31.655	9.7457e-06	52.074	0.020183	0.034191	0.0092197	736.22	0.00032894	0.000364	821.9	304.9	0.00034082	0.00037973	352.97	127.17	98.763	40.493	0.00036111	64.233	174.190	211.013	247.058	153.358	156.331	193.085	151.910	158.108	149.907	316.996	156.627	161.569	163.060	167.747	470.172	164.826	-8191	255	
686.042	1	1	0	0	0.080766	0.1788	0.17899	0.2266	0.40873	0.08546	0.22266	0.14797	0.1953	0.077139	0.25597	0.32959	0.187	0.061346	0.067977	0.17017	-2.0771	-2.4271	-2.4604	-2.7708	-2.5042	-2.4938	-2.9125	-2.3979	-2.5563	-2.5708	-2.3312	-2.8792	-2.4333	-2.5125	-2.6521	-2.5167	371.220	425.036	339.281	443.727	273.107	156.012	412.919	454.574	290.316	238.961	370.490	390.407	487.880	376.471	194.607	379.320	0.00067616	0.0026597	0.00034898	601.21	1.0743e-05	1.7796e-05	677.76	206.57	1.8283e-05	5.4694e-06	264.59	101.28	71.674	31.521	9.6407e-06	51.883	0.020726	0.035313	0.009586	737.4	0.00035402	0.00039078	826.48	312.51	0.00037685	0.00041134	357.2	128.06	101.27	40.945	0.00038184	64.998	188.223	304.221	354.594	153.081	239.843	489.548	152.049	158.368	280.050	289.046	156.711	161.298	162.933	167.541	258.179	164.625	-8191	255	
686.137	1	1	0	0	0.22521	0.14626	0.20998	0.27282	0.10193	0.30848	0.17302	0.27308	0.029145	0.11664	0.17098	0.15703	0.12851	0.094397	0.16814	0.29299	-2.225	-2.6292	-2.3521	-2.8688	-2.5938	-2.4958	-3.0229	-2.4729	-2.5	-2.6458	-2.5354	-2.9667	-2.625	-2.4646	-2.7896	-2.4854	169.788	270.246	483.370	456.660	483.581	258.906	471.025	414.189	459.165	152.599	388.182	418.696	349.233	320.783	195.888	485.969	0.00076824	0.00056542	0.00042925	608.4	1.4332e-05	6.4857e-06	685.23	209.12	9.8e-06	1.05e-05	268.51	103.5	72.818	32.194	1.724e-05	52.439	0.022039	0.03676	0.01	748.57	0.00036807	0.0003981	833.42	318.39	0.00037977	0.00040834	361.74	129.97	102.35	41.51	0.00038118	66.023	172.160	430.414	257.075	153.300	197.368	259.156	151.971	157.514	242.103	318.649	156.546	160.952	163.091	167.213	284.691	164.655	-8191	255	
686.233	1	1	0	0	0.19248	0.3483	0.18166	0.12349	0.31291	0.083273	0.041324	0.038325	0.068558	0.32387	0.20625	0.087155	0.22269	0.093404	0.052812	0.17084	-2.0542	-2.6312	-2.4562	-2.7667	-2.5083	-2.3646	-2.9521	-2.3042	-2.5479	-2.8708	-2.3917	-2.6188	-2.5229	-2.4708	-2.6979	-2.6208	215.881	360.968	338.435	387.275	188.137	340.734	448.619	209.465	170.795	206.847	477.741	142.712	471.213	190.209	259.246	414.240	0.00073091	0.0001511	0.00047648	613.78	2.2308e-06	7.9543e-06	690.11	213.62	5.7404e-06	1.3404e-05	271.18	103.61	73.244	32.565	4.1981e-06	52.789	0.022405	0.037158	0.010195	760.38	0.00037662	0.00040268	842.16	323.68	0.00038188	0.0004029	364.22	130.58	102.73	41.763	0.00037959	66.648	169.114	368.649	242.768	152.983	240.737	180.408	151.823	158.265	240.910	421.699	156.787	161.245	162.983	167.364	204.971	164.868	-8191	255	
686.354	1	1	0	0	0.11581	0.2603	0.1343	0.12664	0.11658	0.11064	0.10923	0.12211	0.13646	0.099353	0.053126	0.15791	0.15154	0.19193	0.20463	0.11892	-1.9	-2.6688	-2.4271	-2.5396	-2.6042	-2.3417	-2.8292	-2.375	-2.4792	-2.7417	-2.575	-2.6521	-2.5125	-2.2313	-2.8104	-2.5917	169.896	310.962	433.073	498.718	209.071	265.105	411.764	443.985	194.577	180.508	163.158	170.255	409.705	480.997	396.981	452.450	0.00073918	0.00058201	0.00054544	623.08	1.7486e-05	5.649e-06	700.52	212.18	2.2395e-05	7.0445e-06	271.61	103.49	73.765	32.601	2.5848e-06	53.499	0.022598	0.036862	0.010358	769.36	0.00037887	0.00040925	851.58	330.32	0.00039752	0.00041726	369.38	132.67	104.56	42.509	0.00040112	68.144	185.382	331.373	247.190	153.185	293.280	369.201	151.987	157.941	270.040	368.086	156.604	160.830	163.000	167.370	435.401	164.513	-8191	255	
686.450	1	1	0	0	0.083131	0.099334	0.1686	0.16932	0.19051	0.20707	0.25596	0.25711	0.25093	0.12629	0.10001	0.16237	0.30222	0.2618	0.15346	0.21308	-2.0625	-2.7917	-2.4208	-2.6188	-2.7167	-2.2938	-2.6	-2.5625	-2.3312	-2.6208	-2.6	-2.5521	-2.7687	-2.35	-2.45	-2.6312	357.605	200.839	470.351	352.575	313.174	234.049	412.126	326.631	284.684	394.384	148.399	462.810	433.657	486.028	452.748	346.268	0.00071212	0.0015482	0.00022909	618.22	1.1502e-05	1.9338e-05	680.51	208.78	1.5994e-05	2.5692e-05	263.02	102.27	71.977	32.463	1.3704e-05	52.903	0.023857	0.038799	0.011215	776.27	0.00040352	0.00044147	849.61	336	0.00043001	0.00045105	372.47	133.62	105.52	43.162	0.0004386	68.708	168.394	393.103	242.346	153.158	308.712	310.644	151.880	158.253	200.680	307.464	156.731	161.264	163.167	167.475	297.171	164.957	-8191	255	
686.521	1	1	0	0	0.17288	0.18904	0.14465	0.20687	0.22709	0.018795	0.1096	0.19514	0.16411	0.12828	0.049823	0.22036	0.12214	0.14051	0.091956	0.20787	-1.8354	-2.675	-2.5625	-2.5812	-2.6937	-2.1688	-2.7229	-2.6021	-2.3688	-2.6667	-2.5646	-2.4958	-2.7417	-2.4729	-2.7792	-2.7229	159.798	314.582	341.885	494.044	379.944	245.056	359.754	401.864	232.454	171.400	407.303	467.641	356.189	417.641	406.896	345.885	0.00067801	0.00071772	0.00039588	594.31	2.0252e-06	4.3393e-06	669.07	206.75	1.1051e-05	2.8063e-05	264.62	101.84	72.602	32.207	4.3669e-06	52.542	0.025391	0.040987	0.011942	762.53	0.00041492	0.00045616	838.81	333.24	0.00042256	0.0004418	370.37	132.23	103.83	42.625	0.00041728	67.33	193.764	311.569	200.724	153.052	314.344	218.075	151.931	158.238	285.389	364.503	156.531	161.482	163.247	167.918	318.579	165.081	-8191	255	
686.618	1	1	0	0	0.20027	0.23348	0.15784	0.23941	0.16876	0.096454	0.066846	0.16417	0.10282	0.012632	0.04845	0.017919	0.25852	0.30726	0.11778	0.22235	-1.9708	-2.6333	-2.5354	-2.4479	-2.7625	-2.4875	-2.6625	-2.6813	-2.2083	-2.8708	-2.5833	-2.5375	-2.8146	-2.4104	-2.6188	-2.7854	492.055	440.091	384.721	436.911	337.187	447.622	329.418	166.430	173.398	473.298	464.539	286.345	496.057	499.985	380.364	369.433	0.00053509	0.0010049	0.0003902	596.98	2.6075e-06	2.2532e-05	663.63	204.71	4.6176e-06	1.039e-05	258.96	99.666	71.415	31.556	1.6565e-05	51.23	0.023957	0.039183	0.011545	758.21	0.0003981	0.00045254	836.25	330.34	0.00042685	0.00044921	368.94	130.41	102.74	42.19	0.00042603	66.33	163.060	442.594	495.702	153.316	406.678	232.811	152.108	158.584	219.023	216.737	156.615	161.525	162.858	167.843	299.746	164.771	-8191	255	
686.714	1	1	0	0	0.2576	0.23229	0.23159	0.21694	0.13289	0.084945	0.15194	0.11936	0.011723	0.37727	0.22028	0.05773	0.094379	0.25303	0.25624	0.26046	-1.7125	-2.5667	-2.5646	-2.3333	-2.5792	-2.5667	-2.4854	-2.8937	-2.2562	-2.5187	-2.6146	-2.5021	-2.7875	-2.6458	-2.5729	-2.9083	204.360	165.934	203.718	253.762	482.020	291.614	411.345	269.876	181.212	305.493	462.845	486.845	318.934	462.765	443.636	199.153	0.00069659	0.00071075	0.0002178	595.07	2.7658e-06	6.5648e-06	661.55	203.16	7.7407e-07	1.3297e-05	261.39	100.9	72.113	32.301	2.889e-05	52.361	0.024482	0.040114	0.011671	756.52	0.00039574	0.00045598	832.84	326.41	0.00041793	0.00043938	367.45	130.46	102.94	42.688	0.00042075	66.79	174.915	461.992	217.103	153.251	457.827	235.886	151.601	158.819	427.377	445.874	156.848	161.370	162.953	167.194	234.335	164.868	-8191	255	
686.834	1	1	0	0	0.36434	0.21548	0.19592	0.060675	0.066707	0.18029	0.16921	0.10687	0.033878	0.18032	0.22772	0.15458	0.099064	0.115	0.052264	0.22552	-1.9625	-2.6083	-2.6875	-2.2625	-2.7875	-2.6104	-2.4562	-2.9562	-2.5375	-2.725	-2.65	-2.5604	-2.85	-2.6813	-2.3729	-2.8958	287.173	355.212	452.541	184.142	274.662	415.594	489.645	491.672	254.174	389.062	465.777	251.923	414.399	445.677	157.721	434.110	0.00075082	0.00012633	0.00022826	610.82	3.6164e-06	6.6202e-06	679.04	210.7	1.4704e-05	9.279e-06	265.91	102.78	73.542	32.662	4.6348e-06	53.212	0.024539	0.039945	0.011549	768.64	0.00039624	0.00046314	853.56	332.2	0.00043163	0.00045049	374.46	132.71	104.59	43.203	0.00041386	67.416	173.865	500.010	336.773	153.143	436.711	142.199	152.062	158.583	303.417	296.448	156.918	161.247	162.935	167.063	241.408	165.028	-8191	255	
686.930	1	1	0	0	0.20878	0.38701	0.10153	0.12178	0.084482	0.21611	0.28031	0.37153	0.24311	0.11185	0.083877	0.16748	0.18526	0.11503	0.073667	0.16661	-1.9833	-2.5062	-2.6708	-2.3604	-2.7438	-2.6625	-2.3792	-2.8917	-2.3542	-2.5396	-2.5979	-2.2875	-2.6729	-2.6813	-2.3146	-2.8979	245.143	387.644	227.433	496.528	277.257	289.058	414.821	460.982	235.505	401.391	236.763	193.272	170.971	448.939	350.801	378.999	0.00072632	0.0007628	0.00025498	623.36	1.2096e-05	9.1067e-06	699.24	214.34	8.1705e-06	9.3879e-06	272.38	104.43	73.826	32.376	2.668e-05	53.2	0.024342	0.038817	0.011076	780.58	0.00038538	0.00044758	862.38	330.18	0.00041737	0.00042797	373.49	132.91	103.5	42.327	0.00038777	66.543	182.508	226.939	252.974	152.981	322.478	178.335	151.789	157.630	268.112	335.135	156.621	161.011	162.729	167.306	335.804	164.594	-8191	255	
687.027	1	1	0	0	0.056264	0.23533	0.11466	0.28243	0.05186	0.15473	0.084355	0.3335	0.34937	0.1151	0.14967	0.28144	0.11297	0.29292	0.10494	0.13981	-2.1	-2.7271	-2.625	-2.4646	-2.7	-2.425	-2.5208	-2.5708	-2.5417	-2.4062	-2.9396	-2.2354	-2.4083	-2.8438	-2.3792	-2.95	268.364	141.647	403.640	472.445	192.650	240.451	316.692	436.238	415.801	443.615	475.117	477.794	451.686	452.846	273.883	460.927	0.0005556	0.0012623	0.00035148	628.12	8.7456e-06	6.9526e-06	707.15	214.28	1.0665e-05	1.1735e-05	275.91	103.57	73.587	32.173	1.6204e-05	52.224	0.023145	0.036689	0.010288	773.98	0.00035814	0.00041184	854.56	319.98	0.00038317	0.00038854	364.03	129.94	100.68	41.081	0.00035718	64.692	170.861	179.598	473.220	152.850	239.412	409.973	151.906	158.102	249.859	245.783	156.505	161.016	162.727	167.224	283.622	164.534	-8191	255	
687.147	1	1	0	0	0.19188	0.15305	0.26056	0.37579	0.10511	0.17211	0.16953	0.14622	0.06909	0.16652	0.15399	0.28219	0.010741	0.13002	0.0074114	0.24079	-2.025	-2.3271	-2.4792	-2.3833	-2.4979	-2.6896	-2.3854	-2.6604	-2.2979	-2.3542	-2.6437	-2.3771	-2.6604	-2.6542	-2.2354	-2.8667	415.748	169.291	255.364	152.505	215.347	144.730	141.501	281.410	422.774	483.010	470.393	468.494	314.702	439.303	243.387	493.985	0.00057206	0.00087905	0.00020104	622.36	3.699e-06	7.7416e-06	698.22	214.62	1.6181e-05	1.9306e-05	273.18	102.99	72.244	31.496	8.2886e-06	51.937	0.021644	0.033842	0.009455	758.5	0.00033505	0.00038052	837.01	313.22	0.0003604	0.0003641	357.04	128	98.423	40.157	0.00034421	63.899	167.225	186.286	194.769	152.806	206.246	321.638	151.931	157.987	250.606	192.899	156.395	160.862	163.229	167.378	229.055	164.715	-8191	255	
687.217	1	1	0	0	0.17438	0.19761	0.051183	0.2434	0.14504	0.2608	0.23583	0.14931	0.17589	0.11892	0.069099	0.34879	0.22971	0.11699	0.32991	0.24107	-2.0417	-2.3812	-2.6771	-2.5	-2.5125	-2.7125	-2.3229	-2.6188	-2.5333	-2.4479	-2.775	-2.4833	-2.5375	-2.5896	-2.1417	-2.6979	291.051	290.921	464.335	406.353	467.087	427.030	381.325	395.997	384.898	333.723	242.830	401.507	491.137	267.547	278.000	172.921	0.00057263	0.0012324	0.00027034	625.24	4.0421e-06	8.8016e-06	700.99	216.11	9.2783e-06	1.6031e-05	273.5	103.86	74.083	32.297	2.1261e-05	53.209	0.020839	0.032483	0.0091465	758.87	0.00032921	0.00036987	838.66	314.37	0.0003583	0.00035893	358.89	129.32	99.52	40.7	0.00034592	64.908	185.093	304.146	385.588	153.083	315.350	340.976	152.017	158.222	217.842	461.301	156.680	160.938	162.960	167.506	314.013	164.599	-8191	255	
687.315	1	1	0	0	0.15495	0.15381	0.074871	0.13346	0.2106	0.38119	0.23789	0.16932	0.022248	0.18334	0.14785	0.13518	0.085032	0.33755	0.11633	0.015702	-2.1042	-2.0833	-2.5021	-2.5083	-2.3917	-2.5271	-2.5104	-2.5187	-2.4813	-2.0917	-2.9104	-2.5667	-2.4125	-2.8708	-2.375	-2.7458	194.685	364.292	218.754	433.122	289.067	362.005	408.460	190.700	213.177	364.984	472.446	452.959	205.238	397.153	465.915	427.049	0.00060172	0.0008041	0.00023185	640.14	1.1982e-05	1.6243e-05	721.48	221.74	6.1777e-06	2.2635e-05	279.66	106.01	75.208	33.076	1.8229e-05	54.084	0.020763	0.032321	0.0092363	775.46	0.00032831	0.00036848	858.96	321.14	0.00036038	0.00036771	365.64	132.13	101.54	41.772	0.00036293	66.357	176.355	223.672	393.241	152.871	264.879	348.788	151.907	157.941	195.296	367.561	156.527	160.965	162.468	167.503	199.971	164.249	-8191	255	
687.434	1	1	0	0	0.25812	0.16347	0.14962	0.091774	0.13869	0.094363	0.18535	0.17375	0.28227	0.090567	0.28052	0.25402	0.11055	0.12494	0.26871	0.11034	-2.4583	-2.1	-2.6688	-2.4562	-2.4167	-2.7542	-2.5438	-2.4313	-2.7646	-2.3875	-2.8521	-2.725	-2.5375	-2.9792	-2.4271	-2.5833	471.801	287.500	383.758	347.646	208.772	286.656	407.633	321.673	423.444	294.249	489.419	157.852	484.292	169.038	448.931	200.893	0.00046843	0.00040846	0.00053905	651.48	5.6039e-06	1.8878e-05	729.71	223.87	5.3235e-06	2.0417e-05	284	107.09	76.474	33.575	2.0485e-05	54.865	0.021204	0.03351	0.0095235	796.72	0.00033708	0.00038071	874.39	327.99	0.00036962	0.00038281	373.13	134.22	103.2	42.579	0.00037946	67.504	181.316	224.544	223.626	153.009	218.034	319.592	151.869	157.990	416.560	308.486	156.407	160.775	162.340	167.190	232.114	164.187	-8191	255	
687.530	1	1	0	0	0.10071	0.03145	0.018194	0.13658	0.23181	0.27396	0.080196	0.010894	0.14193	0.17756	0.16885	0.10914	0.19939	0.17171	0.26682	0.23825	-2.2062	-2.4	-2.6625	-2.6771	-2.3458	-2.7062	-2.4104	-2.4583	-2.775	-2.3854	-2.7104	-2.9	-2.4854	-2.8333	-2.525	-2.4417	290.945	175.764	371.313	294.936	315.853	421.458	282.345	194.998	441.672	367.500	328.408	431.741	496.968	187.189	202.470	421.534	0.00063729	0.0014055	0.00035537	654.15	3.858e-06	1.0186e-05	727.68	224.16	1.3858e-05	2.1278e-05	280.88	106.01	76.119	33.603	1.447e-05	53.943	0.021541	0.034699	0.0097483	796.92	0.00033623	0.00038017	872.31	325	0.00035675	0.00037715	367.5	132.23	101.55	42.04	0.00036456	66.013	185.180	184.050	278.886	152.937	419.768	186.676	151.729	157.897	330.928	140.178	156.407	161.283	162.442	167.299	172.213	164.344	-8191	255	
687.626	1	1	0	0	0.22031	0.19392	0.1771	0.21688	0.15403	0.14787	0.1404	0.089161	0.077877	0.2025	0.21713	0.41644	0.26772	0.20951	0.23024	0.30022	-2.2687	-2.4396	-2.4958	-2.7875	-2.4917	-2.6396	-2.7833	-2.3479	-2.8458	-2.55	-2.5521	-2.7313	-2.3083	-2.7687	-2.6958	-2.5021	352.649	487.693	328.923	478.082	251.686	167.893	207.101	303.650	171.111	145.241	176.232	175.203	490.285	460.259	487.362	391.483	0.00074851	0.001969	0.00030328	640.18	2.2382e-06	1.5014e-05	710.74	218.77	2.1138e-05	1.5007e-05	276.79	104.19	74.873	32.943	2.3629e-05	53.143	0.020542	0.03428	0.0094621	779.49	0.0003351	0.00037772	858.93	320.44	0.00036105	0.00038878	363.77	130.37	101.44	41.772	0.00037522	65.539	183.434	321.503	213.397	152.674	288.372	340.880	152.027	158.314	289.072	478.814	156.828	161.056	162.680	166.897	383.613	164.382	-8191	255	
687.747	1	1	0	0	0.14272	0.28878	0.072498	0.32087	0.16826	0.2461	0.093649	0.14775	0.16368	0.041293	0.13861	0.20003	0.22261	0.09277	0.11655	0.11359	-2.3937	-2.4604	-2.5667	-2.9083	-2.4458	-2.6833	-2.7167	-2.4146	-2.7292	-2.4958	-2.5125	-2.8146	-2.425	-2.575	-2.4396	-2.4208	456.985	335.943	219.438	495.996	369.086	433.367	165.363	438.607	321.437	485.169	199.358	155.361	485.549	153.236	300.343	404.544	0.00076187	0.002516	0.00034927	642.8	2.3745e-05	5.8149e-06	711.41	220.45	1.3469e-05	1.2537e-05	277.67	104.91	75.473	33.097	4.7196e-06	53.727	0.020945	0.035128	0.0096197	780.27	0.00034018	0.00038417	861.77	321.76	0.00036291	0.00039565	365.88	130.8	102.43	41.925	0.00037364	65.867	173.152	184.650	326.956	153.231	296.298	327.054	152.018	158.054	174.225	391.027	156.376	160.628	162.710	167.164	304.048	164.416	-8191	255	
687.819	1	1	0	0	0.39274	0.077014	0.19615	0.19066	0.2131	0.082641	0.26477	0.24334	0.34354	0.18667	0.091517	0.086944	0.24608	0.054493	0.13511	0.24314	-2.2646	-2.5	-2.4104	-2.8958	-2.2979	-2.7708	-2.7958	-2.2729	-2.6604	-2.6188	-2.7292	-2.6125	-2.4958	-2.6896	-2.7875	-2.3438	483.836	482.473	225.225	221.515	275.732	293.486	448.566	379.589	163.738	399.590	409.668	362.389	477.548	408.919	272.070	492.125	0.00061068	0.00090733	0.00059361	649.39	9.6359e-06	7.7977e-06	716.1	220.45	1.9691e-05	3.8348e-06	277.06	105.85	75.169	33.038	1.0727e-05	54.012	0.021025	0.035414	0.0095081	783.31	0.00034493	0.00038111	862.26	321.83	0.00036152	0.00039338	364.92	131	102.67	41.864	0.00036944	66.011	172.766	254.718	228.473	152.898	165.407	210.990	152.124	158.603	346.695	233.976	156.336	160.870	162.633	167.280	289.145	164.335	-8191	255	
687.915	1	1	0	0	0.17148	0.059295	0.21718	0.13766	0.15856	0.35961	0.078276	0.38319	0.27681	0.15389	0.17393	0.045238	0.19592	0.21642	0.10254	0.24084	-2.3083	-2.5229	-2.2646	-3.1125	-2.525	-2.4875	-2.7313	-2.3229	-2.5938	-2.65	-2.5812	-2.7583	-2.4562	-2.5708	-2.9167	-2.3688	173.942	342.440	389.473	273.043	491.359	329.285	469.270	431.418	292.018	216.038	457.862	365.478	361.338	291.615	470.892	449.642	0.00048173	0.0012506	6.9876e-05	643.19	6.5901e-06	9.679e-06	714.58	220.63	1.2845e-05	1.9741e-05	278.16	105.68	74.955	32.833	1.0148e-05	53.763	0.021373	0.035825	0.0096017	779.49	0.000355	0.00038762	861.71	323.93	0.00036809	0.00039817	366.86	131.56	103.29	41.868	0.00036875	66.401	173.261	481.112	473.812	153.233	426.837	362.408	151.844	158.524	183.548	327.768	156.450	160.928	162.842	167.021	346.050	164.406	-8191	255	
688.011	1	1	0	0	0.31202	0.13342	0.22686	0.16242	0.15462	0.24512	0.21196	0.28767	0.098085	0.11801	0.14502	0.1364	0.17109	0.070232	0.14292	0.12901	-2.1958	-2.55	-2.4146	-2.8583	-2.4396	-2.5687	-2.7938	-2.45	-2.7333	-2.5958	-2.4062	-2.8563	-2.5146	-2.5667	-2.7271	-2.475	356.477	367.442	187.628	463.455	351.124	195.534	460.112	438.469	372.408	273.054	464.513	142.088	418.172	153.797	429.133	169.908	0.00078332	0.00087649	0.00028357	645.52	1.9496e-05	2.3006e-05	720.3	219.71	8.3289e-06	2.329e-05	278.68	105.07	74.294	32.746	1.294e-05	52.957	0.021572	0.03608	0.0096856	787.57	0.00036443	0.00039336	868.63	329.5	0.00038182	0.00040883	369.42	132.23	104.09	41.943	0.00038299	66.511	165.011	220.998	224.819	153.221	267.362	349.014	152.091	158.698	410.191	309.394	156.685	160.652	162.429	167.356	301.006	164.441	-8191	255	
688.130	1	1	0	0	0.16806	0.075122	0.17833	0.22214	0.17786	0.16694	0.098824	0.33958	0.22948	0.16011	0.24551	0.31066	0.19614	0.2182	0.13411	0.21826	-2.3542	-2.5687	-2.35	-2.6583	-2.5812	-2.4167	-2.9437	-2.4437	-2.575	-2.6792	-2.5375	-2.7792	-2.4292	-2.4188	-2.7333	-2.5667	355.973	391.172	192.608	449.648	156.420	160.906	458.751	449.211	253.108	259.031	304.484	460.460	178.708	288.172	264.396	158.718	0.00049317	0.0010199	0.00026694	632.94	2.5756e-06	1.405e-05	704.68	213.8	1.2412e-05	5.5226e-06	272.44	103.31	73.968	32.503	5.2294e-06	52.425	0.02236	0.03701	0.010146	783.8	0.00037656	0.00040455	860.36	330.17	0.0003924	0.00041828	368.24	131.72	104.29	41.972	0.00040213	66.866	164.508	386.992	256.043	153.204	142.064	312.446	152.034	158.418	270.696	494.515	156.417	161.014	162.554	167.409	178.819	164.630	-8191	255	
688.226	1	1	0	0	0.16389	0.13333	0.20766	0.22748	0.26802	0.064363	0.25254	0.24796	0.26946	0.19322	0.18275	0.17163	0.069995	0.33916	0.07859	0.16313	-1.9292	-2.7708	-2.2583	-2.7417	-2.7333	-2.4021	-2.9375	-2.3917	-2.6437	-2.6792	-2.4542	-2.7104	-2.7104	-2.3792	-2.8333	-2.3896	342.062	157.822	271.926	443.401	447.723	496.282	386.128	476.332	163.855	484.751	475.407	142.235	404.128	451.491	283.663	468.438	0.00031693	0.0020064	0.00022316	623.54	7.0668e-06	3.4552e-06	695.58	213.12	1.1185e-05	1.5305e-05	268.83	103.04	72.923	32.487	1.1619e-05	52.579	0.023456	0.038825	0.010885	782.56	0.00039923	0.00042854	861.27	336.27	0.00041593	0.00044195	372.59	132.91	105.74	42.565	0.00042694	67.677	167.222	416.550	496.597	153.054	201.308	202.568	152.047	158.047	415.298	385.605	156.337	160.964	163.272	167.340	247.985	164.636	-8191	255	
688.322	1	1	0	0	0.26916	0.16129	0.10838	0.21428	0.15494	0.13538	0.12082	0.17794	0.23895	0.24802	0.060204	0.12223	0.11978	0.082752	0.15801	0.33244	-2.125	-2.7146	-2.2625	-2.7625	-2.5875	-2.3542	-2.8271	-2.5875	-2.4292	-2.8354	-2.4062	-2.6396	-2.7854	-2.3625	-2.7396	-2.6375	494.304	472.526	225.995	173.389	424.894	417.840	453.967	425.779	431.633	289.613	252.870	390.022	300.525	174.735	410.975	482.822	0.0005576	0.00060658	0.00038382	616.99	1.8189e-05	9.4488e-06	687.42	210.21	9.237e-06	1.7514e-05	266.62	102.1	73.539	32.533	7.4394e-06	52.666	0.024658	0.04047	0.011589	782.26	0.0004089	0.00044505	858.51	337.83	0.00041754	0.00044345	372.7	132.49	105.03	42.648	0.00042427	67.647	184.756	259.442	241.552	153.160	254.758	330.736	151.886	158.271	241.134	332.541	156.377	161.032	163.078	167.784	284.691	164.345	-8191	255	
688.418	1	1	0	0	0.083854	0.14713	0.13396	0.1426	0.23884	0.06845	0.36384	0.36658	0.12614	0.056228	0.16121	0.25659	0.15416	0.14702	0.089043	0.12587	-1.9646	-2.7021	-2.3875	-2.6104	-2.6292	-2.4271	-2.7208	-2.5667	-2.4896	-2.7396	-2.4479	-2.6729	-2.7313	-2.3979	-2.6854	-2.4708	365.620	484.295	469.390	157.148	171.562	441.662	407.418	481.258	424.585	386.733	480.534	155.021	163.278	454.987	189.026	308.895	0.00073383	0.001073	0.00053575	614.07	7.1378e-06	1.4635e-05	683.89	209.85	1.6548e-05	2.1879e-05	264.16	102.04	72.682	32.179	1.0532e-05	52.583	0.024217	0.040332	0.011633	778.77	0.00040956	0.00045541	858.28	338.68	0.00042978	0.00046044	376.16	133.25	105.79	43.164	0.00044666	68.304	185.365	194.771	247.056	153.218	358.046	159.830	152.028	157.820	297.646	294.784	156.808	161.265	162.887	167.721	205.887	164.890	-8191	255	
688.514	1	1	0	0	0.24107	0.10146	0.27128	0.17938	0.21294	0.21989	0.18825	0.21606	0.1144	0.28292	0.15486	0.053745	0.11293	0.24489	0.19621	0.068461	-1.9354	-2.6562	-2.3271	-2.5125	-2.7313	-2.3167	-2.7479	-2.5292	-2.4229	-2.675	-2.4313	-2.6437	-2.9417	-2.5187	-2.5312	-2.7604	375.399	494.715	339.082	460.272	267.846	359.485	422.181	165.487	206.171	412.260	228.225	225.621	311.025	200.932	278.456	212.264	0.00075734	0.0020552	1.4555e-05	613.02	1.1296e-05	1.8e-05	677.15	209.14	8.0257e-06	9.611e-06	260.74	100.91	72.208	32.24	1.8822e-05	51.581	0.025495	0.042535	0.012224	781.14	0.0004218	0.00047366	856.63	339.01	0.00044296	0.00047669	376.46	132.71	106.23	43.49	0.00045505	67.944	178.058	228.467	434.087	153.233	255.423	316.319	152.115	158.262	491.398	387.282	156.382	161.264	163.057	167.451	402.703	164.311	-8191	255	
688.610	1	1	0	0	0.086798	0.22363	0.057812	0.047978	0.2036	0.4736	0.16062	0.35461	0.018019	0.17567	0.1857	0.25902	0.065711	0.24656	0.23375	0.057232	-1.9792	-2.5729	-2.4125	-2.5479	-2.7875	-2.5333	-2.6625	-2.7896	-2.2521	-2.8083	-2.5417	-2.3917	-2.8187	-2.3708	-2.5479	-2.8229	332.444	407.437	170.604	240.066	402.784	451.368	325.539	157.130	285.084	405.163	204.171	426.031	247.412	430.473	309.527	181.163	0.00057998	0.00034925	0.00033556	609.95	1.5163e-05	2.1192e-05	671.81	205.01	1.4956e-05	1.9962e-05	258.69	100.29	71.578	32.255	1.088e-05	51.632	0.026239	0.043727	0.012621	782.74	0.00043569	0.00049799	856.53	338.98	0.00045818	0.00048624	375.42	132.11	106.17	43.558	0.00045366	67.622	177.009	305.792	298.496	153.136	267.729	261.833	152.247	158.107	197.644	343.882	156.665	161.253	163.258	167.355	378.908	164.420	-8191	255	
688.707	1	1	0	0	0.051994	0.053544	0.15449	0.21381	0.17947	0.079004	0.25253	0.074333	0.13861	0.25207	0.2296	0.050986	0.29476	0.14009	0.063301	0.11783	-1.7729	-2.7333	-2.5563	-2.4437	-2.6833	-2.4437	-2.6333	-2.8	-2.2521	-2.6521	-2.5438	-2.3688	-2.8333	-2.5062	-2.5708	-2.7896	373.875	164.071	333.570	494.397	408.698	251.933	469.556	320.564	167.216	401.029	386.754	332.919	458.685	206.470	148.865	233.839	0.00070126	0.00045235	0.00030296	611.06	8.272e-06	1.4059e-05	671.37	207.06	5.8855e-06	1.4983e-05	258.13	100.19	72.621	32.15	1.0015e-05	51.954	0.026244	0.043031	0.012355	780.8	0.00043238	0.00049369	853.33	338.6	0.00046337	0.00048045	373.78	132.49	106.63	43.651	0.00044309	67.687	162.009	362.197	357.477	153.357	232.705	406.839	152.209	158.219	325.457	282.351	156.354	160.969	162.741	167.544	338.416	164.483	-8191	255	
688.827	1	1	0	0	0.10376	0.09827	0.091271	0.16411	0.2668	0.087745	0.1981	0.20669	0.0078773	0.12103	0.14703	0.36107	0.10872	0.17463	0.2351	0.18209	-1.7521	-2.4958	-2.4396	-2.525	-2.5604	-2.3771	-2.6312	-2.75	-2.3854	-2.6396	-2.6896	-2.3917	-2.85	-2.6229	-2.5167	-2.8417	293.655	234.478	203.204	419.453	249.842	402.090	440.005	293.828	392.395	202.126	277.881	470.962	455.166	187.183	411.806	355.013	0.00059685	0.0011041	0.00045586	609.25	1.4622e-05	1.4801e-05	675.33	208.78	3.9647e-06	2.4194e-05	262.47	101.69	72.693	32.45	3.3853e-06	52.679	0.026358	0.042438	0.012077	780.83	0.00042397	0.00048313	849.89	336.8	0.00045464	0.00046495	373	132.92	106	43.514	0.00042903	67.601	170.244	412.006	359.235	153.209	343.935	274.162	152.273	157.945	266.005	326.697	156.829	160.967	162.432	167.689	226.586	164.403	-8191	255	
688.923	1	1	0	0	0.20652	0.040316	0.25794	0.28899	0.26694	0.14456	0.06609	0.15471	0.2863	0.17661	0.03745	0.28162	0.325	0.16633	0.15274	0.1613	-1.7354	-2.5854	-2.6125	-2.3333	-2.8125	-2.5625	-2.5938	-2.7333	-2.5396	-2.5604	-2.8667	-2.3479	-2.6271	-2.6833	-2.4	-2.8438	433.379	396.632	447.693	483.271	476.270	393.936	180.888	274.506	149.658	164.765	494.175	182.045	440.719	182.935	479.585	490.302	0.00061377	0.0012023	0.0004363	610.63	8.8884e-06	7.5677e-06	678.33	212.12	2.3378e-05	1.2807e-05	266.32	101.96	73.005	32.314	1.1583e-05	52.807	0.025822	0.040721	0.011549	777.03	0.00040786	0.00046344	845.19	334.03	0.00043805	0.00044385	370.86	133.01	104.81	42.908	0.00041711	67.342	172.466	355.545	374.220	153.519	153.916	312.235	151.973	158.551	257.268	378.127	156.719	161.211	162.822	167.362	187.624	164.257	-8191	255	
689.020	1	1	0	0	0.13851	0.11243	0.082622	0.32271	0.26496	0.27136	0.23899	0.096379	0.23246	0.21751	0.22981	0.13026	0.2691	0.26362	0.082688	0.30055	-1.9583	-2.4958	-2.7208	-2.425	-2.8563	-2.5417	-2.4729	-2.725	-2.7167	-2.5542	-2.8708	-2.3167	-2.6771	-2.5958	-2.3583	-2.7167	470.559	307.960	469.303	488.548	256.258	220.906	369.584	473.204	265.338	340.093	362.118	142.486	476.548	456.256	322.369	217.331	0.0010202	0.0017279	0.00016727	608.72	7.0194e-06	2.34e-05	680.87	209.88	2.1053e-05	2.3804e-05	259.74	100.48	71.875	31.737	2.099e-05	51.348	0.025341	0.039601	0.011328	775.76	0.00040319	0.00045865	849.34	333.83	0.00044726	0.00045079	369.2	132.51	104.47	42.712	0.00043686	66.741	183.199	230.520	375.052	153.144	271.692	391.654	152.177	158.529	417.463	279.943	156.795	161.123	162.823	167.251	273.012	164.861	-8191	255	
689.116	1	1	0	0	0.19359	0.13753	0.21138	0.35984	0.22457	0.10642	0.18389	0.13328	0.37587	0.061518	0.25448	0.19397	0.18362	0.1499	0.25474	0.2269	-2.0687	-2.4688	-2.6125	-2.2729	-2.5708	-2.7687	-2.4208	-2.7833	-2.3458	-2.4667	-2.9188	-2.5021	-2.5229	-2.6208	-2.3958	-2.9104	149.901	337.496	463.112	462.401	363.623	422.523	499.384	180.050	370.325	408.859	408.798	349.147	391.624	194.339	199.494	467.310	0.0008966	0.0015817	0.00024495	603.79	8.4384e-06	8.9828e-06	665.03	204.01	1.3258e-05	1.2261e-06	257.8	99.239	70.805	31.715	2.9934e-05	51.002	0.026356	0.041099	0.011931	779.01	0.00042011	0.00047711	844.77	334.43	0.00046216	0.00046222	368.23	132.39	104.53	42.704	0.00045406	66.82	183.595	245.350	497.127	153.585	395.646	231.106	152.378	158.145	289.474	169.295	156.684	161.120	163.210	167.490	225.656	164.815	-8191	255	
689.210	1	1	0	0	0.099875	0.13583	0.14446	0.072387	0.11683	0.18974	0.23887	0.18226	0.16387	0.2843	0.18713	0.17769	0.30464	0.059989	0.17935	0.11051	-2.3083	-2.2042	-2.6854	-2.4479	-2.6063	-2.6625	-2.5271	-2.5125	-2.5104	-2.4229	-2.7313	-2.5792	-2.425	-2.6917	-2.1437	-2.6979	316.120	271.034	306.136	215.911	146.621	148.318	365.695	164.015	389.905	179.251	495.989	434.040	151.764	454.014	287.279	417.258	0.00056347	0.00053097	0.00019169	598.14	1.1125e-05	6.513e-06	661.66	205.42	7.8875e-06	1.2714e-05	259.49	100.27	71.843	31.981	7.4949e-06	51.456	0.026875	0.041692	0.012022	775.47	0.00041395	0.00046901	839.41	330.79	0.00044136	0.00044526	366.14	131.25	102.98	42.23	0.00042677	65.925	163.608	224.990	271.562	153.144	426.735	306.340	152.343	158.410	489.312	244.777	157.024	161.251	162.980	167.664	276.768	164.500	-8191	255	
689.306	1	1	0	0	0.31096	0.064416	0.30011	0.37811	0.037125	0.20907	0.20536	0.23469	0.26114	0.2703	0.15715	0.18664	0.13803	0.13471	0.19713	0.065991	-2.0896	-2.5521	-2.7687	-2.3771	-2.4125	-2.55	-2.5271	-2.5708	-2.5125	-2.2687	-2.7479	-2.6021	-2.4021	-2.8312	-2.3125	-2.6104	158.221	444.561	226.246	456.157	300.513	210.776	157.496	435.919	277.353	443.955	362.928	207.859	419.030	459.847	158.025	393.643	0.0006188	0.0011664	7.0536e-05	616.08	9.8256e-06	1.2419e-05	676.98	210.07	1.7865e-05	1.9691e-05	265.57	101.66	72.584	32.023	8.5039e-06	51.879	0.02454	0.038901	0.011068	773.96	0.00038112	0.00043754	847.25	327.87	0.00041518	0.00042892	367.68	131.8	102.38	41.986	0.00041096	65.676	194.751	221.084	447.997	153.091	486.011	404.098	152.198	157.902	218.488	359.282	156.782	161.394	162.716	167.435	432.751	164.399	-8191	255	
689.427	1	1	0	0	0.11587	0.20561	0.12952	0.1375	0.12982	0.094558	0.022118	0.095959	0.019268	0.17086	0.053573	0.31006	0.28913	0.090362	0.1517	0.12142	-1.9875	-2.4375	-2.5396	-2.5187	-2.2354	-2.9188	-2.375	-2.5396	-2.4458	-2.2188	-2.8271	-2.4896	-2.3187	-2.7854	-2.425	-2.3542	400.580	353.495	264.862	169.041	176.443	437.233	175.101	478.590	279.251	493.930	403.037	159.739	253.857	450.051	311.500	356.534	0.00058303	0.00043913	0.00051007	618.67	1.0987e-05	1.6794e-05	690.39	214.11	6.0487e-06	7.9518e-07	270.25	102.1	73.334	32.023	5.9934e-06	52.183	0.023261	0.037472	0.010572	772.57	0.00036332	0.0004185	849.72	324.46	0.0003958	0.00041721	366.33	130.92	101.9	41.64	0.00040192	65.472	182.921	376.251	296.207	153.063	391.076	328.591	152.262	157.969	331.893	485.953	156.535	161.293	162.860	167.379	155.203	164.554	-8191	255	
689.523	1	1	0	0	0.1364	0.13613	0.13051	0.14909	0.049509	0.050433	0.1654	0.20019	0.31668	0.36861	0.065491	0.21585	0.24756	0.14563	0.049733	0.30807	-2.2687	-2.2771	-2.7042	-2.7854	-2.3792	-2.6104	-2.5021	-2.6354	-2.7	-2.475	-2.6375	-2.7292	-2.4771	-2.8208	-2.3812	-2.525	447.904	488.162	455.754	167.842	421.338	426.846	475.734	385.961	194.926	315.771	432.734	448.053	172.615	420.312	173.268	484.752	0.00068955	0.0018978	0.00052304	624.2	9.2439e-06	1.1405e-05	698.43	214.83	7.7665e-06	7.453e-06	272.31	103.26	73.245	31.926	1.0964e-05	52.207	0.022999	0.0377	0.010413	773.53	0.00036376	0.00041542	853.89	321.65	0.00038685	0.00040848	364.44	130.15	101.16	41.331	0.00038503	64.745	192.207	157.429	304.797	153.113	182.185	313.557	152.119	158.477	210.539	260.750	156.113	161.107	162.854	167.564	459.479	164.809	-8191	255	
689.619	1	1	0	0	0.27704	0.22749	0.083549	0.24193	0.11416	0.24804	0.19993	0.22467	0.26999	0.39575	0.21766	0.11866	0.25173	0.13976	0.094602	0.055145	-2.3563	-2.3896	-2.5	-2.6396	-2.2313	-2.7229	-2.6042	-2.3146	-2.8312	-2.2188	-2.5333	-2.6521	-2.3875	-2.7854	-2.4562	-2.4	380.126	344.686	286.095	189.900	229.433	208.036	413.423	406.659	420.338	310.837	416.742	346.577	473.588	228.867	311.424	451.552	0.00068461	0.0005434	0.00026593	628.45	6.8058e-06	3.7464e-06	697.88	219.81	9.7302e-06	1.6821e-05	277.84	103.29	74.691	32.339	1.2382e-05	52.472	0.02187	0.035802	0.0097403	768.42	0.00034391	0.00038406	846.66	317	0.00035911	0.00037922	361.48	128.77	99.962	40.62	0.00034992	64.059	183.064	486.297	329.248	153.193	351.052	303.665	151.715	158.064	225.208	424.276	156.440	160.792	162.536	167.617	189.654	164.366	-8191	255	
#DATA ENDS
