BOXY.EXE: ISS Imagent and Oximeter Data Acquisition Program Version 0.80
Ascii Record File

#ACQ INFORMATION
2  Detector Channels 
16  External MUX Channels 
1  Auxiliary Channels 
5000  Waveform (CCF) Frequency (Hz)
1  Waveforms Skipped 
30  Waveforms Averaged 
1  Cycles Averaged 
16  Acquisitions per Waveform 
10.0806  Updata Rate (Hz) 

#FILE INFORMATION
TRUE -- External MUX Channel results are PARSED.
FALSE -- AC DC and Phase are NOT grouped.
TRUE -- Companion Program Settings File CREATED.
FALSE -- AC data not excluded
FALSE -- DC data not excluded
FALSE -- Phase data not excluded
FALSE -- Auxillary Chn. data not excluded
Tab delimiters

#CALIBRATION STATE
TRUE -- Waveform Calibration Values APPLIED.


#AUX CALIBRATION VALUES
Val Type	aux-1	

Term	1.0000e+00	
Factor	0.0000e+00	


#WF CALIBRATION VALUES
A = Detector Channel
Val Type	A-AC1	A-AC2	A-AC3	A-AC4	A-AC5	A-AC6	A-AC7	A-AC8	A-AC9	A-AC10	A-AC11	A-AC12	A-AC13	A-AC14	A-AC15	A-AC16	A-DC1	A-DC2	A-DC3	A-DC4	A-DC5	A-DC6	A-DC7	A-DC8	A-DC9	A-DC10	A-DC11	A-DC12	A-DC13	A-DC14	A-DC15	A-DC16	A-Ph1	A-Ph2	A-Ph3	A-Ph4	A-Ph5	A-Ph6	A-Ph7	A-Ph8	A-Ph9	A-Ph10	A-Ph11	A-Ph12	A-Ph13	A-Ph14	A-Ph15	A-Ph16	

Term	0.00000e+00	0.00000e+00	0.00000e+00	0.00000e+00	0.00000e+00	0.00000e+00	0.00000e+00	0.00000e+00	0.00000e+00	0.00000e+00	0.00000e+00	0.00000e+00	0.00000e+00	0.00000e+00	0.00000e+00	0.00000e+00	0.00000e+00	0.00000e+00	0.00000e+00	0.00000e+00	0.00000e+00	0.00000e+00	0.00000e+00	0.00000e+00	0.00000e+00	0.00000e+00	0.00000e+00	0.00000e+00	0.00000e+00	0.00000e+00	0.00000e+00	0.00000e+00	0.00000e+00	0.00000e+00	0.00000e+00	0.00000e+00	0.00000e+00	0.00000e+00	0.00000e+00	0.00000e+00	0.00000e+00	0.00000e+00	0.00000e+00	0.00000e+00	0.00000e+00	0.00000e+00	0.00000e+00	0.00000e+00	
Factor	1.00000e+00	1.00000e+00	1.00000e+00	1.00000e+00	1.00000e+00	1.00000e+00	1.00000e+00	1.00000e+00	1.00000e+00	1.00000e+00	1.00000e+00	1.00000e+00	1.00000e+00	1.00000e+00	1.00000e+00	1.00000e+00	1.00000e+00	1.00000e+00	1.00000e+00	1.00000e+00	1.00000e+00	1.00000e+00	1.00000e+00	1.00000e+00	1.00000e+00	1.00000e+00	1.00000e+00	1.00000e+00	1.00000e+00	1.00000e+00	1.00000e+00	1.00000e+00	X	X	X	X	X	X	X	X	X	X	X	X	X	X	X	X	

B = Detector Channel
Val Type	B-AC1	B-AC2	B-AC3	B-AC4	B-AC5	B-AC6	B-AC7	B-AC8	B-AC9	B-AC10	B-AC11	B-AC12	B-AC13	B-AC14	B-AC15	B-AC16	B-DC1	B-DC2	B-DC3	B-DC4	B-DC5	B-DC6	B-DC7	B-DC8	B-DC9	B-DC10	B-DC11	B-DC12	B-DC13	B-DC14	B-DC15	B-DC16	B-Ph1	B-Ph2	B-Ph3	B-Ph4	B-Ph5	B-Ph6	B-Ph7	B-Ph8	B-Ph9	B-Ph10	B-Ph11	B-Ph12	B-Ph13	B-Ph14	B-Ph15	B-Ph16	

Term	0.00000e+00	0.00000e+00	0.00000e+00	0.00000e+00	0.00000e+00	0.00000e+00	0.00000e+00	0.00000e+00	0.00000e+00	0.00000e+00	0.00000e+00	0.00000e+00	0.00000e+00	0.00000e+00	0.00000e+00	0.00000e+00	0.00000e+00	0.00000e+00	0.00000e+00	0.00000e+00	0.00000e+00	0.00000e+00	0.00000e+00	0.00000e+00	0.00000e+00	0.00000e+00	0.00000e+00	0.00000e+00	0.00000e+00	0.00000e+00	0.00000e+00	0.00000e+00	-1.39035e+02	-1.26531e+02	-1.24596e+02	-1.80804e+02	-7.25877e+01	-6.93892e+01	-1.54809e+02	-1.62015e+02	-7.25300e+01	-6.55066e+01	-1.69734e+02	-1.69176e+02	-1.79665e+02	-1.75011e+02	-7.13834e+01	-1.48090e+02	
Factor	2.07196e-05	1.75471e-04	4.94896e-05	1.59281e-01	1.38751e-06	1.84430e-06	1.75738e-01	1.16506e-01	1.58342e-06	2.10923e-06	1.01319e-01	2.93076e-02	2.93043e-02	9.46954e-03	1.57524e-06	1.37912e-02	1.13244e-05	1.86183e-05	5.24104e-06	8.03654e-02	1.86286e-07	2.08226e-07	8.35337e-02	5.82145e-02	1.97906e-07	2.07924e-07	4.98347e-02	1.44784e-02	1.50484e-02	4.83635e-03	1.97216e-07	6.82973e-03	X	X	X	X	X	X	X	X	X	X	X	X	X	X	X	X	



#DISTANCE SETTINGS
A = Detector Channel
A-1	A-2	A-3	A-4	A-5	A-6	A-7	A-8	A-9	A-10	A-11	A-12	A-13	A-14	A-15	A-16	

2.5000e+00	3.0000e+00	2.5000e+00	3.0000e+00	2.0000e+00	3.0000e+00	1.5000e+00	3.0000e+00	3.0000e+00	3.0000e+00	3.0000e+00	3.0000e+00	3.0000e+00	3.0000e+00	1.5000e+00	3.0000e+00	

B = Detector Channel
B-1	B-2	B-3	B-4	B-5	B-6	B-7	B-8	B-9	B-10	B-11	B-12	B-13	B-14	B-15	B-16	

1.0000e+01	1.0000e+01	1.0000e+01	1.4400e+00	1.0000e+01	1.0000e+01	1.5100e+00	1.9400e+00	1.0000e+01	1.0000e+01	1.9900e+00	2.4900e+00	2.4100e+00	2.9000e+00	1.0000e+01	2.9800e+00	




#DATA BEGINS
time	group	step	mark	flag	A-AC1	A-AC2	A-AC3	A-AC4	A-AC5	A-AC6	A-AC7	A-AC8	A-AC9	A-AC10	A-AC11	A-AC12	A-AC13	A-AC14	A-AC15	A-AC16	A-DC1	A-DC2	A-DC3	A-DC4	A-DC5	A-DC6	A-DC7	A-DC8	A-DC9	A-DC10	A-DC11	A-DC12	A-DC13	A-DC14	A-DC15	A-DC16	A-Ph1	A-Ph2	A-Ph3	A-Ph4	A-Ph5	A-Ph6	A-Ph7	A-Ph8	A-Ph9	A-Ph10	A-Ph11	A-Ph12	A-Ph13	A-Ph14	A-Ph15	A-Ph16	B-AC1	B-AC2	B-AC3	B-AC4	B-AC5	B-AC6	B-AC7	B-AC8	B-AC9	B-AC10	B-AC11	B-AC12	B-AC13	B-AC14	B-AC15	B-AC16	B-DC1	B-DC2	B-DC3	B-DC4	B-DC5	B-DC6	B-DC7	B-DC8	B-DC9	B-DC10	B-DC11	B-DC12	B-DC13	B-DC14	B-DC15	B-DC16	B-Ph1	B-Ph2	B-Ph3	B-Ph4	B-Ph5	B-Ph6	B-Ph7	B-Ph8	B-Ph9	B-Ph10	B-Ph11	B-Ph12	B-Ph13	B-Ph14	B-Ph15	B-Ph16	aux-1	digaux	

724.551	1	1	0	256	0.083374	0.12427	0.091811	0.20019	0.14133	0.27079	0.10932	0.14194	0.16055	0.081089	0.24776	0.075053	0.16488	0.32079	0.069885	0.011329	-2.0146	-2.7667	-2.4354	-2.725	-2.6521	-2.2562	-2.6813	-2.5604	-2.2396	-2.7583	-2.4542	-2.6042	-2.7896	-2.3875	-2.6125	-2.6458	142.775	309.784	200.775	475.157	245.163	286.550	487.212	300.037	196.822	423.663	151.784	442.234	372.140	422.766	346.150	278.904	0.00062176	0.0012983	0.00044626	618.25	4.8699e-06	6.4312e-06	715.29	219.52	1.0539e-05	1.453e-05	285	112.1	80.029	31.967	6.9154e-06	52.442	0.010202	0.016744	0.0049383	685.13	0.00017615	0.00020068	786.07	274.59	0.00019707	0.00021116	333.82	126.18	95.126	36.975	0.00021027	59.815	170.887	249.293	343.091	153.295	390.643	253.966	151.935	158.311	235.674	241.125	156.772	160.749	162.467	166.785	403.897	164.399	-8191	255	
724.623	1	1	0	0	0.13127	0.19793	0.23032	0.25424	0.22969	0.13854	0.13769	0.20597	0.25864	0.051941	0.20934	0.14112	0.15769	0.12424	0.20092	0.29184	-1.8542	-2.7562	-2.4542	-2.3708	-2.5042	-2.6063	-2.8854	-2.5687	-2.525	-2.7771	-2.5979	-2.4271	-2.9146	-2.3146	-2.55	-2.7521	495.593	288.315	304.744	488.413	232.007	374.589	401.899	277.474	239.035	275.382	332.234	234.646	475.875	195.800	391.006	435.160	0.00072505	0.00038231	0.0003787	620.12	6.2141e-06	2.2963e-06	707.1	217.91	5.3429e-06	1.4215e-05	278.87	110.01	78.927	31.515	4.0018e-06	51.72	0.012344	0.02027	0.0058653	697.67	0.00020415	0.00023395	789.23	279.35	0.00022139	0.00023491	333.63	125.45	95.062	37.028	0.00022342	59.545	171.197	360.927	413.672	153.296	300.635	205.001	151.742	158.551	295.801	320.543	156.916	160.829	162.689	167.114	328.596	164.562	-8191	255	
724.719	1	1	0	0	0.31368	0.23481	0.25738	0.32011	0.031445	0.24462	0.047548	0.17907	0.2065	0.22892	0.30728	0.10689	0.28742	0.11014	0.13099	0.18285	-1.9042	-2.5333	-2.4271	-2.3958	-2.7667	-2.2938	-2.5729	-2.8146	-2.3354	-2.7938	-2.5792	-2.4833	-2.8	-2.5125	-2.3021	-2.8646	251.420	336.309	153.048	411.588	422.224	151.602	451.871	338.349	394.349	320.568	462.626	252.504	420.059	167.966	381.224	156.986	0.00050491	0.0010721	0.00026237	617.19	3.4432e-06	8.3785e-06	702.57	216.32	1.235e-05	1.7891e-05	278.88	109.37	78.593	31.311	7.3737e-06	51.77	0.013088	0.021362	0.0061089	697.7	0.00021203	0.00024426	788.51	278.95	0.00022882	0.00024141	333.79	125.51	95.424	37.042	0.00023417	59.532	187.694	285.762	237.292	153.124	350.889	430.518	152.042	158.793	235.827	200.279	157.312	160.941	162.846	167.271	449.244	164.598	-8191	255	
724.840	1	1	0	0	0.14116	0.19037	0.19736	0.039545	0.11965	0.14585	0.047585	0.27684	0.064549	0.154	0.092949	0.12761	0.13676	0.26809	0.16555	0.35183	-1.7938	-2.6083	-2.6854	-2.2958	-2.8354	-2.5833	-2.4083	-2.7271	-2.2229	-2.6292	-2.6333	-2.4625	-2.775	-2.5667	-2.4083	-2.7125	164.303	386.550	374.703	175.810	147.026	203.770	407.245	166.837	301.734	443.971	427.506	144.475	248.591	423.790	485.183	142.272	0.00070083	0.00060928	0.0003939	613.58	6.6592e-06	1.0547e-05	697.95	215.29	1.0136e-05	6.6642e-06	276.19	109.48	78.076	30.999	1.4534e-05	51.614	0.013748	0.022367	0.0063593	697	0.00022576	0.00025925	789.69	280.91	0.00024447	0.00025494	335.5	126.14	96.176	37.265	0.00024475	60.021	179.245	397.609	232.124	152.994	402.473	182.075	152.439	158.741	226.247	203.730	157.079	160.963	162.846	167.205	291.655	164.584	-8191	255	
724.936	1	1	0	0	0.015918	0.067572	0.15008	0.32675	0.14239	0.17326	0.27529	0.14202	0.098391	0.067211	0.079632	0.12113	0.16833	0.021805	0.21828	0.12381	-1.8188	-2.6458	-2.5021	-2.3667	-2.7479	-2.5458	-2.6	-2.7375	-2.3271	-2.475	-2.8667	-2.3167	-2.7167	-2.6292	-2.4125	-2.8667	391.920	355.107	451.720	454.815	159.947	175.735	406.052	417.195	195.813	482.135	146.230	460.890	280.755	344.054	281.523	457.536	0.00063509	0.0010142	0.00035662	613.25	5.5136e-06	5.0778e-06	704.65	211.72	1.2581e-05	7.1497e-06	276.62	109.29	78.178	31.389	9.4075e-06	51.77	0.014826	0.023819	0.0068073	708.35	0.00024389	0.00027912	800.57	286.88	0.00026602	0.00027562	340.09	128.17	97.95	38.119	0.0002666	61.117	174.363	146.172	335.266	153.257	236.734	428.744	152.309	158.463	236.881	220.632	156.976	160.914	163.305	167.349	259.307	164.681	-8191	255	
725.032	1	1	0	0	0.15383	0.23301	0.078158	0.11533	0.12143	0.080271	0.081221	0.2673	0.22853	0.1557	0.01341	0.1967	0.15311	0.15694	0.08625	0.13905	-1.9625	-2.3583	-2.5229	-2.3958	-2.5479	-2.5563	-2.4771	-2.8146	-2.3979	-2.5833	-2.8604	-2.3646	-2.7542	-2.5229	-2.2042	-2.8854	474.930	189.347	149.837	265.649	361.397	241.503	198.878	458.820	465.074	155.416	468.445	412.371	328.971	453.273	228.619	403.832	0.00060733	0.0021818	0.00021372	614.81	6.9199e-06	5.6194e-06	694.79	214.18	6.6893e-06	9.9535e-06	276.72	109.24	78.516	31.159	1.1498e-05	51.665	0.016174	0.025776	0.0073316	718.32	0.0002628	0.00030018	801.62	292.95	0.00029084	0.00029852	345.69	129.82	100.03	38.613	0.00029651	61.583	176.559	237.026	221.625	153.483	261.854	175.386	152.065	158.789	285.070	275.945	156.861	160.956	162.905	167.394	202.369	164.971	-8191	255	
725.153	1	1	0	0	0.16217	0.041412	0.18627	0.10361	0.069603	0.085112	0.16011	0.16179	0.079308	0.079517	0.16445	0.23725	0.21595	0.30452	0.08772	0.21137	-2.0042	-2.4958	-2.8271	-2.3771	-2.4458	-2.5521	-2.6229	-2.7271	-2.5729	-2.3354	-2.725	-2.275	-2.7708	-2.7729	-2.2979	-2.7125	257.743	396.288	254.958	464.540	180.543	480.809	339.842	205.241	463.460	440.281	387.375	165.442	330.683	452.557	180.278	423.369	0.00060051	0.0010437	0.00025411	613.34	5.6754e-06	6.1842e-06	687.13	213.17	8.8442e-06	1.4246e-05	275.31	107.96	78.339	31.138	5.9043e-06	50.861	0.018164	0.028589	0.008129	729.42	0.00029207	0.00033094	810.44	301.99	0.00032083	0.00032448	351.43	131.12	101.23	38.754	0.00031184	61.488	171.132	472.822	270.806	153.257	213.653	427.628	152.106	158.041	252.710	266.177	157.074	161.126	162.986	167.542	262.721	164.724	-8191	255	
725.249	1	1	0	0	0.13129	0.072166	0.040151	0.14667	0.079361	0.055376	0.010681	0.072831	0.29941	0.22751	0.048561	0.06958	0.38226	0.27543	0.27414	0.37841	-2.0083	-2.1271	-2.6167	-2.4646	-2.5979	-2.7083	-2.1937	-2.7021	-2.5167	-2.1333	-2.7438	-2.4625	-2.6167	-2.9333	-2.2208	-2.7375	257.172	157.448	472.235	466.222	318.072	453.802	482.669	489.708	217.478	198.637	466.817	229.752	156.072	464.005	259.279	477.182	0.0006743	0.0013564	0.00025574	606.65	1.1084e-05	1.9291e-05	680.84	213.67	7.6934e-06	1.0143e-05	274.15	108.5	76.809	30.797	1.4565e-05	50.675	0.018443	0.029008	0.008283	726.03	0.00029317	0.00033067	808.22	300.47	0.00031771	0.00032513	349.32	130.75	100.23	38.412	0.0003119	61.267	184.308	298.920	192.474	153.542	379.647	250.007	152.208	158.794	381.959	268.443	157.087	161.042	162.895	167.813	154.869	164.737	-8191	255	
725.321	1	1	0	0	0.203	0.40948	0.22542	0.12992	0.14018	0.16579	0.19018	0.16103	0.31406	0.17457	0.1796	0.27062	0.085403	0.32669	0.091253	0.30536	-2.3583	-2.3833	-2.7583	-2.7042	-2.4042	-2.5479	-2.5021	-2.5729	-2.675	-2.1958	-2.9417	-2.6813	-2.5062	-2.7083	-2.1354	-2.5375	157.638	355.088	168.106	395.081	238.384	202.004	214.332	227.110	266.052	421.980	247.852	482.875	451.670	398.712	458.163	381.518	0.00056544	0.0016463	0.00057046	610.38	1.362e-05	1.4684e-05	685.14	213.12	3.9731e-06	2.2809e-05	274.06	108.97	77.582	31.074	2.5617e-05	51.013	0.018155	0.028729	0.008164	725.68	0.00028589	0.00032162	808.45	298.19	0.00030609	0.00031651	347.01	130.22	99.538	38.225	0.00030031	60.946	185.886	469.061	233.653	153.365	448.309	246.719	152.285	158.101	296.822	229.127	156.699	161.138	163.151	167.499	280.066	164.618	-8191	255	
725.440	1	1	0	0	0.16805	0.10688	0.25538	0.19246	0.23877	0.16492	0.16523	0.12814	0.029126	0.34692	0.14936	0.13751	0.029201	0.079788	0.16308	0.28453	-2.1583	-2.2979	-2.5021	-2.5104	-2.4062	-2.7979	-2.5	-2.6396	-2.6604	-2.3896	-2.8875	-2.5687	-2.3187	-2.9729	-2.3896	-2.7313	316.698	417.181	201.285	497.148	385.392	497.806	422.466	223.037	413.608	421.174	493.399	465.909	409.794	349.266	388.269	438.220	0.0004294	0.0010506	0.00022589	614.26	4.1765e-06	8.5763e-06	700.11	212.27	1.0398e-05	4.5764e-06	274.21	109.92	78.664	31.146	7.1056e-06	50.873	0.017074	0.027563	0.0078031	726.01	0.00027446	0.00031027	813.16	295.76	0.00029587	0.00031111	346.52	130.09	99.488	38.283	0.00029682	60.92	180.845	452.590	184.433	153.654	392.363	208.539	152.160	158.324	362.537	268.348	156.852	161.195	163.322	167.161	282.874	164.896	-8191	255	
725.536	1	1	0	0	0.067512	0.021472	0.032842	0.15295	0.17421	0.008187	0.19535	0.14755	0.030053	0.074142	0.30076	0.15516	0.23234	0.12412	0.2057	0.091198	-2.0625	-2.2875	-2.6479	-2.6063	-2.4146	-2.7146	-2.5938	-2.4437	-2.6021	-2.3312	-2.7333	-2.5438	-2.4479	-2.9062	-2.4167	-2.6521	485.060	246.364	489.020	327.311	324.900	411.919	185.984	317.531	478.168	311.178	148.362	192.778	410.939	292.614	410.125	315.549	0.00055875	0.00023229	0.00030973	617.59	5.9723e-06	1.1078e-05	693.13	213.18	4.8846e-06	1.6978e-05	273.72	108.26	77.697	30.644	1.8973e-05	50.178	0.01691	0.02748	0.0076882	723.37	0.00027085	0.00030486	806.92	293.02	0.00028944	0.00030432	342.62	128.43	98.341	37.636	0.00028989	59.749	173.657	255.530	272.870	153.302	168.333	338.504	152.386	158.620	170.923	318.715	156.585	161.128	162.749	167.095	330.976	164.889	-8191	255	
725.632	1	1	0	0	0.14171	0.17442	0.1494	0.19315	0.12657	0.2473	0.13133	0.16648	0.13838	0.20551	0.27265	0.097463	0.19058	0.12357	0.062113	0.21311	-2.3875	-2.1979	-2.5125	-2.7438	-2.3438	-2.7646	-2.6708	-2.375	-2.7062	-2.4062	-2.7	-2.6937	-2.3583	-2.6667	-2.5042	-2.5083	249.601	182.069	223.134	431.849	145.029	472.462	236.996	341.731	164.901	474.535	428.272	157.863	172.156	462.778	496.011	378.242	0.0006878	8.1149e-05	0.00040311	605.74	1.6507e-05	8.4397e-06	685.94	210.69	8.6333e-06	1.2068e-05	271.59	106.79	76.839	30.511	3.3081e-06	50.032	0.016459	0.026981	0.0074686	709.37	0.00026148	0.00029271	795.89	287.22	0.00027687	0.00029389	338.02	126.84	97.383	37.445	0.00028753	59.773	184.184	477.195	369.766	153.435	332.474	267.327	151.973	158.681	419.293	252.401	157.011	161.314	162.838	167.535	177.887	164.576	-8191	255	
725.752	1	1	0	0	0.15331	0.16994	0.056843	0.10561	0.13302	0.077745	0.066903	0.086019	0.078154	0.039595	0.065133	0.032834	0.21146	0.2718	0.14846	0.10599	-2.3604	-2.3083	-2.4896	-2.8229	-2.3292	-2.6354	-2.5979	-2.2687	-2.8667	-2.3896	-2.5458	-2.7167	-2.45	-2.75	-2.4625	-2.3979	151.721	477.214	265.556	465.410	240.393	406.075	438.659	143.917	423.365	280.579	200.771	382.042	453.082	145.488	156.425	365.766	0.0005792	0.0016364	0.00058918	599.4	5.9071e-06	4.2099e-06	683.02	208.64	1.4383e-05	5.0731e-06	272.1	107.61	77.002	30.363	9.6409e-06	50.45	0.016534	0.027377	0.0074719	704.58	0.00026739	0.00029784	792.8	287.26	0.00028114	0.00029973	338.8	127.28	97.558	37.305	0.00028375	59.821	174.357	190.515	327.204	153.321	262.024	355.952	152.323	158.605	395.207	310.822	157.093	161.149	163.007	167.560	225.899	164.522	-8191	255	
725.849	1	1	0	0	0.23274	0.20692	0.16508	0.011937	0.26432	0.038743	0.21234	0.062606	0.10896	0.16054	0.32127	0.089278	0.049941	0.14488	0.16786	0.13262	-2.4021	-2.4375	-2.5521	-2.7521	-2.3125	-2.6562	-2.7875	-2.4083	-2.6875	-2.525	-2.5312	-2.9104	-2.3417	-2.4854	-2.6208	-2.3625	335.007	273.312	364.023	218.826	439.137	353.765	447.505	169.133	362.978	186.273	162.587	214.617	291.201	475.073	162.401	315.351	0.00067549	0.0005568	0.00020628	597.39	6.0234e-06	6.2067e-06	685.81	210.01	8.2219e-06	1.5923e-05	272.33	108.05	76.671	30.526	6.7632e-06	50.855	0.016327	0.027041	0.0073838	701.99	0.00026712	0.00029626	795.92	289.14	0.00028463	0.00030465	340.62	128.08	98.273	37.587	0.00028496	60.59	188.281	312.099	298.042	153.704	236.273	270.565	151.864	158.589	204.951	462.999	157.165	161.366	163.187	167.479	335.226	164.847	-8191	255	
725.920	1	1	0	0	0.34802	0.19556	0.19668	0.035131	0.22209	0.031998	0.17108	0.34369	0.29543	0.067823	0.11726	0.091122	0.20843	0.42376	0.026009	0.23526	-2.3792	-2.3063	-2.2542	-2.7562	-2.175	-2.325	-2.7417	-2.2521	-2.6458	-2.4562	-2.2271	-2.7687	-2.3104	-2.4271	-2.575	-2.2354	340.529	474.989	197.482	378.552	443.844	455.275	455.006	435.816	309.630	296.741	274.970	431.700	468.858	444.380	371.728	431.397	0.00070779	0.0015702	0.00042747	605.03	3.082e-06	7.1458e-06	692.13	214.11	1.1524e-06	1.1807e-05	275.45	108.64	77.815	31.189	1.1282e-05	50.876	0.016813	0.027777	0.0076499	716.03	0.00028309	0.00031102	807.05	297.03	0.0002988	0.00031698	345.9	129.53	100.14	38.361	0.00029534	61.329	176.498	268.572	218.888	153.251	162.395	267.277	151.896	158.851	257.107	249.469	156.942	161.484	162.818	167.265	324.778	164.375	-8191	255	
726.016	1	1	0	0	0.096629	0.13413	0.19823	0.048134	0.23193	0.16969	0.11936	0.16372	0.12716	0.27834	0.070031	0.072465	0.2589	0.34814	0.30297	0.16873	-2.1396	-2.6312	-2.2396	-2.7167	-2.4437	-2.5187	-2.7646	-2.1583	-2.6729	-2.4208	-2.2062	-2.8396	-2.4271	-2.3792	-2.6604	-2.2396	378.856	234.247	411.814	279.479	482.602	419.801	373.473	221.945	334.893	412.600	363.851	280.880	439.867	221.048	335.280	228.063	0.00054702	0.0011994	0.00022013	615.36	1.052e-05	1.5045e-05	691.02	214.63	1.3261e-05	2.5459e-05	271.9	107.56	77.716	31.17	1.1492e-05	50.428	0.017417	0.028411	0.007895	729.95	0.00028895	0.00031217	808.77	298.99	0.0002938	0.00030989	341.51	128.18	99.16	38.063	0.00028248	60.375	171.125	184.170	184.542	153.359	227.378	258.848	151.960	158.142	298.015	498.663	156.946	161.034	162.914	166.984	295.248	164.293	-8191	255	
726.113	1	1	0	0	0.24479	0.162	0.070808	0.15347	0.097125	0.050578	0.40961	0.097832	0.1441	0.086956	0.15016	0.087816	0.023376	0.088567	0.084644	0.051746	-2.375	-2.4646	-2.1583	-2.7188	-2.5479	-2.2938	-2.8854	-2.2958	-2.5125	-2.7833	-2.4271	-2.7792	-2.4688	-2.3708	-2.8	-2.4854	153.633	351.826	141.760	243.899	399.325	420.237	305.903	260.084	154.484	205.168	335.170	214.091	391.571	487.515	255.710	399.286	0.0006146	0.00083149	0.00015478	613.83	2.0506e-06	4.5365e-06	689.02	213.49	9.1276e-06	9.4451e-06	273.19	107.91	77.169	31.336	3.5429e-06	50.92	0.016406	0.026772	0.0074458	720.8	0.00027091	0.00029253	797.99	292.98	0.00027782	0.0002924	339.38	127.22	98.115	37.886	0.00027458	60.322	166.370	203.121	154.444	153.177	325.011	147.334	151.831	158.692	270.099	263.929	156.552	161.379	163.001	167.605	208.967	164.460	-8191	255	
726.231	1	1	0	0	0.18639	0.11314	0.086405	0.12059	0.11462	0.051465	0.041853	0.20908	0.19953	0.033308	0.30526	0.060125	0.10937	0.17177	0.18734	0.038757	-2.0229	-2.7792	-2.1958	-2.7208	-2.4729	-2.4	-2.8271	-2.5771	-2.6188	-2.8479	-2.4146	-2.7292	-2.7396	-2.3583	-2.8604	-2.5333	191.229	465.085	212.237	441.623	202.667	209.495	442.604	392.249	439.699	160.586	435.638	147.578	411.300	415.026	397.588	460.349	0.00056622	0.00072227	9.8231e-05	609.93	1.0193e-05	7.6711e-06	692.8	211.9	9.8018e-06	3.4035e-06	274.55	108.77	78.219	31.37	7.2205e-06	51.204	0.015668	0.025538	0.0071922	709.59	0.00025654	0.00027761	792.62	287.99	0.00025901	0.00027402	336.91	126.76	96.884	37.553	0.00025466	60.096	167.904	193.186	170.982	153.319	250.528	339.273	152.373	157.898	273.065	381.083	156.768	160.908	162.837	167.172	352.651	164.288	-8191	255	
726.328	1	1	0	0	0.16514	0.21832	0.22371	0.19024	0.11621	0.066152	0.10598	0.27962	0.072714	0.23999	0.31406	0.18855	0.23399	0.19049	0.31251	0.23641	-2.0208	-2.6917	-2.3417	-2.6604	-2.5167	-2.1917	-2.8146	-2.5	-2.3937	-2.8958	-2.5	-2.7313	-2.7625	-2.325	-2.7854	-2.5583	256.708	213.807	144.069	352.134	235.158	480.144	150.078	281.247	486.674	456.718	483.532	166.285	213.392	447.647	420.394	432.484	0.00066342	0.00081459	0.00026621	608.61	7.4102e-06	4.9832e-06	696.61	213.74	7.7371e-06	5.1782e-06	274.13	109.27	78.08	31.37	1.037e-05	51.834	0.014641	0.023951	0.0068103	701.97	0.00024004	0.00026459	789.96	284.91	0.00025048	0.00026845	337.06	126.88	96.766	37.625	0.00025578	60.434	184.995	230.695	301.983	153.284	289.774	353.234	152.136	158.352	269.407	327.465	156.888	161.124	162.832	167.166	229.050	164.471	-8191	255	
726.424	1	1	0	0	0.094779	0.073295	0.29656	0.18726	0.12541	0.086122	0.19542	0.13354	0.25041	0.15454	0.26775	0.13316	0.13866	0.11774	0.21943	0.048469	-1.8521	-2.6875	-2.3375	-2.5771	-2.7708	-2.3083	-2.8333	-2.4854	-2.3187	-2.7958	-2.4042	-2.5979	-2.7417	-2.0938	-2.6292	-2.65	443.886	214.967	281.734	144.692	368.330	459.827	396.283	440.794	168.211	409.046	461.412	444.793	232.230	459.848	478.679	388.578	0.00061593	0.00052276	0.00027631	609.11	6.4984e-06	1.8372e-05	693.09	215.8	1.2098e-05	1.3722e-05	278.78	109.9	78.679	31.619	6.4995e-06	51.956	0.014582	0.02399	0.0067848	700.63	0.00023645	0.00026333	789.7	283.7	0.00024192	0.00025636	336.33	126.49	96.126	37.48	0.00023881	60.231	168.853	358.863	257.730	153.227	198.174	272.372	152.277	158.376	305.071	356.560	156.848	161.173	162.755	167.279	331.473	164.713	-8191	255	
726.520	1	1	0	0	0.12341	0.10126	0.21014	0.16005	0.19062	0.04159	0.094185	0.097362	0.13651	0.086327	0.32442	0.26258	0.16261	0.19396	0.075611	0.19699	-1.8312	-2.8146	-2.3854	-2.4708	-2.4708	-2.4792	-2.7917	-2.5563	-2.3917	-2.7021	-2.4042	-2.4604	-2.9104	-2.5333	-2.6188	-2.8979	179.912	247.441	449.371	437.882	273.596	328.624	156.877	325.815	254.632	171.053	370.967	302.588	309.513	236.901	191.120	401.104	0.00051445	0.0014462	0.00017324	609.46	4.877e-06	1.1967e-05	694.1	214.32	7.193e-06	1.9388e-05	276.69	109.96	78.405	31.571	1.5571e-06	51.708	0.01392	0.022839	0.0065104	697.7	0.00022696	0.00025633	784.87	281.06	0.00023519	0.0002495	333.73	125.38	95.339	37.271	0.00022694	59.387	175.493	407.406	327.214	153.346	368.793	253.621	152.071	158.348	323.638	247.677	156.894	160.922	162.680	166.952	400.167	164.611	-8191	255	
726.616	1	1	0	0	0.379	0.084984	0.22458	0.23673	0.066628	0.17913	0.32502	0.0797	0.20085	0.041676	0.054309	0.16731	0.23525	0.25035	0.12661	0.13919	-2.0958	-2.5271	-2.5021	-2.4583	-2.6625	-2.3063	-2.8021	-2.6521	-2.2083	-2.8104	-2.5292	-2.3042	-2.7812	-2.4854	-2.525	-2.8625	434.361	239.014	245.720	494.346	247.383	227.420	414.191	179.549	206.583	277.944	164.443	465.893	444.219	455.933	217.850	468.637	0.00077078	0.00043156	0.00033382	608.96	8.8487e-06	1.3679e-05	696.34	215.72	1.4546e-05	6.9491e-06	279.93	110.15	79.357	31.899	5.0673e-06	52.21	0.013247	0.021323	0.0060458	688.75	0.00021157	0.00023592	777.22	276.2	0.00021731	0.00022444	329.29	124.56	94.534	36.983	0.00020799	59.353	176.426	437.113	177.345	153.255	183.925	359.070	152.082	158.366	166.642	356.191	156.702	161.298	163.030	167.561	311.746	164.469	-8191	255	
726.712	1	1	0	0	0.046154	0.085283	0.083526	0.30202	0.077541	0.1233	0.20495	0.31729	0.17261	0.20159	0.19825	0.22409	0.14946	0.20447	0.10313	0.22453	-1.8813	-2.6896	-2.6521	-2.3875	-2.6417	-2.25	-2.6708	-2.5938	-2.1896	-2.4146	-2.6333	-2.5667	-2.6771	-2.4458	-2.5687	-2.8208	153.031	374.981	491.999	439.535	305.449	274.138	422.396	353.231	224.515	298.170	455.876	142.106	236.637	466.956	346.826	186.797	0.00070416	0.0010212	0.00028527	613.44	1.4153e-05	4.2874e-06	700.76	217.64	1.2143e-05	8.4168e-06	280.63	111.31	79.009	31.922	5.7573e-06	52.799	0.012343	0.019849	0.0056158	685.62	0.00019859	0.00022503	776.75	274.74	0.00021124	0.00021889	330.25	125.1	94.594	37.125	0.00020439	59.814	184.173	188.711	434.763	153.277	258.517	227.453	152.162	158.980	227.446	352.681	156.820	160.688	163.084	167.509	188.190	164.668	-8191	255	
726.833	1	1	0	0	0.37942	0.10929	0.15388	0.0060865	0.099941	0.13261	0.15971	0.24792	0.10326	0.094443	0.044921	0.23064	0.32262	0.11507	0.17671	0.35123	-1.9021	-2.6188	-2.6167	-2.3417	-2.6292	-2.2687	-2.5062	-2.6167	-2.4062	-2.3208	-2.6688	-2.3521	-2.8021	-2.6271	-2.3583	-2.9979	370.664	395.680	393.997	169.734	491.646	440.194	442.102	445.365	233.374	251.504	269.766	157.465	468.316	291.039	405.172	423.689	0.00069976	0.0004915	0.00051765	614.53	8.0415e-06	1.3465e-05	704.52	218.96	2.3726e-06	4.01e-06	283.75	112.42	80.046	32.466	5.0618e-06	53.435	0.012281	0.019558	0.0055451	686.13	0.00019536	0.00022044	779.37	275.26	0.00020947	0.00021685	332.33	126.63	95.101	37.465	0.00020291	60.425	179.732	274.551	164.010	153.503	219.849	337.156	152.173	158.802	354.084	172.506	157.092	161.121	162.827	167.154	279.506	164.708	-8191	255	
726.929	1	1	0	0	0.067404	0.15163	0.092732	0.27858	0.071602	0.21071	0.12011	0.20912	0.16039	0.10606	0.06193	0.10145	0.075823	0.11348	0.077444	0.12952	-1.7687	-2.5667	-2.5521	-2.2292	-2.5167	-2.4583	-2.3375	-2.6667	-2.4646	-2.375	-2.4938	-2.4625	-2.6167	-2.5667	-2.2104	-2.9042	225.276	437.609	479.467	427.995	271.674	490.011	209.480	490.834	477.543	186.234	486.121	368.146	464.276	295.675	364.755	439.245	0.00056106	0.00086777	0.0002336	613.28	3.9852e-06	8.0256e-06	708.58	219.35	4.9483e-07	1.002e-05	284.81	113.81	80.637	32.617	9.336e-06	53.866	0.01217	0.018975	0.0053803	685.94	0.00018791	0.00021019	781.03	273.63	0.0001994	0.00020316	331.68	126.98	94.687	37.299	0.0001929	60.306	170.701	233.568	392.896	153.314	306.837	304.353	152.356	158.063	234.671	186.087	157.422	161.063	163.076	167.228	319.459	164.526	-8191	255	
727.025	1	1	0	0	0.15242	0.09472	0.20957	0.18114	0.11694	0.25168	0.21079	0.16315	0.15376	0.43578	0.19082	0.21531	0.11106	0.38502	0.21825	0.29344	-1.9813	-2.4042	-2.5438	-2.2896	-2.65	-2.475	-2.4896	-2.6729	-2.5917	-2.5062	-2.8104	-2.4708	-2.7188	-2.7	-2.3688	-2.7042	248.914	200.941	240.873	142.391	217.980	430.329	427.026	148.502	151.518	236.274	461.188	451.054	337.892	476.249	159.955	480.886	0.00071777	0.00036393	8.985e-05	614.33	3.7372e-06	1.4915e-06	706.36	219.37	5.5916e-06	7.1303e-06	283.5	112.79	80.582	32.333	1.4028e-05	53.242	0.011603	0.01802	0.0051275	680.99	0.00017711	0.00019911	774.7	269.88	0.00018989	0.00019261	328.19	125.98	94.138	37.121	0.00019714	60.014	176.268	204.804	211.693	153.496	300.504	378.573	152.222	158.562	262.470	341.192	157.144	160.927	162.819	167.243	215.428	164.410	-8191	255	
727.121	1	1	0	0	0.17962	0.12879	0.22439	0.048566	0.23059	0.072427	0.14726	0.21137	0.059948	0.072645	0.25366	0.19818	0.1563	0.33875	0.19524	0.3223	-1.9937	-2.4292	-2.6958	-2.3125	-2.6458	-2.825	-2.4542	-2.6125	-2.6063	-2.3583	-2.9042	-2.5417	-2.3542	-2.7396	-2.3625	-2.8542	400.452	208.436	404.032	360.187	261.888	363.911	415.979	416.940	246.497	302.320	470.410	433.040	497.285	160.345	331.088	358.014	0.00068094	0.00050665	9.0336e-05	612.79	8.9531e-06	1.0057e-05	702.18	218.53	7.8686e-06	1.2605e-05	283.16	112.48	80.342	32.344	1.0896e-05	53.422	0.012048	0.019053	0.005499	688.38	0.00019555	0.00022424	782.2	277.59	0.00021713	0.00022418	334.04	127.64	96.222	37.781	0.00022457	60.905	174.434	161.293	493.023	153.386	331.749	189.323	152.050	158.725	237.204	341.714	156.934	160.940	162.804	167.405	191.036	164.526	-8191	255	
727.216	1	1	0	0	0.076639	0.092034	0.089568	0.29318	0.30995	0.21731	0.1153	0.20225	0.24818	0.19626	0.16482	0.24862	0.237	0.10049	0.14445	0.16849	-2.1854	-2.3208	-2.6437	-2.3958	-2.5875	-2.6937	-2.4229	-2.7812	-2.5208	-2.5583	-2.7687	-2.5208	-2.5062	-2.7917	-2.4229	-2.7479	244.079	198.563	424.805	418.232	284.208	383.477	421.664	343.276	431.512	285.784	392.021	408.883	191.242	418.311	413.406	175.337	0.00068368	0.00048825	0.0002677	619.47	4.0837e-06	6.7901e-06	703.94	218.92	2.2218e-05	1.8072e-05	284.56	112.21	80.004	32.659	1.1442e-05	53.803	0.013288	0.021069	0.0060703	700.22	0.00021127	0.00023789	791.22	280.69	0.00022518	0.00023449	336.77	127.93	96.181	37.936	0.00021945	60.84	164.766	201.004	278.220	153.286	492.078	334.202	152.156	158.557	391.761	442.880	156.965	161.252	162.673	167.392	298.734	164.637	-8191	255	
727.312	1	1	0	0	0.17617	0.0057952	0.23785	0.2478	0.036765	0.20262	0.13913	0.11982	0.030203	0.29465	0.19674	0.098588	0.1101	0.10232	0.074125	0.2702	-2.2604	-2.3458	-2.6833	-2.4125	-2.4021	-2.7479	-2.3812	-2.7875	-2.6937	-2.4646	-2.6562	-2.6271	-2.5438	-3.1375	-2.4458	-2.5104	494.095	382.939	195.397	479.787	167.018	292.608	385.606	202.709	298.391	195.833	441.125	457.490	465.726	443.205	385.165	440.283	0.00071717	0.0006166	6.4369e-05	617.59	8.4141e-06	2.0648e-05	709.05	219.33	1.1754e-05	1.1874e-05	285.44	113.77	81.281	32.521	1.2159e-05	53.884	0.012741	0.020346	0.0057245	697.88	0.000199	0.00022704	789.44	278.31	0.00021577	0.00022513	336.39	128.24	96.145	37.822	0.00021383	61.038	177.103	231.172	210.147	153.076	237.733	319.995	151.981	158.528	247.590	238.346	156.963	160.975	163.042	167.493	320.084	164.367	-8191	255	
727.432	1	1	0	0	0.065247	0.15115	0.24758	0.071191	0.089399	0.081997	0.16261	0.12605	0.31485	0.10852	0.045618	0.41619	0.23754	0.092749	0.19953	0.023322	-2.2042	-2.2417	-2.6771	-2.6125	-2.2458	-2.7667	-2.6312	-2.6063	-2.8083	-2.4667	-2.7438	-2.6917	-2.5021	-2.8354	-2.1458	-2.6458	264.061	281.680	228.094	181.204	230.371	461.984	392.845	180.344	167.768	160.933	287.345	382.599	489.636	219.847	498.234	399.127	0.00060645	0.00049339	0.00030264	617.15	7.7126e-06	4.0071e-06	710.84	220.36	9.0846e-06	5.4328e-06	283.98	113.22	80.749	32.243	8.1528e-06	53.39	0.012623	0.020355	0.0056806	696.43	0.00020156	0.00023057	793.28	278.74	0.00021476	0.00022523	335.65	127.78	95.574	37.378	0.0002083	60.34	189.669	410.569	228.193	153.209	194.138	291.707	152.003	158.517	354.603	258.012	157.128	160.895	162.973	166.936	263.025	164.886	-8191	255	
727.529	1	1	0	0	0.23575	0.09668	0.12756	0.20679	0.27672	0.15566	0.146	0.22377	0.10227	0.080642	0.15975	0.099075	0.21555	0.16374	0.31206	0.33297	-2.1958	-2.3354	-2.6042	-2.4958	-2.4208	-2.7208	-2.5812	-2.2812	-2.8521	-2.4062	-2.6792	-2.4313	-2.275	-2.7708	-2.4125	-2.425	390.032	326.637	414.035	464.192	465.428	499.841	376.287	476.267	318.877	441.442	462.032	432.445	388.054	421.356	294.761	431.051	0.00060396	0.00086857	0.00047784	608.96	1.8407e-05	1.7188e-05	700.36	217.63	3.8038e-06	3.9284e-06	283.01	112.62	80.183	31.912	3.832e-06	52.949	0.012061	0.019382	0.0054119	682.1	0.00019155	0.00021393	777.84	272.28	0.00020234	0.00021236	329.63	126.03	94.191	36.781	0.00019878	59.451	173.069	286.806	201.234	153.372	225.124	332.505	152.074	158.296	202.075	272.587	156.735	161.056	163.033	167.404	365.290	164.988	-8191	255	
727.625	1	1	0	0	0.10595	0.1359	0.10251	0.30405	0.14938	0.13136	0.21117	0.16085	0.15578	0.14006	0.15472	0.14168	0.26843	0.19801	0.10987	0.048607	-2.4458	-2.4771	-2.5771	-2.8354	-2.2521	-2.575	-2.7146	-2.5396	-2.8146	-2.3917	-2.5854	-2.8104	-2.4917	-2.6167	-2.4313	-2.4125	396.637	324.208	165.874	374.565	479.324	395.343	390.196	201.393	193.188	398.029	487.265	402.147	478.762	419.761	440.192	208.669	0.00066248	0.00021596	8.9194e-05	602.45	4.3727e-06	9.7597e-06	698.96	218.3	3.3028e-06	1.6457e-05	282.92	111.9	79.915	31.998	5.5059e-06	52.503	0.011595	0.018907	0.0051828	675.33	0.00018786	0.00021018	773.77	271.28	0.00020314	0.00021444	329.56	126.06	94.593	36.92	0.0002104	59.789	186.591	208.449	285.178	153.367	344.485	240.928	152.161	158.473	166.161	309.967	157.183	161.129	162.938	167.394	175.244	164.720	-8191	255	
727.721	1	1	0	0	0.282	0.15587	0.022676	0.18989	0.19732	0.19445	0.23266	0.27576	0.047085	0.13643	0.13921	0.12449	0.12647	0.20828	0.14272	0.2389	-2.2229	-2.2729	-2.4333	-2.7896	-2.3292	-2.6167	-2.65	-2.5792	-2.6646	-2.6104	-2.5729	-2.8083	-2.35	-2.5812	-2.5229	-2.3417	471.627	212.629	217.517	437.337	245.603	390.626	492.961	453.836	358.302	377.390	381.638	426.013	420.589	499.790	223.129	447.095	0.0004904	0.0014857	0.00021533	603.81	1.0281e-05	8.1215e-06	698.7	215.78	4.9157e-06	1.6335e-05	282.07	112.19	79.674	31.986	1.3652e-05	53.408	0.012391	0.020126	0.0055453	680.18	0.00020141	0.00022224	778.94	274.39	0.00021216	0.00022368	331.79	126.84	95.061	37.133	0.00021303	60.403	193.111	225.644	141.575	153.682	206.134	253.461	152.083	158.324	238.901	326.453	156.879	161.000	162.940	167.563	332.212	164.859	-8191	255	
727.793	1	1	0	0	0.10566	0.11263	0.22726	0.24402	0.23349	0.16895	0.10168	0.10841	0.21942	0.1565	0.13414	0.18095	0.3449	0.053003	0.25285	0.11121	-2.2208	-2.4875	-2.5083	-2.9479	-2.4792	-2.5312	-2.6271	-2.4271	-2.8042	-2.3292	-2.3604	-2.8021	-2.3438	-2.6208	-2.5896	-2.4938	259.150	360.906	211.296	445.931	453.879	432.015	142.686	427.559	404.195	170.599	443.538	411.537	230.813	257.158	327.897	375.016	0.00060763	0.0017881	0.00023078	606.71	5.9511e-06	1.1221e-05	701.63	217.14	6.3566e-06	5.154e-06	281.56	112.05	79.493	31.88	5.5599e-06	53.07	0.012491	0.020353	0.005568	681.79	0.00020327	0.00022194	781.23	275.12	0.00021285	0.00022486	332.28	127.13	95.143	36.979	0.00021306	60.376	160.601	223.251	330.478	153.491	289.733	176.899	152.395	158.941	419.457	388.708	156.998	161.342	163.126	167.527	369.191	164.599	-8191	255	
727.913	1	1	0	0	0.21624	0.16944	0.21484	0.31663	0.22048	0.12558	0.18318	0.17811	0.08405	0.17509	0.10228	0.11703	0.057631	0.076418	0.089466	0.1985	-2.2479	-2.4542	-2.2062	-2.8438	-2.4813	-2.5312	-2.75	-2.4313	-2.5979	-2.6188	-2.3521	-2.7542	-2.5604	-2.4979	-2.5521	-2.3021	260.981	146.718	332.365	441.826	190.640	464.384	410.974	482.382	196.763	368.896	204.882	335.929	353.779	189.638	360.104	483.184	0.00058248	0.00071859	0.00018514	604.68	7.3934e-06	6.8212e-06	700.07	216.42	2.9601e-06	9.3526e-06	284.51	112.26	79.021	31.769	9.1996e-06	53.067	0.012313	0.019959	0.0054879	678.33	0.00019726	0.00021398	779.38	274.18	0.0002049	0.00021745	332.17	126.57	94.47	36.835	0.00021419	60.1	185.730	144.150	265.191	153.343	315.893	292.861	152.462	158.473	263.365	204.463	157.073	161.085	163.146	167.355	432.214	164.755	-8191	255	
728.009	1	1	0	0	0.1364	0.18886	0.14861	0.22723	0.18095	0.16808	0.14905	0.29435	0.11457	0.1422	0.093385	0.083893	0.22734	0.035579	0.18248	0.16527	-2.1625	-2.5083	-2.3417	-2.8208	-2.325	-2.4417	-2.8646	-2.1562	-2.6792	-2.5542	-2.3833	-2.8167	-2.7062	-2.6167	-2.8563	-2.5604	287.398	360.932	188.730	487.833	241.631	216.291	159.856	483.405	145.654	243.592	187.452	183.770	496.662	338.711	219.493	496.951	0.00075743	0.001724	0.00023954	599.88	8.0152e-06	8.891e-06	692.72	216.36	8.6923e-06	1.5229e-05	279.47	110.62	78.278	31.691	6.1279e-06	52.107	0.012632	0.020849	0.0058529	681.35	0.00021442	0.00023574	779.39	278.85	0.00022877	0.00024459	334.47	126.67	96.093	37.307	0.00024404	60.44	176.112	249.801	458.936	153.504	240.348	444.781	152.503	158.387	249.825	269.667	157.204	161.156	163.027	167.486	202.592	164.851	-8191	255	
728.106	1	1	0	0	0.078656	0.1849	0.34264	0.34339	0.139	0.17744	0.27583	0.22063	0.332	0.076599	0.064272	0.52085	0.13276	0.20009	0.26131	0.09603	-2.1937	-2.575	-2.1521	-2.7979	-2.425	-2.3125	-2.8708	-2.3542	-2.4313	-2.6354	-2.3688	-2.8229	-2.4562	-2.5042	-2.7083	-2.6354	239.299	190.690	456.035	198.401	182.738	184.094	410.058	469.884	191.374	421.249	328.244	452.811	377.283	380.046	400.243	183.602	0.00065378	0.00010429	0.00034969	601.36	1.2151e-05	1.5925e-05	693.14	212.88	1.268e-05	2.7795e-06	276.03	109.41	78.293	31.597	7.6066e-06	51.878	0.014097	0.023517	0.0066947	695.08	0.00024526	0.0002748	795	291.22	0.00027653	0.00030195	347.66	130.45	100.83	38.94	0.00031264	62.737	185.181	193.143	289.246	153.084	274.102	191.947	152.267	158.774	282.150	418.332	156.822	161.111	163.165	166.983	233.554	164.411	-8191	255	
728.202	1	1	0	0	0.20842	0.2778	0.10792	0.36123	0.17576	0.074816	0.26071	0.22529	0.11955	0.072869	0.27039	0.1879	0.17428	0.26183	0.020084	0.11526	-1.9438	-2.7271	-2.2479	-2.6937	-2.5438	-2.3042	-2.9229	-2.4604	-2.55	-2.7604	-2.2854	-2.7792	-2.5146	-2.3458	-2.7333	-2.6083	243.798	341.779	355.267	411.341	345.744	403.294	465.872	152.246	164.099	374.991	481.148	174.635	255.469	180.012	477.634	438.061	0.00074867	0.00085057	0.00013063	596.77	1.0614e-05	1.6556e-05	678.02	212.08	9.3227e-06	2.9443e-06	274.69	108.89	77.857	31.33	1.8356e-05	51.997	0.018372	0.030917	0.0087472	722.67	0.00031947	0.00035912	816.32	312.56	0.0003499	0.00037696	363	134.56	105.31	40.457	0.00037158	64.801	183.340	219.566	185.867	153.067	309.085	278.504	152.053	158.257	192.424	322.544	156.985	161.015	163.039	167.223	226.151	164.455	-8191	255	
728.321	1	1	0	0	0.062527	0.10886	0.29842	0.12942	0.15008	0.2519	0.033097	0.15601	0.042115	0.24277	0.41434	0.15803	0.19842	0.21636	0.38045	0.33577	-1.8937	-2.6771	-2.4042	-2.725	-2.725	-2.2958	-2.8167	-2.7021	-2.525	-2.7771	-2.4229	-2.6729	-2.6354	-2.1896	-2.5604	-2.5729	309.377	485.654	466.425	444.283	167.601	233.728	420.757	308.122	143.608	283.933	429.405	274.128	445.916	219.993	391.962	409.248	0.00074311	0.0014894	0.00025951	589.63	7.5942e-06	8.7099e-06	672.21	211.71	1.3156e-05	1.0046e-05	273.3	108.94	77.416	31.301	1.072e-05	51.852	0.021617	0.036145	0.010249	734.26	0.00036498	0.0004091	828.51	322.99	0.00039219	0.00042024	372.1	137	107.74	41.269	0.0004031	65.852	156.292	213.472	143.429	153.303	442.647	423.609	152.210	158.277	232.904	375.683	156.857	160.963	162.969	167.028	347.392	164.290	-8191	255	
728.417	1	1	0	0	0.27345	0.31426	0.18701	0.028022	0.033374	0.098204	0.30588	0.104	0.11003	0.20478	0.13985	0.069131	0.14873	0.17994	0.34672	0.28069	-1.9958	-2.7292	-2.1917	-2.4854	-2.7583	-2.3104	-2.7708	-2.7375	-2.3688	-2.7875	-2.5042	-2.625	-2.775	-2.4542	-2.7146	-2.3792	456.569	289.007	424.763	176.162	463.559	206.343	396.928	153.512	297.431	212.397	388.933	267.726	324.714	430.405	422.681	458.159	0.00067481	0.0013027	0.00027598	583.45	1.1604e-05	1.2327e-05	670.19	210.73	6.1096e-06	1.9176e-05	272.55	108.83	77.33	31.411	3.3356e-06	51.565	0.023236	0.038451	0.010833	739.78	0.00038413	0.00043186	832.64	327.4	0.00040806	0.00043162	373	137.38	107.89	41.373	0.00040327	65.701	157.595	314.357	448.766	153.304	221.003	162.871	152.133	157.982	197.142	278.048	157.029	160.897	162.947	166.961	311.385	164.553	-8191	255	
728.513	1	1	0	0	0.10527	0.096839	0.10577	0.2359	0.12437	0.14452	0.023802	0.096126	0.26369	0.28568	0.082425	0.069446	0.056113	0.11833	0.096796	0.18155	-2.0854	-2.7125	-2.4917	-2.4625	-2.6958	-2.425	-2.775	-2.5458	-2.2062	-2.8187	-2.6417	-2.5875	-2.9354	-2.5438	-2.6146	-2.6813	282.825	264.599	443.029	398.786	177.126	418.917	450.311	383.771	202.706	159.436	274.535	264.447	357.042	451.834	327.361	287.514	0.00055079	0.00012243	0.00031228	584.72	1.2721e-05	5.3487e-06	668.36	210.53	1.4238e-05	1.7917e-05	269.98	107.99	77.372	31.394	8.6968e-06	51.643	0.023717	0.038556	0.010971	739.48	0.00039143	0.00043674	829.8	327.27	0.00041536	0.00043369	372.41	137.04	108.04	41.524	0.00040633	65.726	171.490	202.533	228.069	153.331	234.875	233.616	152.166	158.604	255.659	302.416	157.262	161.076	162.646	167.037	226.270	164.525	-8191	255	
728.609	1	1	0	0	0.31181	0.14261	0.081864	0.18578	0.055384	0.36645	0.24693	0.024089	0.19813	0.16462	0.11465	0.098649	0.18769	0.20219	0.039382	0.27721	-1.9021	-2.7708	-2.4813	-2.425	-2.8063	-2.5229	-2.5792	-2.8979	-2.3146	-2.7292	-2.5438	-2.3937	-2.7833	-2.3604	-2.5208	-2.7625	433.141	205.416	205.096	243.817	348.554	334.665	442.934	148.164	395.237	149.381	429.002	390.766	311.050	359.797	482.307	379.901	0.0005063	0.0024851	0.00038841	586.07	1.0169e-05	4.8666e-06	663.4	209.01	4.367e-06	1.7194e-05	272.76	108.81	77.213	31.532	3.3179e-06	51.909	0.023922	0.038857	0.011025	743.18	0.00039189	0.00043962	831.8	329.06	0.00041778	0.00043569	375.85	138.33	108.67	41.803	0.00041274	66.372	165.664	314.178	269.228	153.536	310.055	344.427	152.294	159.244	284.736	188.194	157.084	160.758	162.741	167.079	453.719	164.309	-8191	255	
728.705	1	1	0	0	0.089417	0.19296	0.44734	0.17096	0.11996	0.17525	0.045002	0.16375	0.094727	0.30378	0.19256	0.12227	0.25591	0.12068	0.14888	0.095016	-1.7437	-2.7062	-2.5417	-2.2583	-2.7021	-2.4188	-2.5958	-2.6875	-2.3583	-2.7333	-2.7625	-2.2979	-2.7229	-2.4667	-2.4708	-2.7521	373.722	349.028	482.884	147.213	142.069	145.008	324.731	358.883	435.050	491.076	433.460	407.118	166.382	201.892	140.786	431.150	0.00065956	0.0013451	0.00017398	588.71	7.5485e-06	2.4595e-06	668.04	210.72	5.6383e-06	1.869e-05	275.09	108.76	77.617	31.43	2.5479e-05	52.144	0.024395	0.039229	0.011192	747.7	0.00039939	0.00044834	838.29	332.77	0.00042846	0.00044455	379.23	139.48	109.71	42.084	0.00042096	66.872	169.634	340.663	462.890	153.568	374.344	415.129	152.249	158.341	234.772	419.581	157.061	160.864	162.784	167.090	243.900	164.619	-8191	255	
728.801	1	1	0	0	0.070121	0.11875	0.081777	0.23399	0.24019	0.11891	0.18839	0.14144	0.064744	0.048426	0.16669	0.12068	0.03324	0.19828	0.086274	0.063552	-1.8083	-2.3583	-2.6271	-2.5062	-2.6208	-2.5917	-2.6562	-2.7896	-2.3438	-2.5521	-2.7438	-2.1792	-2.9313	-2.4375	-2.3792	-2.9813	155.641	248.809	330.807	488.734	224.045	367.082	436.233	170.107	434.011	358.157	405.428	409.808	410.893	449.799	230.999	311.884	0.00059614	0.0011985	0.000558	589.87	1.2213e-05	8.0161e-06	677.24	212.47	9.4548e-06	1.5335e-05	276.13	109.26	78.398	31.932	1.3696e-06	52.558	0.024587	0.039387	0.01121	750.68	0.00039305	0.00044068	841.81	331.55	0.00042038	0.0004331	379.38	139.8	109.49	42.264	0.00041716	67.235	176.490	450.834	208.109	153.224	264.814	207.987	152.255	158.210	244.571	356.838	156.559	160.788	162.847	166.796	306.465	164.326	-8191	255	
728.922	1	1	0	0	0.14303	0.039461	0.28524	0.2344	0.081322	0.11092	0.10248	0.27131	0.052937	0.12161	0.18014	0.075022	0.11636	0.083947	0.088604	0.13845	-2.0146	-2.5208	-2.5042	-2.2208	-2.5771	-2.4021	-2.4688	-2.8979	-2.2333	-2.4813	-2.8104	-2.175	-2.5771	-2.5021	-2.1125	-2.9146	420.347	490.650	385.967	451.524	457.830	232.718	434.176	374.147	361.287	344.803	358.217	157.404	432.001	498.501	449.056	318.278	0.00052594	0.00040319	0.00036492	592.92	7.7213e-06	1.6864e-05	671.87	212.38	8.0526e-06	1.3105e-05	273.81	108.86	77.793	31.895	1.7624e-06	52.124	0.024579	0.039648	0.011434	760.23	0.00040306	0.00045787	848.36	336.73	0.00043583	0.00045001	382.26	140.24	110.09	42.579	0.00043351	67.225	185.747	387.966	328.880	153.068	493.231	483.047	151.948	158.284	260.468	499.134	156.727	160.834	162.760	167.101	471.722	164.222	-8191	255	
729.018	1	1	0	0	0.12164	0.176	0.058693	0.2167	0.13748	0.14985	0.25835	0.19753	0.16382	0.10021	0.34663	0.28341	0.24447	0.05531	0.27265	0.15473	-1.9896	-2.3042	-2.6833	-2.3187	-2.7042	-2.6625	-2.425	-2.9042	-2.35	-2.5479	-3	-2.4896	-2.6125	-2.6646	-2.4333	-2.8958	142.352	266.935	322.524	363.654	234.871	186.277	371.151	425.550	159.305	327.289	310.995	482.319	223.774	449.070	212.662	465.810	0.00050351	0.00063737	0.00043867	592.33	7.5346e-06	1.5216e-05	676.78	210.77	5.6815e-06	1.6035e-05	273.54	108.12	77.507	31.756	1.4781e-06	51.79	0.025464	0.041235	0.011755	765.14	0.00041049	0.00046659	850.77	337.2	0.00044129	0.00045902	381.22	139.87	110.23	42.605	0.00043989	66.809	171.997	461.009	188.178	153.494	240.731	284.787	152.177	158.413	262.017	143.986	156.985	160.798	162.898	166.888	354.594	163.968	-8191	255	
729.090	1	1	0	0	0.096465	0.26392	0.22279	0.20184	0.14132	0.26393	0.14995	0.15365	0.10614	0.13308	0.33728	0.20206	0.063568	0.24492	0.084536	0.17457	-2.0354	-2.3625	-2.6292	-2.4354	-2.5687	-2.575	-2.4271	-2.7417	-2.5625	-2.5438	-2.8312	-2.6875	-2.5125	-2.7687	-2.3021	-2.8917	440.495	480.830	210.343	443.672	412.950	445.925	411.915	455.081	379.945	301.817	159.238	490.858	178.018	398.458	229.128	169.337	0.00075628	0.00096805	0.00015249	601.72	8.2492e-06	2.1924e-06	673.31	212.6	1.3902e-05	8.6961e-06	273.44	108.48	77.726	31.722	8.0626e-06	51.937	0.025491	0.041211	0.011716	770.84	0.00040809	0.00046709	850.34	337.07	0.0004435	0.00046263	381.55	140.01	110.39	42.648	0.00044023	66.784	183.433	308.476	166.123	153.524	204.166	454.575	152.028	158.183	271.609	287.626	156.430	161.182	162.336	167.125	237.799	163.884	-8191	255	
729.210	1	1	0	0	0.050346	0.22195	0.19947	0.16236	0.13795	0.25195	0.21547	0.25383	0.028833	0.017069	0.13007	0.36153	0.070864	0.3396	0.27938	0.13689	-2.1958	-2.4292	-2.825	-2.4313	-2.6771	-2.7938	-2.3604	-2.7125	-2.5396	-2.3854	-2.9396	-2.3812	-2.5771	-2.7729	-2.3667	-2.7167	283.877	337.847	314.127	453.143	300.887	265.693	385.247	430.774	294.669	252.692	416.810	445.309	183.637	140.946	189.946	414.432	0.00076618	0.000767	0.00032802	605.73	1.5623e-05	2.6819e-05	682.26	212.56	3.4043e-06	3.1116e-06	274	109.24	78.198	31.712	8.5628e-06	51.88	0.02555	0.041223	0.011599	773.36	0.0004074	0.00046329	854.86	335.8	0.00044043	0.00046091	381.6	140.14	110.18	42.363	0.00042827	66.412	159.222	298.686	233.138	153.195	226.301	261.053	152.040	158.110	382.544	482.920	156.644	160.855	162.439	167.011	445.294	164.730	-8191	255	
729.305	1	1	0	0	0.041716	0.29365	0.20107	0.26724	0.10239	0.25475	0.24053	0.057269	0.077201	0.18638	0.11715	0.079517	0.057685	0.18351	0.13467	0.36179	-2.1542	-2.1979	-2.725	-2.4229	-2.4167	-2.7313	-2.3438	-2.5833	-2.5438	-2.2375	-2.9375	-2.5229	-2.2104	-2.8708	-2.3521	-2.5521	412.051	452.001	272.222	367.858	424.450	198.834	343.847	449.486	444.611	354.045	403.638	287.239	159.223	472.559	280.645	453.158	0.00074282	0.001018	0.0002478	613.2	6.2986e-06	1.4479e-05	690.03	215.58	5.3782e-06	1.7883e-05	278.05	110.13	78.755	31.999	6.1022e-06	52.139	0.024475	0.03924	0.010868	769.26	0.00037664	0.00042364	851.34	326.14	0.00039174	0.00040588	370.44	137.07	106.77	41.153	0.00037084	64.812	166.197	387.788	494.580	153.130	310.864	348.428	152.339	158.640	224.687	406.306	156.832	161.011	162.944	167.061	335.684	164.533	-8191	255	
729.401	1	1	0	0	0.11433	0.088057	0.13138	0.16674	0.27638	0.14682	0.20477	0.078962	0.11965	0.13752	0.20391	0.2397	0.18429	0.13491	0.32232	0.093864	-2.35	-2.3979	-2.4479	-2.4979	-2.3229	-2.7	-2.4479	-2.6708	-2.8354	-2.5812	-2.7875	-2.6458	-2.2833	-2.7271	-2.6125	-2.4437	340.438	472.278	337.280	203.150	382.779	155.240	463.445	495.144	325.203	244.051	426.075	442.623	394.640	358.313	376.989	177.865	0.00057397	0.0017576	0.00048069	623.32	6.068e-06	8.4528e-06	703.11	216.54	1.3091e-05	1.7925e-05	278.75	109.73	78.737	32.058	2.1975e-05	51.912	0.021441	0.034599	0.0094625	762.2	0.00033986	0.00037913	844.57	317.31	0.00036512	0.00037808	365.08	135.33	105.73	40.861	0.00036277	64.159	178.631	202.718	285.467	153.222	322.973	263.925	152.051	157.755	303.318	197.930	156.853	161.038	162.356	166.749	292.832	164.403	-8191	255	
729.497	1	1	0	0	0.15236	0.13394	0.17189	0.15502	0.1732	0.21224	0.29859	0.024887	0.13434	0.24177	0.19587	0.20657	0.21655	0.12138	0.080112	0.24607	-2.0938	-2.3083	-2.5958	-2.7354	-2.3229	-2.7021	-2.6146	-2.3479	-2.8104	-2.2875	-2.7375	-2.6292	-2.3729	-2.5542	-2.2958	-2.4771	454.733	253.553	346.675	208.765	463.124	450.634	463.350	492.385	248.437	338.279	376.986	422.892	195.891	450.126	299.659	424.600	0.00057696	0.0011461	0.00019739	628.85	1.3022e-05	1.1964e-05	706.21	218.19	8.9853e-06	1.7905e-05	275.69	109.13	78.61	31.95	7.8254e-06	51.805	0.021316	0.03432	0.0094007	765.88	0.00033775	0.00037491	844.25	317.54	0.0003557	0.00037072	361.19	134.09	104.56	40.388	0.00034722	63.558	181.794	208.202	418.116	153.153	218.065	142.279	152.035	158.165	250.251	301.579	156.932	161.048	162.772	166.720	424.691	164.473	-8191	255	
729.618	1	1	0	0	0.17108	0.16716	0.075937	0.32797	0.16683	0.17176	0.1093	0.20635	0.031543	0.082004	0.23404	0.17533	0.21993	0.07358	0.090948	0.10517	-2.3458	-2.1542	-2.5812	-2.6479	-2.275	-2.5396	-2.4938	-2.2333	-2.7771	-2.4042	-2.4896	-2.7792	-2.275	-2.5083	-2.5708	-2.375	239.664	221.310	433.742	431.564	197.228	458.615	432.128	361.741	422.942	324.310	453.960	406.360	440.816	309.273	420.380	456.474	0.00041466	0.0012255	0.0002842	632.04	1.074e-05	8.8551e-06	706.29	217.11	1.7032e-05	6.4704e-06	280.17	109.37	78.57	31.8	1.2627e-05	51.847	0.020161	0.032826	0.0090324	763.02	0.00032868	0.00036307	845.69	317.57	0.00035371	0.00036982	362.86	134.83	105.08	40.292	0.00035149	64.016	186.170	227.320	289.947	153.273	302.908	410.977	152.213	158.545	314.595	353.522	156.636	160.990	162.855	167.077	291.869	164.320	-8191	255	
729.714	1	1	0	0	0.09864	0.14756	0.31756	0.25379	0.18735	0.082146	0.18914	0.14898	0.20795	0.16444	0.19374	0.18097	0.3609	0.14242	0.14861	0.069881	-2.4417	-2.2771	-2.3354	-2.7938	-2.2979	-2.8312	-2.5187	-2.1417	-2.8	-2.5062	-2.3917	-2.7729	-2.3771	-2.5917	-2.6667	-2.2271	387.685	475.941	200.447	435.731	343.571	196.686	465.829	225.498	380.779	494.991	163.204	485.126	494.341	301.007	497.016	279.640	0.00065775	0.00065259	0.00043331	623.06	1.133e-05	2.682e-06	704.7	220.39	1.8332e-05	9.9109e-06	281.06	110.09	78.876	31.598	1.0168e-05	52.288	0.020112	0.032795	0.0090909	755.61	0.00032549	0.00035689	843.91	315.54	0.00034239	0.00036046	362.54	134.64	104.15	39.763	0.0003368	63.628	183.675	162.027	465.700	153.376	225.554	427.932	152.230	157.926	423.490	171.316	156.862	160.774	162.834	167.383	201.633	164.362	-8191	255	
729.786	1	1	0	0	0.09121	0.19767	0.24934	0.054146	0.077959	0.083603	0.192	0.15021	0.26404	0.13753	0.16646	0.16202	0.039921	0.31896	0.088699	0.26608	-2.2396	-2.3312	-2.2812	-2.9667	-2.3375	-2.5833	-2.8083	-2.2646	-2.6437	-2.6042	-2.425	-2.8292	-2.4688	-2.4958	-2.7542	-2.4437	244.902	244.720	140.799	341.782	353.907	426.038	478.698	491.993	141.335	401.757	186.935	483.474	330.337	452.543	342.896	441.691	0.00063051	0.0014088	0.00021354	620.46	8.3062e-06	1.2583e-05	708.56	219.07	8.5092e-06	9.9373e-06	282.58	111.04	79.324	31.645	1.6043e-05	52.179	0.019117	0.031379	0.0087315	746.3	0.00031006	0.0003414	839.12	311.7	0.00032842	0.00034962	362.35	134.6	104.32	39.763	0.00034386	64.208	188.981	167.211	240.516	153.203	430.747	390.268	151.987	158.524	205.893	174.274	156.761	160.835	162.729	167.165	242.307	164.508	-8191	255	
729.882	1	1	0	0	0.16118	0.3469	0.23825	0.28816	0.2029	0.18812	0.19121	0.1577	0.1845	0.060954	0.25253	0.22662	0.1297	0.1551	0.22034	0.16547	-2.1875	-2.5021	-2.3125	-2.7188	-2.3	-2.5146	-2.6771	-2.3604	-2.4813	-2.6437	-2.3646	-2.7875	-2.5	-2.6625	-2.6667	-2.6125	363.663	199.146	404.905	473.834	268.588	500.564	415.576	195.087	402.902	241.391	430.729	394.393	493.314	494.682	178.458	459.550	0.00075224	0.0011099	0.00035875	616.39	8.8274e-06	2.0664e-05	706.68	216.17	1.4193e-05	6.8728e-06	279.73	110.07	78.561	31.545	6.3263e-06	52.144	0.019818	0.032761	0.0092249	751.05	0.0003294	0.00036654	845.68	317.33	0.00034688	0.00037538	366.14	134.97	104.96	40.093	0.00035547	64.182	182.217	216.929	217.508	153.259	158.259	302.445	152.132	159.023	274.092	322.328	156.875	160.636	162.913	167.047	325.188	164.521	-8191	255	
730.002	1	1	0	0	0.34625	0.20992	0.12047	0.05657	0.22459	0.13202	0.18526	0.13236	0.25444	0.094865	0.077053	0.081254	0.20009	0.1267	0.11497	0.067998	-2.4208	-2.3896	-2.2542	-2.8229	-2.425	-2.4188	-2.8208	-2.3208	-2.4396	-2.8229	-2.4313	-2.8479	-2.5729	-2.6771	-2.8688	-2.6083	202.357	470.562	310.454	155.094	350.939	301.979	401.285	402.130	201.336	398.871	204.662	447.643	477.961	237.308	323.649	238.094	0.0005053	0.00010991	0.00036055	613.81	3.2178e-06	1.0508e-05	701.42	215.67	1.1714e-05	9.5916e-06	280.51	109.85	78.585	31.416	3.2284e-06	51.745	0.02033	0.033997	0.0094545	749.63	0.00033826	0.00037596	843.22	318.03	0.00035358	0.00038028	365.7	134.69	105.15	40.126	0.00035688	64	185.401	271.269	335.717	153.103	486.538	284.389	152.045	158.545	494.551	364.980	156.708	160.896	163.040	166.875	142.461	164.272	-8191	255	
730.098	1	1	0	0	0.2144	0.25526	0.17039	0.29432	0.076801	0.069224	0.10361	0.21207	0.21463	0.037394	0.24856	0.19651	0.054595	0.037919	0.19114	0.10262	-2.2604	-2.7854	-2.1771	-3.0021	-2.5875	-2.3312	-2.8604	-2.4792	-2.6208	-2.8604	-2.275	-2.7375	-2.5687	-2.5104	-2.8021	-2.4813	336.206	396.138	164.695	495.659	439.202	225.722	407.347	482.216	267.772	441.211	348.170	436.285	446.735	163.548	401.233	459.287	0.00069835	0.00050117	0.00031846	619.53	5.0007e-06	1.0065e-05	706.6	215.32	9.9724e-06	1.3134e-05	280.18	110.2	78.996	31.498	1.2868e-05	52.013	0.020345	0.033919	0.0094573	751.99	0.0003346	0.00037152	844.61	315.84	0.0003464	0.00036965	364.47	134.18	104.9	40.065	0.00034464	64.083	174.929	361.034	264.837	153.380	492.326	266.194	152.080	158.155	422.782	329.009	156.974	160.783	162.631	167.169	232.795	164.390	-8191	255	
730.195	1	1	0	0	0.079084	0.14249	0.36942	0.18615	0.094707	0.24002	0.067945	0.11278	0.32548	0.098923	0.39257	0.10319	0.14428	0.20579	0.20941	0.061085	-1.9354	-2.8729	-2.4125	-2.6729	-2.6354	-2.5208	-2.7271	-2.5479	-2.5167	-2.7458	-2.2938	-2.6771	-2.4979	-2.5604	-2.7271	-2.4521	164.943	438.088	388.501	470.633	486.331	446.734	446.987	495.284	142.243	381.540	455.997	409.332	338.312	489.771	179.709	397.479	0.00064035	0.0016017	0.00018269	620.56	3.3996e-06	1.147e-05	702.95	217.41	1.0849e-05	9.0618e-06	279.92	110.64	79.43	31.593	1.1755e-05	52.242	0.020094	0.033523	0.0094555	752.12	0.00034251	0.0003813	846.34	320.2	0.00036113	0.00038467	368.81	135.65	106.13	40.364	0.0003578	64.627	186.998	179.471	216.962	153.391	491.128	266.545	152.103	158.320	491.814	378.617	157.010	161.221	163.006	167.069	390.597	164.564	-8191	255	
730.313	1	1	0	0	0.21287	0.059992	0.236	0.083808	0.11658	0.24631	0.3589	0.24182	0.15564	0.072283	0.24373	0.25363	0.071162	0.094621	0.16271	0.3837	-1.9146	-2.675	-2.2167	-2.5146	-2.6021	-2.3375	-2.75	-2.4729	-2.3604	-2.7521	-2.3729	-2.5833	-2.5146	-2.3625	-2.7188	-2.5333	222.007	306.862	343.684	476.542	294.132	487.936	465.973	147.672	425.930	275.327	379.485	399.594	442.980	285.222	301.378	461.657	0.0006668	0.00087165	6.886e-05	619.58	3.3599e-06	2.0491e-05	709.78	214.81	6.5082e-06	1.1472e-05	281.68	111.2	79.216	31.731	4.3979e-06	52.518	0.020715	0.033878	0.0094045	749	0.00033074	0.00036347	841.33	315.45	0.00034619	0.00036452	365.25	135	104.85	40.07	0.00033878	64.303	179.598	260.301	249.588	153.141	484.897	318.136	151.951	158.206	331.872	494.341	156.925	161.346	162.575	167.133	367.859	164.698	-8191	255	
730.385	1	1	0	0	0.079076	0.19878	0.15815	0.13831	0.053857	0.087447	0.19773	0.14435	0.36837	0.15252	0.052605	0.25968	0.10842	0.096863	0.22553	0.18839	-1.9083	-2.5583	-2.3979	-2.575	-2.7521	-2.2229	-2.7167	-2.3312	-2.3063	-2.575	-2.475	-2.5208	-2.625	-2.2958	-2.6104	-2.7271	467.942	256.969	485.993	444.008	307.405	302.401	480.912	320.121	365.908	350.225	412.763	227.945	376.523	462.887	268.448	398.099	0.00065389	0.001412	0.00017307	618.93	9.8253e-06	3.7695e-06	704.74	218.7	7.6763e-06	1.2329e-05	279.58	110.14	78.959	31.698	2.225e-05	51.971	0.019888	0.032292	0.0090882	746.87	0.00032765	0.00036322	840.04	316.75	0.00034484	0.00036154	363.34	134.47	104.71	40.096	0.00034024	64.064	177.743	220.655	282.556	153.140	402.686	216.648	152.440	158.471	255.225	340.251	157.124	161.049	162.749	166.943	221.297	164.632	-8191	255	
730.483	1	1	0	0	0.22829	0.2638	0.17191	0.097738	0.11143	0.18156	0.088211	0.14108	0.090577	0.21406	0.21449	0.10904	0.082194	0.092424	0.22697	0.26525	-1.8312	-2.7771	-2.4958	-2.3729	-2.7125	-2.4083	-2.6813	-2.6292	-2.2854	-2.7938	-2.5021	-2.3354	-2.8146	-2.5792	-2.3688	-2.6437	422.366	431.491	462.455	204.202	427.140	188.766	398.980	415.584	158.725	320.440	298.211	433.755	444.631	476.621	403.921	452.452	0.00055755	0.0020572	0.00039818	618.02	1.9785e-05	3.0436e-06	706.51	216.93	7.0473e-06	1.3742e-05	278.14	109.77	78.037	31.771	7.5401e-06	52.259	0.02023	0.032655	0.0093127	752.47	0.00033086	0.00036711	841.14	318.34	0.00035306	0.00036642	365.09	134.61	104.76	40.368	0.00035002	64.591	174.429	349.677	363.742	153.408	232.486	476.483	152.151	158.321	158.261	273.379	157.084	161.038	162.865	167.056	375.902	164.468	-8191	255	
730.602	1	1	0	0	0.08531	0.15131	0.14957	0.31192	0.062579	0.064999	0.031461	0.060801	0.12461	0.09528	0.13977	0.17671	0.080839	0.25365	0.30373	0.05827	-1.6979	-2.5167	-2.3708	-2.4333	-2.625	-2.4958	-2.7229	-2.5979	-2.3396	-2.7104	-2.5979	-2.3021	-2.7333	-2.5333	-2.3104	-2.6729	454.009	331.548	287.603	443.422	341.627	255.168	383.000	438.865	405.897	310.610	329.018	412.771	173.604	436.425	199.166	264.126	0.00075149	0.0020238	0.00017125	620.99	3.1617e-06	2.2038e-05	705.69	215.95	9.259e-06	3.5501e-06	279.13	109.49	78.052	31.669	1.9588e-05	52.104	0.020598	0.032991	0.0095222	754.69	0.00033284	0.00036923	840.89	316.99	0.00034855	0.00035805	363.8	133.78	103.69	40.077	0.00034314	64.395	180.122	272.305	181.481	152.994	382.644	229.782	152.167	158.375	292.518	275.652	156.884	161.366	163.015	167.158	278.544	164.600	-8191	255	
730.698	1	1	0	0	0.3749	0.30861	0.060261	0.2156	0.29454	0.17431	0.15956	0.18893	0.1727	0.14515	0.16637	0.080337	0.12858	0.28213	0.027634	0.12746	-1.7958	-2.5271	-2.4729	-2.3729	-2.7333	-2.225	-2.6312	-2.7375	-2.3521	-2.5958	-2.7583	-2.3917	-2.7875	-2.5417	-2.4875	-2.8292	400.882	146.746	457.609	159.251	294.677	161.325	485.079	367.520	426.843	334.184	220.359	225.310	446.967	158.646	429.348	446.343	0.00072074	0.0010806	0.00043338	617.48	1.7101e-05	2.1551e-05	704.26	215.36	4.9201e-06	7.0875e-06	277.97	109.58	78.936	31.754	1.115e-05	52.71	0.020175	0.03251	0.0093474	751.33	0.00032604	0.00036618	840.81	315.15	0.00034478	0.00035741	363.45	134.09	103.88	40.148	0.00034409	64.712	183.200	158.017	273.545	153.054	218.136	211.321	151.970	158.587	268.985	366.631	156.994	161.058	162.383	166.875	398.626	164.513	-8191	255	
730.794	1	1	0	0	0.067057	0.14453	0.36554	0.29444	0.17905	0.15094	0.29913	0.083785	0.20593	0.15451	0.11637	0.079616	0.16731	0.22261	0.17056	0.18091	-1.9583	-2.5292	-2.5271	-2.2958	-2.6646	-2.5687	-2.3	-2.7687	-2.3771	-2.6125	-2.7333	-2.3479	-2.7667	-2.5104	-2.2604	-2.8396	295.752	350.582	212.310	428.259	471.151	337.669	200.072	169.303	198.617	156.010	250.868	480.803	431.864	498.892	242.802	499.876	0.0007286	0.00051378	0.00052749	620	9.4897e-06	9.4774e-06	706.45	217.35	1.0431e-05	1.0349e-05	281.62	110.21	78.309	31.923	1.1193e-05	52.449	0.020139	0.032655	0.0095376	755.84	0.00033408	0.00038442	850.85	321.69	0.00036958	0.00038562	372.27	136.71	105.75	41.097	0.0003753	65.43	170.047	244.573	317.157	153.121	371.211	495.042	152.139	157.996	234.104	224.161	156.860	161.125	163.027	166.598	166.966	164.544	-8191	255	
730.915	1	1	0	0	0.24244	0.050864	0.14356	0.068429	0.14969	0.21681	0.2612	0.25563	0.1263	0.23306	0.0746	0.091779	0.10461	0.095883	0.052545	0.095852	-1.9979	-2.5646	-2.5458	-2.3854	-2.7875	-2.5146	-2.4271	-2.8833	-2.75	-2.4062	-2.7833	-2.5458	-2.7083	-2.5792	-2.3771	-2.8312	379.857	384.457	421.951	367.393	192.764	476.257	432.602	189.959	426.495	323.670	173.274	477.834	179.810	355.862	290.626	412.742	0.00068589	0.002061	7.3687e-05	624.02	1.7473e-05	4.4084e-06	701.11	215.57	1.7678e-05	1.1286e-05	275.76	109.58	78.459	31.536	3.5574e-06	51.836	0.021766	0.035142	0.010102	766.87	0.00035012	0.00040225	852.01	322.77	0.00037716	0.00039543	369.83	135.55	105.69	40.894	0.00037413	64.758	185.080	231.073	271.554	153.531	233.740	463.140	152.293	157.996	254.343	263.141	157.024	160.690	162.589	167.086	425.468	164.539	-8191	255	
730.987	1	1	0	0	0.090801	0.17598	0.040035	0.30111	0.24889	0.01511	0.16744	0.25494	0.091215	0.12374	0.25845	0.20878	0.024645	0.27446	0.32527	0.28923	-1.9188	-2.4146	-2.7958	-2.125	-2.5792	-2.7542	-2.2375	-2.6833	-2.6125	-2.4375	-2.9292	-2.3625	-2.7104	-2.5771	-2.1792	-2.7083	246.644	242.949	357.226	463.254	311.990	333.018	358.058	482.058	461.948	299.582	172.829	457.335	412.865	418.385	162.173	406.329	0.00056758	0.00036988	0.00039248	623.46	3.7801e-06	9.1843e-06	698.64	214.82	5.7156e-06	6.7633e-06	275.57	108.9	77.856	31.555	2.0575e-05	51.906	0.021697	0.035241	0.0099685	765.39	0.00034762	0.00039897	849.07	321.06	0.00037607	0.00039151	367.66	134.76	104.99	40.747	0.00037198	64.425	172.234	299.376	189.158	153.181	339.918	211.585	152.141	158.473	154.923	167.796	156.630	160.836	162.705	167.149	294.992	164.456	-8191	255	
731.083	1	1	0	0	0.06639	0.28266	0.075739	0.13584	0.074803	0.063539	0.048829	0.16134	0.20423	0.3131	0.15428	0.33753	0.17587	0.17671	0.080807	0.13149	-1.8854	-2.1333	-2.6229	-2.4729	-2.3958	-2.6562	-2.4875	-2.6792	-2.5125	-2.4542	-2.675	-2.4771	-2.45	-2.5687	-2.2875	-2.6771	339.960	152.265	313.512	251.288	145.266	419.906	368.975	210.313	372.416	355.216	393.397	239.224	481.844	145.481	219.096	408.138	0.00066313	0.0013799	0.00055193	624.43	1.9998e-05	1.1791e-05	699.62	215.01	1.3142e-06	1.0014e-05	277.27	108.05	77.618	31.493	1.404e-05	51.803	0.021868	0.035413	0.01	767.35	0.00035232	0.00040306	850.04	320.42	0.00037989	0.00039551	367.96	135.19	105.65	40.797	0.00037656	64.542	173.969	338.302	232.368	153.108	312.725	233.280	152.358	158.129	266.712	440.459	156.963	160.707	162.906	167.016	269.779	164.119	-8191	255	
731.179	1	1	0	0	0.17201	0.059395	0.15446	0.058657	0.1111	0.1587	0.24275	0.10649	0.14232	0.090636	0.16127	0.11833	0.13843	0.17547	0.17025	0.15971	-2.1146	-2.2021	-2.7	-2.5687	-2.3708	-2.7833	-2.5812	-2.5938	-2.5875	-2.3146	-2.9125	-2.5604	-2.6208	-2.6396	-2.5146	-2.8167	179.121	403.663	275.533	321.513	280.125	414.579	181.018	473.413	346.416	202.076	243.626	339.548	381.794	417.146	465.543	432.004	0.00073774	0.0010841	0.00030054	621.28	1.3342e-06	1.1871e-05	702.01	216.53	4.3617e-06	1.0448e-05	276.24	108.52	77.842	31.397	5.2101e-06	51.953	0.022271	0.035911	0.010025	767.62	0.00035845	0.00040479	850.2	322.95	0.00038651	0.00039825	368.43	135.89	106.01	40.745	0.00037796	64.725	185.563	212.886	240.577	153.475	347.177	216.382	152.018	158.321	358.274	210.882	157.278	161.072	162.733	167.277	285.312	164.586	-8191	255	
731.298	1	1	0	0	0.050181	0.23416	0.07699	0.21831	0.26171	0.18636	0.10482	0.15039	0.15202	0.32058	0.26681	0.091493	0.13046	0.21567	0.17759	0.14708	-2.0021	-2.2208	-2.6875	-2.6104	-2.3667	-2.6813	-2.3438	-2.3833	-2.7396	-2.2104	-2.7083	-2.55	-2.2083	-2.8563	-2.3979	-2.5062	231.295	496.512	252.746	142.420	382.524	338.043	425.260	366.779	319.984	217.369	231.043	457.488	447.583	238.541	392.861	338.303	0.00062814	0.0011865	0.00027148	621.23	1.7235e-05	1.8201e-05	700.53	215.46	5.6432e-06	2.0447e-05	277.28	108.65	77.714	31.179	4.7009e-06	51.442	0.022345	0.035777	0.009917	766.12	0.00035692	0.00039756	851.26	321.05	0.00038139	0.00039407	367.14	135.66	105.3	40.312	0.00037049	64.281	189.453	253.610	204.147	153.198	280.591	382.513	152.037	158.587	192.642	287.019	156.872	161.224	162.809	167.125	208.249	164.518	-8191	255	
731.394	1	1	0	0	0.1822	0.090055	0.17352	0.24502	0.20884	0.22466	0.028597	0.25281	0.070157	0.073902	0.3054	0.10491	0.37443	0.18626	0.1264	0.21905	-2.3271	-2.1646	-2.6083	-2.5896	-2.4188	-2.7188	-2.3417	-2.5771	-2.5396	-2.375	-2.6	-2.6729	-2.0417	-2.85	-2.4229	-2.4458	367.203	243.296	396.992	220.316	471.640	301.633	251.731	436.881	189.182	472.247	454.672	228.618	466.136	171.099	423.754	496.335	0.00064511	0.00016486	0.00023614	616.15	1.2227e-05	1.0859e-05	691.91	213.56	1.4416e-05	7.026e-06	272.02	107.31	76.781	31.009	1.6471e-05	50.982	0.021983	0.035523	0.0098891	761.72	0.00036029	0.00040307	847.76	323.76	0.00039867	0.00041573	369.83	136.34	107.02	40.891	0.00041305	65.181	177.376	420.075	275.111	153.579	307.291	178.807	152.461	158.514	454.700	179.070	156.871	161.149	162.850	167.218	321.051	164.079	-8191	255	
731.490	1	1	0	0	0.20561	0.091013	0.16042	0.10537	0.092164	0.21394	0.13085	0.12366	0.078926	0.27556	0.17316	0.18297	0.14977	0.13904	0.2091	0.13606	-2.425	-2.2062	-2.4521	-2.7146	-2.2854	-2.5708	-2.4333	-2.3438	-2.7313	-2.2687	-2.5396	-2.7083	-2.2604	-2.6167	-2.6188	-2.4917	210.864	284.480	331.149	384.565	442.487	438.625	483.800	159.321	365.498	223.796	228.787	496.924	432.129	468.200	427.660	337.957	0.00045014	0.0013979	0.00054069	611.98	3.9435e-06	1.7201e-05	688.72	212.85	1.4561e-05	7.337e-06	269.69	106.36	76.793	30.878	1.1323e-05	50.672	0.024289	0.039153	0.011025	773.29	0.00039692	0.00043875	857.1	332.3	0.00042404	0.00044189	372.54	136.96	107.44	40.791	0.00041319	64.706	163.973	485.820	263.858	153.644	310.465	476.836	152.148	158.546	327.713	274.102	156.871	161.354	162.928	167.225	239.503	164.483	-8191	255	
731.586	1	1	0	0	0.2967	0.19711	0.051032	0.17045	0.095664	0.13283	0.18866	0.18527	0.21313	0.21712	0.15604	0.30999	0.31387	0.26573	0.15946	0.15695	-2.2792	-2.3521	-2.6625	-2.6083	-2.2646	-2.6542	-2.7188	-2.5167	-2.9229	-2.4667	-2.3312	-2.7167	-2.3833	-2.7271	-2.5271	-2.4479	441.787	493.643	399.920	487.262	473.308	342.875	444.275	181.681	231.300	318.348	224.170	293.669	149.346	431.262	488.379	456.829	0.00055746	0.0019382	0.00069121	612.08	4.9477e-06	9.3235e-06	689.41	213.82	1.8984e-05	4.3981e-06	272.08	106.76	76.372	31.171	4.542e-06	51.123	0.023511	0.038181	0.010651	766.77	0.00037741	0.00041569	848.97	325.91	0.00039299	0.00041508	366.88	134.36	105.11	40.331	0.00038367	63.894	194.301	194.673	271.848	153.241	433.045	285.201	151.866	159.070	285.939	454.285	157.074	161.291	162.837	167.013	408.818	164.946	-8191	255	
731.682	1	1	0	0	0.10697	0.26876	0.14318	0.12908	0.1909	0.3538	0.2191	0.072569	0.063456	0.18677	0.22998	0.19207	0.14332	0.045969	0.23962	0.06877	-2.2875	-2.3375	-2.5479	-2.6813	-2.5229	-2.4313	-2.6333	-2.3417	-2.6229	-2.3438	-2.4313	-2.8208	-2.25	-2.7229	-2.7354	-2.5771	244.486	198.175	497.930	162.572	251.121	343.059	334.006	450.338	375.057	432.474	362.639	470.484	392.483	499.013	442.465	144.218	0.00057093	0.0011954	0.00034847	619.92	4.4412e-06	3.9135e-06	692.62	210.99	1.6743e-05	1.7167e-05	271	106.51	76.74	31.072	1.1388e-05	51.281	0.021362	0.034889	0.0097283	759.43	0.00033975	0.00037549	838.91	315.11	0.00035425	0.00038129	359.93	132.28	102.94	39.919	0.00036671	63.632	182.755	309.560	295.578	153.546	373.544	325.868	152.016	157.973	325.705	276.766	156.706	160.901	163.142	167.157	178.652	164.160	-8191	255	
731.778	1	1	0	0	0.29252	0.0058875	0.14561	0.4963	0.2524	0.027614	0.39477	0.079519	0.085534	0.12614	0.23832	0.040412	0.20535	0.13028	0.1496	0.071324	-2.2042	-2.3458	-2.4958	-2.6354	-2.175	-2.8208	-2.8875	-2.2354	-2.6146	-2.3937	-2.3333	-2.8312	-2.4104	-2.5354	-2.5167	-2.5729	477.171	271.542	486.601	422.536	395.670	423.184	458.938	345.003	256.107	494.725	298.769	329.929	385.919	400.518	324.195	168.662	0.00069416	0.0028041	0.00013998	620.59	6.2783e-06	1.2272e-05	695.49	214.66	1.3935e-05	1.5863e-05	272.45	107.54	76.682	31.148	8.5407e-06	51.207	0.02059	0.034383	0.0095537	757.86	0.00033615	0.0003737	840.09	314.2	0.00034499	0.00037361	358.73	131.65	102.23	39.498	0.00034245	62.85	189.460	217.921	338.664	153.019	433.250	254.225	152.019	158.493	365.883	273.019	156.658	160.988	162.797	166.890	330.063	164.283	-8191	255	
731.875	1	1	0	0	0.062906	0.087518	0.042083	0.26334	0.21709	0.15913	0.12844	0.37438	0.10849	0.085048	0.057884	0.3411	0.1486	0.1672	0.30363	0.08819	-2.1937	-2.6167	-2.3292	-2.8646	-2.5042	-2.5958	-2.8417	-2.5083	-2.6083	-2.5646	-2.4792	-2.8396	-2.3896	-2.6937	-2.8187	-2.4958	455.146	197.449	237.784	447.461	272.857	258.571	339.723	347.108	381.463	180.768	450.677	475.965	475.668	438.664	463.425	464.684	0.00067767	0.0012521	0.00042633	610.61	1.5931e-05	1.7068e-05	703.78	212.97	8.6477e-06	1.8207e-05	276.8	107.77	76.794	30.749	1.2572e-05	51.306	0.018904	0.031409	0.0086372	732.58	0.00030259	0.0003325	822.28	301.16	0.00030514	0.00032778	350.34	129.18	99.6	38.415	0.00030905	61.782	172.566	366.018	228.961	153.290	253.072	188.611	152.150	158.305	259.596	250.586	156.905	161.353	162.886	167.273	226.500	164.521	-8191	255	
731.995	1	1	0	0	0.13504	0.16924	0.16758	0.12336	0.045989	0.20742	0.14777	0.11007	0.066008	0.24054	0.034412	0.11424	0.14248	0.12024	0.17181	0.11906	-2.3125	-2.4729	-2.3333	-2.7271	-2.5479	-2.4125	-2.7875	-2.3146	-2.3958	-2.75	-2.2542	-2.7833	-2.7125	-2.5875	-2.8187	-2.5083	183.561	476.924	201.954	183.556	452.285	416.656	468.286	407.060	294.004	179.198	353.213	322.889	259.310	219.874	418.061	422.997	0.00058992	0.0019142	0.00044114	616.05	1.0399e-05	1.1307e-05	697.55	214.66	2.8694e-06	1.2878e-05	274.46	106.96	76.674	30.843	1.6169e-05	50.994	0.017764	0.029911	0.0082515	727.45	0.0002979	0.00033235	821.14	302.28	0.00031406	0.00033808	351.65	129.18	100.41	38.58	0.00031616	61.701	186.350	342.743	261.739	152.935	394.471	206.781	152.108	158.305	142.915	257.251	156.770	161.123	162.840	167.215	345.833	164.523	-8191	255	
732.091	1	1	0	0	0.25124	0.13881	0.014686	0.049988	0.16597	0.20259	0.063596	0.032862	0.17121	0.025824	0.26642	0.046358	0.18617	0.016619	0.053115	0.13909	-2.2021	-2.6167	-2.3146	-2.6958	-2.5687	-2.4938	-2.8396	-2.5354	-2.5792	-2.7604	-2.3292	-2.7104	-2.5854	-2.2854	-2.7167	-2.6063	162.498	149.515	365.004	231.416	445.013	443.473	329.380	315.500	303.795	206.364	436.213	147.008	437.465	351.743	335.850	488.059	0.00056698	0.00098593	0.00014477	611.7	3.3534e-06	5.4846e-06	698.72	212.46	6.1842e-06	9.747e-06	272.98	106.6	76.639	31.089	7.63e-06	51.151	0.018274	0.030233	0.008348	731.48	0.00030156	0.00033401	821.74	302.93	0.0003171	0.00034008	352.21	129.42	101.1	38.838	0.00032101	62.264	174.156	292.447	232.748	153.602	371.755	238.249	152.318	158.381	186.635	300.302	157.150	160.900	163.087	166.916	369.659	164.404	-8191	255	
732.186	1	1	0	0	0.17362	0.17512	0.15681	0.082317	0.067045	0.16441	0.17542	0.10603	0.18999	0.10544	0.0012237	0.15975	0.34962	0.13499	0.017439	0.13187	-2.1292	-2.6396	-2.3646	-2.6667	-2.6042	-2.3292	-2.8708	-2.5604	-2.4688	-2.7708	-2.4604	-2.7896	-2.7646	-2.3125	-2.7146	-2.5458	350.494	385.108	251.931	326.466	244.541	210.443	353.281	352.792	252.514	206.574	180.000	461.500	149.985	376.155	489.914	145.743	0.00085143	0.00042239	0.00012218	621.55	9.0294e-06	1.1365e-05	699.91	213.06	1.7295e-05	1.7716e-05	273.86	107.94	76.689	30.908	1.1187e-05	50.903	0.018935	0.031208	0.0086922	743.9	0.00032132	0.00035293	830.1	310.8	0.00033931	0.00035897	357.72	131.52	102.57	39.222	0.00033513	63.086	169.392	191.256	380.399	153.427	470.227	462.027	152.162	158.653	218.687	331.063	156.659	161.384	162.601	166.767	275.233	164.502	-8191	255	
732.284	1	1	0	0	0.099231	0.047655	0.30602	0.26623	0.20198	0.24936	0.19389	0.19866	0.14889	0.078171	0.031119	0.22452	0.12042	0.18216	0.087184	0.23481	-1.8563	-2.7083	-2.4875	-2.7208	-2.7604	-2.2188	-2.675	-2.5146	-2.3	-2.7479	-2.5271	-2.5896	-2.7917	-2.3563	-2.7292	-2.6437	231.180	227.118	375.399	339.638	441.443	370.860	264.468	430.772	463.110	250.734	421.776	148.936	469.155	392.339	346.006	459.156	0.00070103	0.00049218	0.00072071	615.82	5.1569e-06	1.6042e-05	696.81	214.85	5.5979e-06	2.1054e-05	274.43	107.66	76.465	30.501	1.4514e-05	50.699	0.019681	0.03215	0.0089809	743.54	0.00032437	0.0003528	827.28	309.53	0.0003328	0.00034543	354.05	130.15	100.26	38.298	0.00031145	61.547	175.359	222.666	196.431	153.253	172.205	286.242	152.205	158.452	172.614	440.197	156.563	160.985	162.955	166.880	424.881	164.390	-8191	255	
732.378	1	1	0	0	0.080061	0.11048	0.019657	0.10495	0.10408	0.061471	0.12589	0.13052	0.16204	0.20826	0.0596	0.22125	0.063118	0.17753	0.081003	0.19962	-1.9	-2.9	-2.3229	-2.6688	-2.7021	-2.3292	-2.6875	-2.6354	-2.2125	-2.8229	-2.5542	-2.5458	-2.8438	-2.4104	-2.4646	-2.7125	240.269	494.974	142.234	221.072	464.228	421.549	145.446	405.641	381.255	162.157	469.185	444.402	437.258	395.663	385.040	399.731	0.00058687	0.001224	0.00027036	606.2	4.6238e-06	1.2731e-05	693.39	211.71	1.3017e-05	1.0044e-05	273.25	107.34	76.129	30.286	1.0218e-05	50.455	0.018054	0.028739	0.0081539	720.51	0.00028622	0.00031492	809.02	297	0.00029854	0.00030976	345.64	128.04	98.123	37.486	0.00029252	60.62	185.466	183.799	220.180	153.422	155.387	320.741	152.124	158.291	282.925	203.329	156.745	160.900	162.902	167.225	141.768	164.519	-8191	255	
732.474	1	1	0	0	0.079266	0.21204	0.30734	0.24347	0.2057	0.15922	0.34549	0.19151	0.047108	0.21787	0.30653	0.20555	0.12895	0.11227	0.086898	0.16569	-1.6854	-2.7375	-2.2208	-2.5646	-2.6354	-2.425	-2.625	-2.5854	-2.4875	-2.6292	-2.6396	-2.5104	-2.9146	-2.4792	-2.5792	-2.8063	426.824	258.713	200.331	463.026	447.825	401.326	437.558	202.851	282.888	347.104	141.081	464.013	261.967	497.626	310.467	470.855	0.00052382	0.0033142	7.9007e-05	602.09	9.7951e-06	1.3924e-05	693.47	211.45	1.4691e-05	9.713e-06	275.43	107.43	77.103	30.152	1.0081e-05	50.834	0.017081	0.027341	0.0079328	712.95	0.00027857	0.00031011	808.7	295.8	0.000295	0.00030436	346.97	128.12	98.014	37.44	0.00029268	60.734	174.526	308.476	427.512	153.430	342.305	313.889	152.152	158.026	181.637	381.651	156.693	160.903	163.248	167.304	297.847	164.568	-8191	255	
732.595	1	1	0	0	0.10021	0.20917	0.14793	0.16448	0.14305	0.25238	0.13758	0.07685	0.17033	0.13715	0.53189	0.37176	0.3014	0.17642	0.26658	0.16383	-1.7896	-2.6688	-2.5083	-2.3958	-2.7333	-2.4813	-2.6604	-2.5062	-2.3917	-2.7021	-2.6646	-2.45	-2.7271	-2.4458	-2.5812	-2.7	363.785	474.596	176.032	368.843	322.398	235.247	260.266	442.180	483.137	436.973	493.420	214.953	240.943	148.819	389.746	161.278	0.00042369	0.0013118	0.00020006	604.56	4.4806e-06	1.0078e-05	696.09	212.18	7.5555e-06	2.0379e-05	275.75	107.65	76.574	30.58	2.2122e-05	50.98	0.017012	0.027562	0.0079741	713.21	0.00027754	0.00031259	810.82	295.95	0.00029278	0.00030758	349.39	128.71	98.097	37.769	0.00029653	61.165	166.268	340.665	214.594	153.087	379.001	169.545	152.121	158.542	223.606	292.632	157.018	160.715	162.702	167.047	181.365	164.514	-8191	255	
732.691	1	1	0	0	0.14984	0.17582	0.10944	0.18993	0.12457	0.23045	0.12868	0.14329	0.208	0.1383	0.22476	0.17778	0.2792	0.074667	0.057057	0.19433	-1.9583	-2.7854	-2.6083	-2.4667	-2.7687	-2.7208	-2.4167	-2.8396	-2.4896	-2.5979	-2.6854	-2.4375	-2.6708	-2.4458	-2.2708	-3.0292	489.997	373.856	365.264	282.476	428.670	419.856	281.441	267.686	369.937	443.046	409.426	412.870	489.981	405.942	416.096	458.090	0.00054227	0.00075588	0.00031853	608.7	1.4416e-05	1.8721e-05	701.95	214.31	1.8114e-05	4.8013e-06	276.26	107.94	76.517	30.534	1.2563e-05	51.037	0.017274	0.028014	0.0081687	721.03	0.00028316	0.00032714	820.42	301.01	0.00031252	0.00032976	354.75	130.31	99.983	38.541	0.00032098	62.084	186.670	479.016	191.033	153.252	340.100	261.042	152.175	158.560	289.887	273.745	156.832	161.066	162.863	166.913	270.918	164.298	-8191	255	
732.787	1	1	0	0	0.14733	0.42857	0.29627	0.15842	0.012026	0.18932	0.24469	0.041869	0.17472	0.24815	0.072248	0.19142	0.20773	0.10585	0.14155	0.080991	-1.9792	-2.5292	-2.7521	-2.5521	-2.6312	-2.4917	-2.5438	-2.8187	-2.4583	-2.5354	-2.6729	-2.3583	-2.7021	-2.7812	-2.3354	-2.7583	206.009	418.053	426.783	465.745	482.965	281.866	307.113	485.280	380.692	432.928	242.856	445.253	200.954	400.561	291.849	405.238	0.0006959	0.0012299	0.00060449	609.18	7.9859e-06	9.1766e-06	699.17	213.18	8.9385e-06	1.282e-05	273.89	106.77	76.381	30.297	1.2089e-05	50.438	0.018798	0.030616	0.0087953	732.59	0.00030608	0.00035261	828.1	305.2	0.00033432	0.00035135	356.43	130.48	101.11	39	0.00034408	61.961	187.157	222.361	265.317	153.372	281.452	306.416	152.183	158.356	233.457	171.972	157.078	160.635	162.578	167.152	278.337	164.366	-8191	255	
732.883	1	1	0	0	0.086318	0.25712	0.15149	0.22799	0.17954	0.18749	0.12894	0.37069	0.086466	0.15715	0.085711	0.20796	0.35594	0.21782	0.086613	0.26131	-2.1562	-2.5062	-2.5021	-2.5792	-2.7	-2.6083	-2.3083	-2.4938	-2.2958	-2.4917	-2.8542	-2.5375	-2.6583	-2.7375	-2.275	-2.6688	405.002	259.125	331.998	189.489	140.908	221.598	190.749	350.553	363.161	425.763	171.167	468.439	323.188	316.281	361.315	144.497	0.00061508	0.0011894	0.00045933	611.92	8.9194e-06	1.5875e-05	692.78	210.73	1.9194e-06	9.5408e-06	270.6	105.75	75.108	30.278	1.8926e-05	49.809	0.020214	0.032774	0.0092989	743.03	0.00032507	0.00037642	830.27	309.58	0.00035954	0.00037261	358.22	130.49	101.79	39.103	0.00035167	61.838	164.501	349.683	236.449	153.325	286.038	434.419	151.974	158.640	412.061	459.060	156.863	161.034	162.653	167.036	266.163	164.608	-8191	255	
732.979	1	1	0	0	0.1369	0.30238	0.34379	0.28019	0.071372	0.099302	0.25139	0.080858	0.25971	0.025646	0.020296	0.25006	0.19201	0.17944	0.053637	0.0808	-2.1354	-2.2792	-2.7146	-2.3688	-2.5938	-2.575	-2.3271	-2.8688	-2.5167	-2.3333	-2.8917	-2.5104	-2.6	-2.5521	-2.2271	-2.8583	357.990	180.257	347.013	148.823	155.330	192.891	420.742	341.590	240.070	246.629	273.859	445.790	432.059	282.848	346.268	147.137	0.00067528	0.0018456	0.00025013	611.73	1.089e-05	2.6088e-05	689.61	211.17	9.3887e-06	7.0162e-06	271.14	105.36	76.148	30.36	1.6343e-05	49.838	0.020876	0.033589	0.0094124	747.42	0.00033373	0.00038026	829.43	310.27	0.00036184	0.00037586	356.57	130.62	101.84	39.124	0.00034859	61.715	168.769	430.974	451.187	153.018	230.285	396.901	151.873	157.954	313.866	171.140	157.123	160.931	162.449	167.115	205.590	164.449	-8191	255	
733.076	1	1	0	0	0.13528	0.16842	0.2919	0.076129	0.046631	0.1718	0.23961	0.19939	0.096592	0.2285	0.17237	0.30555	0.11398	0.16083	0.14595	0.14377	-2.0896	-2.3417	-2.6813	-2.3104	-2.5375	-2.5979	-2.6104	-2.7271	-2.4437	-2.3208	-2.6583	-2.4958	-2.5687	-2.6167	-2.2708	-2.6937	296.639	318.697	496.020	454.968	376.439	292.635	158.053	189.008	248.173	422.903	415.766	244.352	329.546	180.561	281.187	407.497	0.0004796	0.00062061	0.00018052	614.8	3.7871e-06	4.4747e-06	690.16	210.76	1.3876e-05	1.7372e-05	270.67	105.85	75.558	30.466	1.8816e-05	49.958	0.020719	0.032809	0.0091381	745.57	0.00032539	0.00036773	825.54	307.34	0.00035034	0.00035848	353.33	130.25	100.84	38.745	0.00033762	61.735	170.744	284.954	283.702	153.422	289.797	464.013	152.050	158.426	263.919	323.195	157.071	161.035	163.130	167.051	298.133	164.403	-8191	255	
733.172	1	1	0	0	0.1185	0.2283	0.059198	0.091727	0.11183	0.22325	0.038207	0.15292	0.16109	0.15077	0.11803	0.13849	0.28491	0.28636	0.20959	0.13403	-2.1063	-2.3958	-2.7542	-2.7667	-2.5187	-2.7083	-2.5417	-2.7	-2.5104	-2.3625	-2.7896	-2.2313	-2.4771	-2.7479	-2.3542	-2.5521	360.551	399.645	461.078	438.364	261.486	142.660	238.187	145.270	467.724	161.249	184.143	282.780	467.325	291.284	234.048	370.808	0.00065366	0.0009835	0.00025917	616.53	7.8114e-06	4.8981e-06	691.99	212.56	4.9314e-06	2.0775e-06	271.73	105.5	75.579	30.221	1.2349e-05	50.584	0.020189	0.032219	0.0089731	745.82	0.00032438	0.00036528	829.27	309.19	0.0003542	0.00036292	355.13	130.81	101.27	38.792	0.00034388	62.289	182.342	331.552	344.878	153.481	303.166	382.831	152.349	158.496	224.935	303.065	156.962	160.534	162.355	167.051	250.094	164.313	-8191	255	
733.266	1	1	0	0	0.27443	0.047878	0.24995	0.22919	0.058238	0.20509	0.23091	0.18598	0.14176	0.10619	0.046515	0.14946	0.20496	0.10551	0.1946	0.19792	-2.0833	-2.4104	-2.7438	-2.5917	-2.475	-2.8354	-2.4542	-2.5042	-2.5917	-2.3104	-2.6708	-2.4917	-2.4188	-2.7208	-2.4688	-2.6042	236.935	437.373	257.800	472.700	319.966	389.651	483.140	237.226	190.109	141.355	149.701	198.793	483.166	256.137	350.114	156.826	0.00050145	0.0008864	0.00013121	613.45	1.4882e-06	1.876e-05	693.96	209.39	1.9674e-05	1.6289e-05	272.81	105.6	75.636	30.207	6.233e-06	50.174	0.020092	0.032006	0.0088842	745.34	0.00031858	0.00034923	824.9	304.72	0.00033427	0.00034161	350.27	129.19	99.614	38.107	0.00032203	61.001	167.299	223.334	224.862	153.041	302.174	344.012	152.219	158.253	217.462	411.286	156.759	160.851	162.663	166.795	239.221	164.296	-8191	255	
733.364	1	1	0	0	0.20019	0.35476	0.27773	0.1579	0.24041	0.12609	0.23458	0.25606	0.17653	0.063349	0.25703	0.023065	0.23943	0.14002	0.15307	0.04647	-2.4042	-2.3458	-2.5333	-2.8354	-2.1521	-2.7854	-2.6125	-2.3875	-2.825	-2.2667	-2.6417	-2.5021	-2.4729	-2.8917	-2.5875	-2.5708	474.533	303.895	376.201	193.731	244.527	192.418	287.254	208.604	403.465	189.431	379.234	228.645	166.919	379.914	420.095	243.778	0.00064254	0.002321	0.00050763	615.36	7.1964e-06	1.0142e-05	688.64	211.39	6.9911e-06	1.7369e-05	272.66	106.07	76.024	30.386	1.5577e-05	50.142	0.018516	0.029424	0.0082306	732.69	0.00028949	0.00031852	813.22	296.02	0.00029992	0.00031014	343.2	126.81	96.994	37.22	0.00028857	59.89	180.385	265.014	248.982	152.850	273.960	268.897	151.610	158.273	231.506	314.034	156.499	161.172	163.053	166.613	457.793	164.372	-8191	255	
733.483	1	1	0	0	0.14783	0.14743	0.11764	0.24064	0.17738	0.26132	0.082658	0.1601	0.25392	0.14136	0.14266	0.29864	0.096483	0.1063	0.14419	0.39502	-2.2979	-2.2562	-2.525	-2.6292	-2.4104	-2.5854	-2.5792	-2.4333	-2.675	-2.4583	-2.3354	-2.6167	-2.4333	-2.6437	-2.5167	-2.4667	233.185	153.608	195.762	344.265	461.751	457.160	155.706	251.853	237.366	283.850	211.104	434.569	309.214	322.448	399.338	486.961	0.00063058	0.00077642	0.00024997	611.06	9.5046e-06	7.2868e-06	700.12	210.96	4.4478e-06	1.3244e-05	275.16	108.14	76.326	30.103	6.29e-06	50.306	0.016247	0.026121	0.0073138	712.55	0.00025331	0.00027849	804.36	285.11	0.0002565	0.00026925	335.85	125.35	94.45	36.119	0.00025371	58.842	170.293	481.601	194.300	153.122	240.178	354.929	152.276	158.572	250.796	305.379	156.764	160.858	162.524	166.987	209.021	164.704	-8191	255	
733.556	1	1	0	0	0.28562	0.17962	0.074697	0.53724	0.15892	0.14685	0.10097	0.057427	0.099193	0.099547	0.1784	0.040384	0.1891	0.18239	0.20705	0.33814	-2.0875	-2.3312	-2.6729	-2.7396	-2.3854	-2.4021	-2.8167	-2.3937	-2.6729	-2.4292	-2.6854	-2.7833	-2.275	-2.5708	-2.4813	-2.3583	334.346	231.578	304.312	166.328	244.500	374.491	421.776	444.551	428.673	474.058	380.084	335.985	299.832	425.285	431.244	344.749	0.00067366	0.0012909	0.0001283	607.67	2.0363e-06	1.3567e-05	697.63	210.2	3.1916e-06	2.2731e-05	276.8	108.15	75.885	29.994	1.0255e-05	50.383	0.014139	0.023391	0.0064783	694.22	0.00022867	0.00025522	795.39	279.09	0.00024394	0.00026639	336.09	125.23	94.207	36.194	0.00025909	58.861	170.395	145.375	453.414	153.139	353.495	213.557	152.131	158.486	281.216	265.063	156.652	160.721	162.451	167.344	438.922	164.918	-8191	255	
733.675	1	1	0	0	0.070228	0.19654	0.29463	0.19274	0.019595	0.061509	0.33591	0.25757	0.26111	0.11018	0.092433	0.20545	0.28093	0.06617	0.23109	0.25066	-2.3812	-2.3854	-2.3271	-2.7271	-2.225	-2.6063	-2.8167	-2.1917	-2.5771	-2.5292	-2.55	-2.7521	-2.4333	-2.6771	-2.6542	-2.1979	192.408	204.375	394.058	425.359	383.325	388.796	414.305	206.760	466.322	486.052	489.868	440.225	464.311	416.879	276.226	243.359	0.00068156	0.00091746	0.00034371	601.2	2.4521e-06	9.1293e-06	702.56	208.84	1.2685e-05	1.2859e-05	276.48	106.87	76.236	29.925	1.7623e-06	50.091	0.014706	0.024537	0.0068078	696.2	0.00024008	0.00026754	800.53	280.38	0.00024942	0.000271	336.58	124.55	94.055	36.001	0.0002506	58.457	179.174	170.435	283.302	153.316	460.120	392.353	152.292	158.148	168.946	225.587	156.700	161.154	163.087	167.199	412.579	164.598	-8191	255	
733.771	1	1	0	0	0.13705	0.15611	0.1707	0.12171	0.04234	0.046528	0.11944	0.17932	0.09157	0.082424	0.41542	0.22351	0.20824	0.12916	0.04969	0.05166	-2.1125	-2.4	-2.5125	-2.6792	-2.3063	-2.4896	-2.7083	-2.2812	-2.8	-2.5104	-2.3917	-2.8042	-2.5229	-2.3917	-2.8063	-2.3542	320.690	474.210	278.121	195.694	184.175	442.838	435.805	468.131	326.938	167.097	444.811	178.335	469.885	427.697	379.842	334.950	0.000581	0.0013456	0.00025789	606.62	1.4472e-05	4.3528e-06	702.99	211.07	8.7722e-06	1.7486e-05	274.08	106.81	75.753	29.763	5.4058e-06	49.449	0.01415	0.023729	0.0064784	692.61	0.00023195	0.00026069	796.72	279.02	0.00024451	0.00026588	333.66	123.42	93.712	35.694	0.00024379	57.597	169.189	259.045	323.576	153.490	317.126	253.761	152.038	158.284	216.408	349.200	156.951	160.893	162.790	166.848	361.661	164.539	-8191	255	
733.868	1	1	0	0	0.24656	0.087511	0.054311	0.13064	0.023938	0.21415	0.058607	0.28094	0.17997	0.11197	0.12261	0.30568	0.12458	0.24443	0.14165	0.25408	-2.0458	-2.4625	-2.2271	-2.5896	-2.3917	-2.3708	-2.9833	-2.2667	-2.5125	-2.5396	-2.3667	-2.6396	-2.5958	-2.3646	-2.6521	-2.4521	455.529	469.364	204.791	432.716	405.033	306.846	375.570	334.698	241.445	200.073	146.583	395.116	329.689	143.745	161.180	470.477	0.00045649	0.00030896	0.00010267	598.58	4.3372e-06	5.4202e-06	695.02	209.68	1.0652e-05	1.4255e-05	274.56	105.89	74.917	29.509	8.2147e-06	49.318	0.013995	0.023265	0.0063548	686.04	0.00023031	0.00025107	786.06	274.55	0.00023397	0.00025163	328.93	121.94	92.343	35.079	0.00022629	56.938	186.468	296.605	285.492	153.139	303.723	311.516	152.235	158.322	232.360	366.492	156.685	160.377	162.912	167.214	488.627	164.708	-8191	255	
733.964	1	1	0	0	0.11871	0.095141	0.16686	0.099805	0.18767	0.13601	0.19645	0.1857	0.043063	0.095383	0.22307	0.1162	0.24585	0.1289	0.095335	0.14533	-2.1583	-2.5125	-2.4667	-2.5542	-2.3729	-2.3125	-2.8312	-2.3187	-2.6521	-2.5833	-2.4062	-2.5333	-2.7979	-2.3312	-2.6125	-2.4896	386.455	207.624	470.469	491.697	419.464	310.787	428.733	157.247	233.543	269.771	402.714	225.048	143.179	498.959	359.556	393.619	0.00085927	0.00076271	0.00026907	595.54	4.183e-06	6.0042e-06	695.78	208.68	3.6081e-06	8.6849e-06	275.79	107.42	75.338	29.434	8.1861e-06	49.423	0.013113	0.021396	0.0057874	672.9	0.00021099	0.00022704	775.36	268.42	0.00021006	0.00022238	323.13	120.95	90.562	34.379	0.00019662	56.499	174.439	301.841	266.259	153.361	279.513	271.129	152.258	158.390	401.039	359.011	156.769	161.109	162.941	167.292	338.890	164.743	-8191	255	
734.084	1	1	0	0	0.15595	0.36754	0.19337	0.2057	0.23439	0.19249	0.34923	0.12709	0.12119	0.17836	0.11247	0.32177	0.22398	0.15954	0.20286	0.39036	-2.0667	-2.6625	-2.1604	-2.7917	-2.6688	-2.3792	-2.7625	-2.3667	-2.5021	-2.7917	-2.4562	-2.8958	-2.5521	-2.2646	-2.6021	-2.3479	170.785	470.031	267.172	447.411	327.297	448.653	435.421	368.278	296.458	310.558	468.137	421.615	469.400	401.658	431.328	471.717	0.00071776	0.00238	0.0001499	595.4	9.6098e-06	3.2438e-06	696.55	210.71	1.5753e-05	1.2685e-05	278.36	107.3	76.083	29.601	2.6832e-06	50.161	0.011571	0.018849	0.0051837	662.86	0.00019058	0.00020708	768.62	265.67	0.00019653	0.00020651	322.56	120.59	90.114	34.202	0.00018588	56.629	171.869	177.031	229.351	153.151	265.961	178.265	152.231	158.539	306.578	278.174	156.728	160.945	162.951	167.635	238.124	164.378	-8191	255	
734.156	1	1	0	0	0.11256	0.15763	0.079121	0.05368	0.10244	0.18355	0.075636	0.16915	0.070642	0.25341	0.24573	0.25973	0.3355	0.20034	0.14866	0.32054	-1.9125	-2.8625	-2.4125	-2.3958	-2.575	-2.4854	-2.8187	-2.5396	-2.3667	-2.8708	-2.4188	-2.6833	-2.7521	-2.4083	-2.5938	-2.6354	268.767	396.729	212.994	241.402	441.304	380.729	300.983	408.450	244.896	468.718	422.945	400.129	168.005	470.469	271.695	425.839	0.00056963	0.0007587	0.00056884	597.52	7.7314e-06	1.5261e-05	698.31	212.16	8.4093e-06	9.1198e-06	279.43	108.3	76.289	29.707	4.0455e-06	50.37	0.011004	0.017664	0.0049619	660.9	0.00018169	0.00019551	769.39	265.01	0.00019099	0.00019969	324.01	121.28	89.987	34.223	0.0001863	56.898	179.374	329.922	224.921	153.178	320.143	278.489	152.164	158.395	347.059	279.739	156.939	160.955	163.058	167.369	262.134	164.842	-8191	255	
734.275	1	1	0	0	0.067057	0.16489	0.042817	0.12611	0.10646	0.10654	0.045478	0.29221	0.31617	0.13218	0.16872	0.26612	0.27727	0.18666	0.17755	0.2539	-2.1333	-2.7604	-2.3875	-2.6625	-2.7458	-2.3292	-2.9354	-2.7104	-2.3271	-2.8958	-2.4417	-2.3812	-2.8167	-2.5438	-2.3979	-2.6083	212.670	452.792	176.232	478.853	351.685	177.442	481.706	455.995	453.931	435.588	205.368	207.963	452.134	420.326	302.424	432.729	0.00059974	0.00072142	0.0002527	592.31	5.4253e-06	2.1297e-05	702.54	209.53	6.0659e-06	1.8621e-05	279.58	107.48	76.125	29.847	4.3214e-06	50.287	0.01085	0.017263	0.0049727	658.75	0.00017748	0.00019351	768.01	263.38	0.00018652	0.00019407	323.46	120.65	89.599	34.361	0.00018908	56.732	180.186	361.371	493.903	153.584	379.476	278.447	152.300	158.288	286.789	268.165	157.035	160.797	162.644	167.163	260.676	164.651	-8191	255	
734.373	1	1	0	0	0.19209	0.040673	0.16392	0.37194	0.054494	0.23522	0.15602	0.11904	0.16736	0.19941	0.25835	0.079626	0.10384	0.18848	0.24952	0.058996	-1.8354	-2.675	-2.2687	-2.2917	-2.7125	-2.3896	-2.7917	-2.5083	-2.0583	-2.7188	-2.55	-2.3312	-2.6229	-2.4583	-2.4813	-2.7375	233.863	211.322	486.528	145.099	430.799	449.375	438.544	486.533	423.883	299.960	375.068	283.719	399.369	214.275	257.292	153.316	0.00056148	0.00057659	5.8754e-05	593.65	1.345e-05	3.9739e-06	700.22	211.05	7.2333e-06	8.802e-06	277.11	108.24	76.217	29.868	8.3425e-06	50.244	0.010959	0.017642	0.0051197	660.68	0.00017466	0.00019466	764.12	261.86	0.00018004	0.00018615	320.66	119.97	88.765	34.167	0.0001753	56.291	181.309	323.501	303.383	153.387	293.681	183.431	151.996	158.212	238.996	280.710	156.766	161.072	162.948	167.356	200.330	164.581	-8191	255	
#DATA ENDS
