BOXY.EXE: ISS Imagent and Oximeter Data Acquisition Program Version 0.80
Ascii Record File

#ACQ INFORMATION
2  Detector Channels 
16  External MUX Channels 
1  Auxiliary Channels 
5000  Waveform (CCF) Frequency (Hz)
1  Waveforms Skipped 
30  Waveforms Averaged 
1  Cycles Averaged 
16  Acquisitions per Waveform 
10.0806  Updata Rate (Hz) 

#FILE INFORMATION
TRUE -- External MUX Channel results are PARSED.
FALSE -- AC DC and Phase are NOT grouped.
TRUE -- Companion Program Settings File CREATED.
FALSE -- AC data not excluded
FALSE -- DC data not excluded
FALSE -- Phase data not excluded
FALSE -- Auxillary Chn. data not excluded
Tab delimiters

#CALIBRATION STATE
TRUE -- Waveform Calibration Values APPLIED.


#AUX CALIBRATION VALUES
Val Type	aux-1	

Term	1.0000e+00	
Factor	0.0000e+00	


#WF CALIBRATION VALUES
A = Detector Channel
Val Type	A-AC1	A-AC2	A-AC3	A-AC4	A-AC5	A-AC6	A-AC7	A-AC8	A-AC9	A-AC10	A-AC11	A-AC12	A-AC13	A-AC14	A-AC15	A-AC16	A-DC1	A-DC2	A-DC3	A-DC4	A-DC5	A-DC6	A-DC7	A-DC8	A-DC9	A-DC10	A-DC11	A-DC12	A-DC13	A-DC14	A-DC15	A-DC16	A-Ph1	A-Ph2	A-Ph3	A-Ph4	A-Ph5	A-Ph6	A-Ph7	A-Ph8	A-Ph9	A-Ph10	A-Ph11	A-Ph12	A-Ph13	A-Ph14	A-Ph15	A-Ph16	

Term	0.00000e+00	0.00000e+00	0.00000e+00	0.00000e+00	0.00000e+00	0.00000e+00	0.00000e+00	0.00000e+00	0.00000e+00	0.00000e+00	0.00000e+00	0.00000e+00	0.00000e+00	0.00000e+00	0.00000e+00	0.00000e+00	0.00000e+00	0.00000e+00	0.00000e+00	0.00000e+00	0.00000e+00	0.00000e+00	0.00000e+00	0.00000e+00	0.00000e+00	0.00000e+00	0.00000e+00	0.00000e+00	0.00000e+00	0.00000e+00	0.00000e+00	0.00000e+00	0.00000e+00	0.00000e+00	0.00000e+00	0.00000e+00	0.00000e+00	0.00000e+00	0.00000e+00	0.00000e+00	0.00000e+00	0.00000e+00	0.00000e+00	0.00000e+00	0.00000e+00	0.00000e+00	0.00000e+00	0.00000e+00	
Factor	1.00000e+00	1.00000e+00	1.00000e+00	1.00000e+00	1.00000e+00	1.00000e+00	1.00000e+00	1.00000e+00	1.00000e+00	1.00000e+00	1.00000e+00	1.00000e+00	1.00000e+00	1.00000e+00	1.00000e+00	1.00000e+00	1.00000e+00	1.00000e+00	1.00000e+00	1.00000e+00	1.00000e+00	1.00000e+00	1.00000e+00	1.00000e+00	1.00000e+00	1.00000e+00	1.00000e+00	1.00000e+00	1.00000e+00	1.00000e+00	1.00000e+00	1.00000e+00	X	X	X	X	X	X	X	X	X	X	X	X	X	X	X	X	

B = Detector Channel
Val Type	B-AC1	B-AC2	B-AC3	B-AC4	B-AC5	B-AC6	B-AC7	B-AC8	B-AC9	B-AC10	B-AC11	B-AC12	B-AC13	B-AC14	B-AC15	B-AC16	B-DC1	B-DC2	B-DC3	B-DC4	B-DC5	B-DC6	B-DC7	B-DC8	B-DC9	B-DC10	B-DC11	B-DC12	B-DC13	B-DC14	B-DC15	B-DC16	B-Ph1	B-Ph2	B-Ph3	B-Ph4	B-Ph5	B-Ph6	B-Ph7	B-Ph8	B-Ph9	B-Ph10	B-Ph11	B-Ph12	B-Ph13	B-Ph14	B-Ph15	B-Ph16	

Term	0.00000e+00	0.00000e+00	0.00000e+00	0.00000e+00	0.00000e+00	0.00000e+00	0.00000e+00	0.00000e+00	0.00000e+00	0.00000e+00	0.00000e+00	0.00000e+00	0.00000e+00	0.00000e+00	0.00000e+00	0.00000e+00	0.00000e+00	0.00000e+00	0.00000e+00	0.00000e+00	0.00000e+00	0.00000e+00	0.00000e+00	0.00000e+00	0.00000e+00	0.00000e+00	0.00000e+00	0.00000e+00	0.00000e+00	0.00000e+00	0.00000e+00	0.00000e+00	-8.19876e+01	-1.12488e+02	-1.32334e+02	-1.83765e+02	-5.47796e+01	-7.96704e+01	-1.58050e+02	-1.62015e+02	-4.66416e+01	-8.78703e+01	-1.70682e+02	-1.70765e+02	-1.77608e+02	-1.76832e+02	-7.22374e+01	-1.49734e+02	
Factor	1.97146e-05	1.23164e-04	3.32636e-05	1.69880e-01	1.09298e-06	1.11543e-06	1.82340e-01	6.04400e-02	9.77201e-07	1.31635e-06	1.00421e-01	3.42866e-02	2.87001e-02	1.09200e-02	1.35373e-06	1.56389e-02	8.88536e-07	9.06807e-07	2.53891e-07	8.32282e-02	9.95797e-09	9.96105e-09	8.40902e-02	2.94902e-02	9.96807e-09	9.92728e-09	4.65780e-02	1.59708e-02	1.39218e-02	5.21665e-03	9.98655e-09	7.18501e-03	X	X	X	X	X	X	X	X	X	X	X	X	X	X	X	X	



#DISTANCE SETTINGS
A = Detector Channel
A-1	A-2	A-3	A-4	A-5	A-6	A-7	A-8	A-9	A-10	A-11	A-12	A-13	A-14	A-15	A-16	

2.5000e+00	3.0000e+00	2.5000e+00	3.0000e+00	2.0000e+00	3.0000e+00	1.5000e+00	3.0000e+00	3.0000e+00	3.0000e+00	3.0000e+00	3.0000e+00	3.0000e+00	3.0000e+00	1.5000e+00	3.0000e+00	

B = Detector Channel
B-1	B-2	B-3	B-4	B-5	B-6	B-7	B-8	B-9	B-10	B-11	B-12	B-13	B-14	B-15	B-16	

1.0000e+01	1.0000e+01	1.0000e+01	1.4400e+00	1.0000e+01	1.0000e+01	1.5100e+00	1.9400e+00	1.0000e+01	1.0000e+01	1.9900e+00	2.4900e+00	2.4100e+00	2.9000e+00	1.0000e+01	2.9800e+00	




#DATA BEGINS
time	group	step	mark	flag	A-AC1	A-AC2	A-AC3	A-AC4	A-AC5	A-AC6	A-AC7	A-AC8	A-AC9	A-AC10	A-AC11	A-AC12	A-AC13	A-AC14	A-AC15	A-AC16	A-DC1	A-DC2	A-DC3	A-DC4	A-DC5	A-DC6	A-DC7	A-DC8	A-DC9	A-DC10	A-DC11	A-DC12	A-DC13	A-DC14	A-DC15	A-DC16	A-Ph1	A-Ph2	A-Ph3	A-Ph4	A-Ph5	A-Ph6	A-Ph7	A-Ph8	A-Ph9	A-Ph10	A-Ph11	A-Ph12	A-Ph13	A-Ph14	A-Ph15	A-Ph16	B-AC1	B-AC2	B-AC3	B-AC4	B-AC5	B-AC6	B-AC7	B-AC8	B-AC9	B-AC10	B-AC11	B-AC12	B-AC13	B-AC14	B-AC15	B-AC16	B-DC1	B-DC2	B-DC3	B-DC4	B-DC5	B-DC6	B-DC7	B-DC8	B-DC9	B-DC10	B-DC11	B-DC12	B-DC13	B-DC14	B-DC15	B-DC16	B-Ph1	B-Ph2	B-Ph3	B-Ph4	B-Ph5	B-Ph6	B-Ph7	B-Ph8	B-Ph9	B-Ph10	B-Ph11	B-Ph12	B-Ph13	B-Ph14	B-Ph15	B-Ph16	aux-1	digaux	

7950.277	1	1	0	768	0.20931	0.08446	0.24622	0.19153	0.13169	0.30258	0.11312	0.14559	0.19353	0.16638	0.1505	0.23096	0.091531	0.14931	0.044242	0.30022	-1.9396	-2.2938	-1.8563	-2.6458	-2.3208	-2.0938	-2.7042	-2.0938	-2.1854	-2.7062	-2.2104	-2.7208	-2.4437	-2.2708	-2.7479	-2.1208	150.946	302.234	307.441	362.154	283.084	237.768	379.968	115.463	53.314	82.037	68.260	320.261	119.662	237.257	87.579	267.783	0.0002918	0.00038425	0.00021322	581.15	2.3082e-06	5.6689e-06	711.92	231.19	4.1627e-06	3.0925e-06	342.07	142.94	89.275	48.022	7.7962e-06	80.889	0.00077572	0.00072109	0.00020044	615.1	8.4705e-06	7.5711e-06	723.94	240.75	8.163e-06	7.6329e-06	345.45	145.36	92.614	47.486	8.3174e-06	79.088	196.489	330.053	134.317	44.170	299.449	111.699	44.072	50.133	136.045	331.271	48.214	53.852	55.593	59.951	140.515	57.003	-8191	255	
7950.373	1	1	0	0	0.41729	0.072881	0.09071	0.16979	0.10338	0.13678	0.13455	0.15391	0.20745	0.20949	0.22842	0.12441	0.037706	0.33312	0.2734	0.32306	-1.8208	-2.6583	-1.8708	-2.5812	-2.4229	-2.0021	-2.7958	-2.0875	-2.1958	-2.7208	-2.1333	-2.6167	-2.6917	-2.0479	-2.6	-2.2938	234.511	311.535	218.374	190.254	169.655	281.137	356.443	212.968	135.016	95.097	382.410	358.521	239.187	367.386	190.501	277.307	0.00052005	0.0006518	0.00033991	583.42	1.7078e-06	6.6972e-06	711.8	231.43	5.5973e-06	7.3139e-06	342.85	143.93	89.649	48.413	1.6994e-05	81.533	0.00072014	0.00067295	0.00021174	611.65	8.0139e-06	7.275e-06	729.26	240.23	7.8668e-06	7.5432e-06	349.65	145.35	92.804	47.87	9.0857e-06	79.372	208.326	36.592	127.047	43.909	331.708	94.390	44.072	50.134	166.316	71.789	48.528	53.952	55.507	59.740	224.539	57.080	-8191	255	
7950.469	1	1	0	0	0.35419	0.088025	0.19599	0.038935	0.10074	0.11906	0.24022	0.22208	0.1691	0.18072	0.2496	0.11125	0.27962	0.091701	0.062941	0.15951	-1.7563	-2.6333	-2.1063	-2.6167	-2.4562	-2.0708	-2.8229	-2.3208	-2.0938	-2.7271	-1.9667	-2.4271	-2.6667	-2.0042	-2.625	-2.5167	210.982	117.401	48.691	191.179	50.229	269.946	312.666	292.954	380.358	37.592	60.872	362.737	276.629	380.472	181.703	355.642	0.00060161	0.0011489	6.7539e-05	585.12	9.423e-06	1.0614e-05	713.05	231.69	4.5702e-06	8.5089e-06	343.66	144.12	90.158	48.588	1.3285e-05	81.889	0.00071643	0.00069859	0.00022879	609.03	7.8191e-06	7.5903e-06	733.33	238.48	7.4048e-06	7.723e-06	351.16	144.39	92.496	48.094	8.9931e-06	78.841	202.186	142.567	203.151	43.863	178.993	169.044	44.334	50.312	237.142	226.429	48.538	53.650	55.925	59.960	172.731	57.162	-8191	255	
7950.565	1	1	0	0	0.097956	0.16929	0.31326	0.20325	0.063741	0.086058	0.091088	0.13793	0.22489	0.28654	0.14105	0.15056	0.13419	0.22294	0.075997	0.21264	-1.6979	-2.5708	-2.0812	-2.5	-2.5479	-2.025	-2.6229	-2.4813	-1.9771	-2.6542	-2.3125	-2.6021	-2.8583	-2.2229	-2.5417	-2.5896	306.059	243.774	231.429	289.549	118.658	37.794	201.908	97.849	254.616	137.021	266.481	332.856	357.436	361.463	100.370	350.510	0.00045908	0.0006823	0.00024195	582.42	6.495e-06	9.6239e-06	709.4	230.21	3.6626e-06	1.2418e-05	341.33	144.03	90.002	48.443	1.0014e-05	81.442	0.00067297	0.00073719	0.00022987	605.73	7.5553e-06	8.2196e-06	732.42	236.98	7.3602e-06	8.5182e-06	350.24	143.81	92.206	48.56	8.8856e-06	78.526	203.119	151.938	255.092	43.968	170.497	203.656	44.443	50.180	93.311	236.293	48.293	53.860	55.838	60.072	381.931	57.346	-8191	255	
7950.659	1	1	0	0	0.21568	0.17716	0.096465	0.15018	0.3676	0.1902	0.19258	0.14547	0.1451	0.21947	0.013684	0.16312	0.20075	0.03727	0.13735	0.2576	-1.6021	-2.9604	-2.2521	-2.2458	-2.6604	-1.8979	-2.5938	-2.6521	-2.0854	-2.7313	-2.2104	-2.2313	-2.5417	-2.0187	-2.5083	-2.6562	102.787	384.183	157.909	355.047	164.234	314.233	364.480	353.282	242.603	72.558	371.526	212.506	336.775	71.677	126.270	48.837	0.00059043	0.0015558	0.00017921	581.46	1.2379e-05	2.4659e-06	712.81	232.33	5.8319e-06	3.2654e-06	342.14	143.82	90.222	48.644	5.2829e-07	81.939	0.00067501	0.0008062	0.00022472	602.73	7.6132e-06	8.9016e-06	730.47	237.31	7.4845e-06	9.0409e-06	348.68	143.47	92.682	48.849	8.2201e-06	78.613	193.562	163.910	79.354	44.183	184.177	280.212	43.859	50.140	243.869	212.852	48.091	53.800	55.875	60.091	139.885	57.219	-8191	255	
7950.757	1	1	0	0	0.13779	0.32869	0.075475	0.10819	0.21293	0.11881	0.13649	0.22422	0.30181	0.18815	0.26397	0.20597	0.092521	0.14525	0.29197	0.061125	-1.625	-2.5708	-2.2208	-2.3667	-2.7521	-2.0625	-2.3	-2.5875	-2.1083	-2.7	-2.3833	-2.1646	-2.7667	-2.1188	-2.3396	-2.7646	103.455	286.410	40.426	313.257	372.558	190.334	186.760	369.556	195.704	147.069	329.456	38.318	304.191	203.200	221.976	303.031	0.00053415	0.00045723	0.00023829	584.94	6.1345e-06	9.4256e-06	717.56	233.27	7.9234e-06	1.2183e-05	345.96	144.7	90.464	48.626	2.7102e-06	82.292	0.00069069	0.00080817	0.00020597	599.85	7.7369e-06	8.7606e-06	728.15	236.99	7.8678e-06	8.8731e-06	349.12	143.73	93.487	48.811	7.774e-06	78.818	201.043	176.774	286.093	43.899	209.715	59.140	44.152	50.360	213.179	103.608	48.622	53.893	55.960	60.136	198.945	57.340	-8191	255	
7950.876	1	1	0	0	0.18211	0.24986	0.20606	0.082354	0.091807	0.21166	0.41014	0.090607	0.27844	0.31318	0.068142	0.18071	0.14378	0.32285	0.21178	0.19598	-1.5	-2.5	-2.2271	-2.1312	-2.8646	-2.2771	-2.2854	-2.8104	-1.9312	-2.3625	-2.5812	-2.0938	-2.7146	-2.2542	-2.0875	-2.85	195.595	83.620	307.702	35.861	275.314	69.882	301.240	270.817	392.636	285.175	68.546	43.520	103.237	80.932	64.214	280.482	0.00047714	0.00051696	0.00010051	586.56	5.334e-06	1.8001e-06	721.09	234.39	9.0669e-06	1.1599e-05	348.73	146	91.084	48.771	8.9098e-06	82.39	0.00074956	0.00079684	0.00019922	600.25	8.3944e-06	8.5489e-06	728.52	237.49	8.3428e-06	8.2642e-06	348.48	144.13	94.375	48.515	7.3108e-06	78.984	202.659	171.556	238.001	44.160	153.778	75.609	43.923	50.655	203.784	125.882	48.107	53.889	55.794	60.332	224.383	57.248	-8191	255	
7950.972	1	1	0	0	0.20518	0.19527	0.067158	0.056823	0.076108	0.12655	0.342	0.076283	0.096667	0.34682	0.20568	0.070433	0.29195	0.13813	0.057116	0.18837	-1.5938	-2.4729	-2.5667	-2.075	-2.7	-2.4042	-2.1333	-2.7896	-2.0062	-2.375	-2.4979	-2.2479	-2.6542	-2.4437	-2.0771	-2.8937	75.469	219.703	183.084	39.296	131.290	278.084	290.224	232.617	39.669	275.367	345.261	195.379	77.890	225.653	382.965	363.462	0.00047325	0.00082761	6.3011e-05	587.96	2.5057e-06	5.4988e-06	719.31	233.9	6.5376e-06	1.1022e-06	348.98	145.8	91.019	48.746	2.5312e-06	82.645	0.00077078	0.00072382	0.00018706	600.23	8.5198e-06	7.8483e-06	722.89	237.45	8.3138e-06	7.432e-06	346.75	144.24	93.95	48.033	6.5121e-06	78.965	198.179	85.090	91.001	44.032	273.776	210.015	43.985	50.465	231.477	284.009	48.367	53.825	55.530	59.947	299.361	57.309	-8191	255	
7951.068	1	1	0	0	0.17687	0.14134	0.18046	0.11211	0.08812	0.1133	0.27784	0.23996	0.10636	0.16383	0.39555	0.29651	0.21099	0.13326	0.098073	0.16945	-1.6625	-2.325	-2.475	-2.0417	-2.6917	-2.5333	-2.1562	-2.7625	-2.3042	-2.1771	-2.8375	-1.9813	-2.575	-2.5292	-2.0208	-2.7542	221.573	291.801	332.372	61.393	269.197	378.562	377.042	286.502	130.504	206.353	376.993	322.402	226.798	238.973	203.678	47.892	0.0006856	0.00011144	4.5383e-05	585.09	1.1854e-05	6.8434e-06	722.96	235.09	5.4261e-06	4.3899e-06	352.83	147.25	90.667	48.559	7.534e-06	83.264	0.00072593	0.00063767	0.00016753	598.91	7.8017e-06	7.0385e-06	719.43	239.36	7.751e-06	6.8805e-06	347.39	145.67	93.446	47.816	6.456e-06	79.741	204.772	149.876	56.729	44.004	196.046	178.428	44.418	50.464	56.934	181.234	48.632	53.839	55.584	60.036	179.577	57.557	-8191	255	
7951.165	1	1	0	0	0.18675	0.24814	0.11674	0.27195	0.22655	0.096468	0.068733	0.10089	0.22525	0.1431	0.15931	0.30455	0.43973	0.20619	0.22425	0.10533	-1.7104	-2.1604	-2.5312	-2.025	-2.5229	-2.5917	-2.125	-2.6312	-2.3438	-1.9875	-2.7542	-2.0792	-2.4292	-2.8396	-2.0271	-2.7708	170.097	271.387	79.416	299.276	302.343	342.836	79.529	312.296	219.176	216.804	331.968	73.378	351.918	42.054	33.829	377.658	0.00059829	0.00053767	0.00022931	586.9	2.8618e-06	3.6361e-06	727.65	236.27	5.3324e-06	3.0425e-06	351.28	147.4	91.398	48.783	9.847e-06	83.515	0.00068748	0.00060858	0.00016576	602.72	7.269e-06	6.6378e-06	723.75	240.58	7.1221e-06	6.2921e-06	348.5	146.48	92.855	47.615	6.3678e-06	80.239	208.937	121.865	110.822	44.431	58.564	88.753	44.116	50.631	204.231	297.352	48.412	54.009	55.512	59.859	159.600	57.156	-8191	255	
7951.261	1	1	0	0	0.076281	0.16973	0.096549	0.09783	0.12013	0.27005	0.36785	0.086362	0.12522	0.14582	0.082333	0.16505	0.096797	0.26981	0.15145	0.13509	-1.9271	-2.0062	-2.6063	-2.3333	-2.25	-2.5687	-2.0417	-2.6542	-2.3604	-2.0354	-2.8229	-2.225	-2.1875	-2.7417	-1.9896	-2.6479	248.597	206.610	52.866	208.077	264.711	180.646	313.165	301.837	141.615	218.538	160.721	66.461	336.246	37.180	332.469	61.844	0.00038874	0.0005832	0.00027663	583.15	5.6396e-06	3.6272e-07	730.81	238.21	7.4635e-06	4.9339e-06	353.74	147.91	91.428	48.88	4.8383e-06	84.259	0.00062676	0.00055407	0.00016832	601.52	6.7068e-06	6.1847e-06	728.69	240.74	6.6805e-06	5.9798e-06	351.83	146.86	92.449	47.643	6.7309e-06	80.432	198.995	364.939	160.433	44.304	190.950	129.296	44.328	50.237	117.345	138.677	48.625	53.813	55.487	60.026	231.766	56.861	-8191	255	
7951.357	1	1	0	0	0.28373	0.20899	0.1301	0.27701	0.021342	0.059764	0.21814	0.36846	0.15831	0.14009	0.15444	0.17882	0.20805	0.00546	0.12487	0.16272	-2.2042	-2.0917	-2.5187	-2.25	-2.3063	-2.6396	-1.9688	-2.6729	-2.6042	-2.0125	-2.6146	-2.2583	-2.0521	-2.7104	-2.0667	-2.4417	302.279	233.750	128.443	391.741	362.550	390.517	346.489	262.512	66.152	134.955	49.965	222.707	391.122	268.046	386.978	366.311	0.00054021	0.0013128	0.00035339	588.4	9.673e-07	8.3698e-06	733.18	237.56	4.1274e-06	1.408e-05	357.16	149.77	91.971	48.745	6.3571e-06	83.781	0.00058312	0.00053084	0.00017486	598.59	6.088e-06	5.8419e-06	732.57	238.98	6.0655e-06	5.6333e-06	354.34	146.42	91.69	47.445	6.8223e-06	79.72	196.516	91.692	123.256	43.885	65.084	153.282	44.275	50.396	224.609	182.076	48.502	53.553	55.681	60.242	183.458	57.199	-8191	255	
7951.478	1	1	0	0	0.091684	0.046499	0.27183	0.14299	0.072825	0.11506	0.074321	0.17123	0.23692	0.04363	0.21984	0.173	0.070234	0.2723	0.14773	0.31851	-2.0875	-2.0729	-2.6521	-2.4208	-2.3333	-2.5417	-2.1646	-2.5083	-2.5625	-1.9667	-2.8438	-2.2896	-2.1917	-2.8167	-2.0854	-2.4146	267.411	351.545	44.212	228.718	102.259	380.978	299.600	227.102	91.776	35.586	75.977	292.664	109.904	339.852	209.502	329.519	0.00053843	0.0012526	0.00017038	584.86	6.1559e-06	7.733e-06	730.98	237.44	2.6217e-06	1.1193e-05	353.23	147.98	90.876	48.657	5.1011e-06	82.702	0.00055247	0.00052225	0.00017595	593.66	5.7203e-06	5.9693e-06	731.35	238.15	5.7848e-06	5.9109e-06	353.18	145.13	91.141	47.708	6.8617e-06	79.252	200.043	144.782	100.813	44.111	198.574	196.263	44.375	49.989	359.743	159.352	48.826	54.198	55.946	60.234	223.664	57.395	-8191	255	
7951.572	1	1	0	0	0.11189	0.1752	0.29478	0.14795	0.19609	0.31969	0.14317	0.052016	0.23765	0.15323	0.23795	0.17003	0.077879	0.050038	0.072871	0.16372	-2.2917	-1.9188	-2.6708	-2.3958	-2.1271	-2.5979	-2.2646	-2.45	-2.5792	-1.9583	-2.5708	-2.5812	-2.1646	-2.7708	-2.1688	-2.2396	179.172	341.827	209.463	277.900	336.212	38.425	331.484	277.866	315.805	49.804	351.516	128.429	374.050	300.394	307.645	295.022	0.00055016	0.0014078	0.00016063	572.23	2.1613e-06	8.0937e-06	723.54	234.25	1.0973e-06	8.4446e-06	351.13	146.48	88.417	47.328	3.0217e-06	80.636	0.0005192	0.00056194	0.00017162	588.92	5.5275e-06	6.4386e-06	731.51	236.83	5.6513e-06	6.495e-06	351.99	145.02	90.936	47.764	6.6952e-06	79.082	189.470	171.019	106.924	45.034	354.343	207.737	44.980	50.708	325.543	197.800	49.174	54.630	56.622	61.384	188.080	58.496	-8191	255	
7951.668	1	1	0	0	0.14935	0.19414	0.094155	0.10783	0.082097	0.16272	0.34568	0.29316	0.09287	0.17324	0.34041	0.23433	0.12717	0.2082	0.074823	0.27311	-2.0104	-2.0396	-2.4708	-2.5604	-2.0938	-2.6979	-2.3042	-2.125	-2.6854	-2.1479	-2.4458	-2.5667	-2.0854	-2.6604	-2.3063	-2.0646	245.258	217.877	40.731	90.851	309.860	275.816	268.523	357.883	94.763	82.719	378.694	347.014	296.840	392.495	202.975	352.929	0.00058364	0.00089158	0.00017648	565.04	6.9211e-06	6.1649e-06	707.12	227.34	1.1632e-05	5.6445e-06	342.2	142.51	88.157	47.507	4.9653e-06	82.281	0.00054202	0.00063037	0.00017164	588.11	5.8864e-06	7.1655e-06	726.61	235.03	6.2455e-06	7.2682e-06	349.1	144.31	91.644	48.429	6.9289e-06	79.534	189.848	100.552	82.853	45.438	230.808	129.878	45.535	51.442	269.343	145.144	49.773	55.212	57.434	61.160	293.446	57.904	-8191	255	
7951.764	1	1	0	0	0.16139	0.22672	0.19598	0.1474	0.19782	0.076205	0.104	0.4997	0.11614	0.12218	0.16876	0.067476	0.15461	0.082732	0.070859	0.060382	-2.3104	-2.0104	-2.4833	-2.6833	-1.9729	-2.5792	-2.4833	-2.0146	-2.7083	-2.3458	-2.3979	-2.8812	-2.0312	-2.75	-2.5604	-2.325	334.419	77.541	94.442	39.516	166.545	235.220	163.155	346.810	245.777	99.472	290.380	284.908	377.383	357.300	386.983	381.629	0.00064457	5.8683e-05	0.00022359	567.78	1.1336e-05	3.9318e-06	701.04	225.33	5.7621e-06	3.7134e-06	333.53	140.53	87.02	47.187	5.9821e-06	79.556	0.00062118	0.0007057	0.00017733	592.64	7.0581e-06	7.9735e-06	726.58	235.59	7.436e-06	8.0224e-06	346.82	143.64	92.854	48.57	7.303e-06	78.851	192.148	283.238	244.207	45.353	227.354	258.606	45.437	51.564	208.084	335.634	49.952	55.554	57.327	61.547	297.821	58.901	-8191	255	
7951.838	1	1	0	0	0.2309	0.22064	0.24217	0.23994	0.25089	0.086983	0.18871	0.065665	0.12405	0.22082	0.23323	0.19431	0.17998	0.37693	0.24	0.11959	-2.2292	-2.3063	-2.2479	-2.7938	-2.0604	-2.4771	-2.5	-2.2604	-2.6896	-2.2292	-2.1771	-2.7583	-2.1542	-2.4771	-2.6375	-2.05	146.351	242.520	199.845	297.984	282.749	318.894	218.139	270.493	312.635	39.894	39.659	352.335	57.869	320.988	357.877	310.292	0.00070523	0.00079052	3.0014e-05	560.49	5.8837e-06	4.6938e-06	686.05	222.77	9.3905e-06	1.1459e-05	328.53	139.38	87.045	46.805	3.5496e-06	79.094	0.00073234	0.00074495	0.00018575	595.34	8.2758e-06	8.3344e-06	720.8	235.39	8.8565e-06	8.5339e-06	344.59	143.51	94.491	48.608	7.8715e-06	78.848	201.078	315.776	84.718	45.604	171.284	73.969	45.689	51.838	227.766	203.793	49.731	55.585	57.107	61.641	164.679	58.708	-8191	255	
7951.957	1	1	0	0	0.15325	0.12438	0.14184	0.084553	0.23746	0.10285	0.057114	0.21009	0.17568	0.062207	0.25148	0.17316	0.23494	0.081435	0.16704	0.31785	-2.3083	-2.1083	-1.9792	-2.7875	-2.1375	-2.5563	-2.6937	-1.9396	-2.6208	-2.3083	-2.1562	-2.7313	-2.2729	-2.3958	-2.7375	-2.2292	255.179	82.819	211.220	281.349	246.130	174.594	132.664	384.310	228.503	116.871	320.391	327.247	307.964	271.052	62.741	292.976	0.00053569	0.00061217	0.00020638	563.31	3.9925e-06	6.1397e-06	691.02	225.13	8.6435e-06	1.2e-05	326.73	138.79	86.653	47.347	1.2245e-05	78.541	0.00085363	0.0007934	0.00020197	606.28	9.575e-06	8.754e-06	724.4	238.98	9.9991e-06	9.0863e-06	343.93	145.27	95.991	49.154	8.8277e-06	79.745	203.682	49.880	351.811	46.024	165.020	51.632	45.569	51.431	192.747	245.281	49.703	55.178	57.127	60.947	347.938	58.639	-8191	255	
7952.053	1	1	0	0	0.073199	0.12572	0.3353	0.14379	0.30205	0.36511	0.17334	0.22641	0.17465	0.17429	0.1446	0.03802	0.25434	0.229	0.3353	0.21479	-2.2833	-2.5667	-2.0979	-2.9813	-2.2542	-2.3104	-2.8	-1.8937	-2.6479	-2.6583	-2.3187	-2.9208	-2.2604	-2.3542	-2.5917	-2.1729	337.774	74.142	232.947	334.691	88.456	83.967	353.374	184.439	177.142	236.698	376.917	39.089	352.080	363.347	360.648	371.603	0.00035156	0.00076906	8.3898e-05	563.72	1.0018e-05	5.6212e-06	674.67	220.19	3.5859e-06	5.0064e-06	322.82	137.38	85.967	46.529	1.3187e-05	78.206	0.00097709	0.0008926	0.00023035	627.1	1.1204e-05	1.0106e-05	728.25	243.71	1.1606e-05	1.0592e-05	346.9	148.61	97.839	49.634	1.0735e-05	81.445	207.519	44.985	279.166	45.418	89.859	144.466	45.346	52.140	56.000	390.566	50.038	55.666	57.324	61.086	266.209	58.645	-8191	255	
7952.149	1	1	0	0	0.22231	0.28829	0.15608	0.050704	0.26143	0.17059	0.19709	0.16298	0.11018	0.20176	0.14779	0.21564	0.22877	0.2959	0.23225	0.14785	-2.1604	-2.4229	-2.0646	-2.7708	-2.2104	-2.4896	-2.65	-2.1083	-2.7667	-2.5958	-1.9958	-2.8563	-2.5604	-2.35	-2.7646	-2.1437	57.819	185.254	80.236	331.189	54.873	344.091	382.461	54.026	266.457	317.196	383.518	320.617	383.485	338.408	307.216	331.170	0.00049432	0.00068424	0.0001897	561.05	1.0815e-05	6.6435e-06	676.68	217.61	8.8074e-06	6.1803e-06	318.36	135.35	85.703	46.576	1.8991e-05	77.154	0.0011278	0.0010494	0.00028531	652.05	1.2878e-05	1.1737e-05	745.9	250.89	1.309e-05	1.2104e-05	354.39	151.83	99.546	50.526	1.3391e-05	82.63	179.244	376.295	197.550	45.489	34.231	42.447	45.253	51.954	56.743	275.591	49.865	55.722	57.304	61.318	173.855	58.364	-8191	255	
7952.269	1	1	0	0	0.096954	0.26264	0.13229	0.22053	0.10679	0.38798	0.021589	0.14126	0.080219	0.058628	0.097843	0.2382	0.23478	0.34518	0.17695	0.27095	-2.025	-2.5542	-2.1229	-2.6771	-2.3667	-1.9625	-2.7542	-2.4	-2.5125	-2.5396	-2.0812	-2.7438	-2.5	-2.0833	-2.8167	-2.4437	380.049	380.495	349.776	56.155	203.222	55.268	275.269	79.594	314.060	326.302	378.440	323.644	123.492	47.417	277.934	275.136	0.00035473	0.00032412	0.00052557	563.66	1.1783e-05	2.6903e-06	667.69	218.77	7.8874e-06	6.0161e-06	314.92	134.6	85.048	46.426	1.6697e-05	76.063	0.0012594	0.0011972	0.00035959	674.57	1.4752e-05	1.3767e-05	771.65	258.91	1.5699e-05	1.5108e-05	372.7	156.41	104.31	52.305	1.9651e-05	85.544	173.199	286.277	138.523	45.523	375.769	347.270	45.611	51.448	359.109	102.809	50.087	55.427	57.058	61.236	193.945	58.482	-8191	255	
7952.366	1	1	0	0	0.16084	0.17369	0.20466	0.15422	0.3733	0.030326	0.26719	0.083846	0.4164	0.1953	0.095886	0.23603	0.1641	0.097494	0.14819	0.20807	-1.6271	-2.5375	-2.0875	-2.5625	-2.6729	-2.0896	-2.85	-2.2438	-2.3125	-2.9354	-2.1104	-2.5729	-2.6833	-2.1542	-2.5979	-2.4896	82.931	392.379	268.523	288.508	53.526	36.685	40.958	357.404	315.655	150.490	207.459	359.614	71.071	288.212	219.267	365.702	0.00050103	0.0014175	0.00042232	569.95	2.9196e-06	7.2856e-06	664.48	215.9	6.5373e-06	1.5585e-05	310.27	131.8	85.232	46.845	2.9432e-05	76.179	0.0017113	0.0016941	0.00055965	729.66	2.0961e-05	2.0164e-05	841.92	278.63	2.2171e-05	2.2188e-05	412.67	166.19	113.74	56.379	2.867e-05	90.209	202.853	141.958	116.842	45.379	154.512	325.998	45.768	51.277	53.426	201.315	50.240	55.450	57.149	61.123	223.096	58.387	-8191	255	
7952.437	1	1	0	0	0.12138	0.10998	0.091705	0.1762	0.16365	0.28498	0.069106	0.097637	0.26123	0.34704	0.12112	0.060604	0.1559	0.29255	0.12404	0.15395	-1.9771	-2.725	-2.1937	-2.5438	-2.6271	-2.1437	-2.8833	-2.5479	-2.3271	-2.625	-2.1417	-2.4042	-2.8187	-2.075	-2.625	-2.5438	96.419	106.392	111.158	374.816	360.028	61.827	49.880	279.266	150.968	104.793	353.127	103.308	214.443	390.268	115.513	381.951	0.00043351	0.0022662	0.00042594	575.66	8.9939e-06	1.6276e-05	665.75	217.45	1.539e-05	2.1748e-05	309.43	134.01	87.471	47.836	2.2045e-05	77.351	0.0022658	0.0024147	0.00078334	791.74	2.7028e-05	2.8391e-05	917.37	298.09	2.8669e-05	3.1632e-05	455.26	177.83	124.31	62.326	3.7622e-05	95.647	191.421	147.436	112.696	45.323	392.852	240.299	45.334	51.148	49.846	235.512	49.333	54.734	56.684	60.599	165.132	57.653	-8191	255	
7952.558	1	1	0	0	0.090403	0.21211	0.097417	0.24719	0.19221	0.16458	0.14487	0.13979	0.22074	0.22569	0.10619	0.30975	0.069339	0.50411	0.12753	0.23529	-1.6396	-2.7146	-2.3354	-2.2583	-2.7812	-2.1375	-2.8	-2.5938	-2.2729	-2.8646	-2.35	-2.4875	-2.7062	-2.2188	-2.3625	-2.6875	46.314	150.095	317.432	365.947	64.903	129.297	105.202	47.616	139.566	374.594	52.329	320.949	289.864	374.435	145.671	227.582	0.00026524	0.0024739	0.00077113	596.97	1.3219e-05	2.4009e-05	680.05	224.17	4.7752e-06	2.4283e-05	314.75	136.59	88.903	48.995	1.3622e-05	79.53	0.0028586	0.0033179	0.00098433	852.33	3.3015e-05	3.7336e-05	963.82	312.14	3.2299e-05	3.7869e-05	463.72	179.99	127.2	64.664	3.6997e-05	96.122	202.441	152.896	387.167	44.644	211.856	191.546	44.565	50.475	175.234	216.702	48.583	54.003	56.066	59.776	379.890	57.323	-8191	255	
7952.652	1	1	0	0	0.032486	0.2335	0.23212	0.17906	0.14631	0.13258	0.13328	0.26697	0.28641	0.15171	0.1266	0.099768	0.12983	0.048107	0.13102	0.037243	-1.5167	-2.5687	-2.2729	-2.2917	-2.6937	-2.0146	-2.6063	-2.6667	-1.8958	-2.7375	-2.5542	-2.2	-2.8812	-2.2042	-2.2708	-2.6771	262.007	228.277	245.259	125.325	259.396	305.452	296.542	306.481	315.527	169.811	299.273	40.391	350.069	144.441	215.633	46.167	0.0004938	0.00091027	0.0010296	612.63	2.5708e-05	1.9743e-05	696.31	226.98	1.3973e-05	2.0703e-05	316.51	137.27	89.752	48.96	5.9395e-06	78.938	0.0029508	0.0035484	0.00094908	856.55	3.491e-05	4.0515e-05	964.93	314.98	3.6066e-05	4.22e-05	471.45	183.38	135.51	67.696	3.9846e-05	98.053	209.052	89.094	343.037	43.428	227.716	151.880	43.662	49.775	215.035	169.801	47.787	53.633	56.068	59.443	269.783	56.840	-8191	255	
7952.748	1	1	0	0	0.16701	0.17276	0.39497	0.21297	0.022588	0.11536	0.16555	0.25771	0.22821	0.20466	0.31448	0.09864	0.13342	0.23862	0.45017	0.17479	-1.5396	-2.6625	-2.35	-2.1875	-2.6063	-2.1688	-2.4417	-2.6958	-2.0833	-2.6146	-2.3708	-2.1396	-2.7333	-2.3312	-2.3083	-2.8	115.496	211.586	325.716	61.185	178.179	262.076	246.494	314.089	247.520	163.383	329.329	343.774	105.975	329.873	56.357	283.425	0.00095693	0.0012264	0.00074251	624.05	4.6873e-05	1.004e-05	700.54	225.97	3.2836e-05	1.7167e-05	316.75	137.13	89.283	48.732	1.3099e-05	79.086	0.0035485	0.0040445	0.0010291	890.03	4.1638e-05	4.4549e-05	986.03	322.76	4.2347e-05	4.4447e-05	477.11	185.65	142.77	67.955	4.0156e-05	98.737	185.350	64.997	316.951	43.538	206.247	244.282	43.936	50.089	195.855	388.212	48.063	53.576	56.079	59.439	305.385	57.022	-8191	255	
7952.869	1	1	0	0	0.047522	0.050423	0.17492	0.17518	0.14919	0.17005	0.17075	0.14141	0.11926	0.19989	0.21562	0.28253	0.31578	0.21862	0.095267	0.017782	-1.6979	-2.5146	-2.3792	-2.0792	-2.7958	-2.1083	-2.2417	-2.7333	-2.2396	-2.6125	-2.5312	-2.1188	-2.6792	-2.2354	-2.2062	-2.775	330.594	311.196	204.942	90.555	230.009	40.501	379.503	367.220	55.361	340.045	43.397	348.257	371.643	336.773	276.302	122.499	0.00079198	0.0014031	0.00051681	630.28	2.6904e-05	1.9335e-05	702.32	228.67	2.5801e-05	1.9579e-05	320.37	138.38	89.904	48.741	1.6532e-05	78.734	0.0039383	0.0039981	0.0010292	904.04	4.5132e-05	4.3735e-05	988.55	327.13	4.5366e-05	4.3097e-05	476.61	188.79	147.1	67.544	3.9949e-05	101.03	182.578	309.733	227.933	43.756	206.986	42.196	43.957	50.257	243.401	37.551	48.004	54.020	55.224	59.098	68.981	57.082	-8191	255	
7952.965	1	1	0	0	0.12442	0.30663	0.12201	0.26726	0.12019	0.18927	0.027447	0.14248	0.11541	0.19308	0.29019	0.10029	0.12841	0.13536	0.060846	0.28929	-1.7708	-2.35	-2.5292	-2.1271	-2.6208	-2.3729	-2.2271	-2.8292	-2.0625	-2.4188	-2.8354	-1.9875	-2.5958	-2.5187	-2.0542	-2.6646	182.472	226.032	147.057	312.975	278.735	332.252	327.082	390.868	243.205	52.767	321.682	355.434	285.225	88.537	126.867	243.664	0.00069877	0.0023986	0.00095302	642.53	1.5302e-05	1.6232e-05	711.32	229.78	1.805e-05	1.423e-05	318.53	139.11	90.735	49.31	1.1255e-05	80.066	0.0042316	0.0039548	0.001038	942.09	4.8211e-05	4.3978e-05	1001.6	343.07	4.866e-05	4.3772e-05	482.2	198.63	151.4	68.59	4.1518e-05	106.28	206.844	321.724	386.606	44.071	149.499	371.786	43.681	49.910	55.054	175.868	48.272	53.993	54.962	59.666	33.311	57.255	-8191	255	
7953.061	1	1	0	0	0.027239	0.072263	0.04874	0.24478	0.14312	0.17717	0.19201	0.24883	0.12824	0.25973	0.29594	0.042336	0.24464	0.20528	0.10314	0.31942	-1.7708	-2.3937	-2.6583	-2.0375	-2.6729	-2.3771	-2.1937	-2.875	-2.3042	-2.3875	-2.6063	-2.0667	-2.4938	-2.7708	-2.1312	-2.6042	318.805	206.768	376.848	60.024	131.031	322.146	303.504	42.372	51.037	75.137	262.978	73.355	39.244	75.754	208.058	281.419	0.0004068	0.0036136	0.00018599	649.87	2.5969e-05	8.2159e-06	717.14	230	7.6834e-06	3.3808e-06	323.77	138.37	90.214	49.487	1.4623e-05	79.995	0.0044409	0.004092	0.0010955	1005.4	5.0078e-05	4.5973e-05	1027.8	362.59	4.9671e-05	4.4484e-05	492.76	206.27	149.97	68.109	4.1763e-05	107.76	230.432	341.981	179.331	44.177	35.994	383.373	43.797	49.918	140.719	154.883	48.335	54.366	55.178	59.287	236.580	57.065	-8191	255	
7953.133	1	1	0	0	0.18571	0.21307	0.18596	0.20196	0.11191	0.21573	0.26274	0.053767	0.1103	0.1561	0.1292	0.051061	0.1368	0.26331	0.29364	0.24219	-1.9	-2.175	-2.5875	-2.0333	-2.4813	-2.4833	-2.1542	-2.6646	-2.2667	-2.2146	-2.7833	-2.2833	-2.4958	-2.6042	-2.0896	-2.7042	69.914	225.184	383.509	372.159	91.710	43.110	387.173	287.892	281.114	38.998	373.338	310.353	300.306	300.627	195.208	318.477	0.00061754	0.00077161	0.00078586	643.25	2.3538e-05	2.2578e-05	719	231.91	8.1735e-06	2.7021e-05	320.76	137.75	91.013	49.583	2.6849e-05	80.145	0.0041463	0.003852	0.0010802	1006.1	4.5429e-05	4.2461e-05	1027	360.72	4.5364e-05	4.1209e-05	494.48	204.78	144.71	66.829	4.3284e-05	106.68	135.722	269.763	146.568	43.708	67.322	361.575	43.702	50.287	109.128	327.912	49.220	53.796	55.294	59.665	222.230	57.060	-8191	255	
7953.254	1	1	0	0	0.25698	0.47193	0.18643	0.30684	0.1922	0.047044	0.1386	0.32753	0.24593	0.22576	0.10759	0.096698	0.35631	0.11295	0.16936	0.25939	-1.875	-2.0146	-2.625	-2.3	-2.3833	-2.5375	-2.0104	-2.65	-2.5312	-2.0625	-2.7667	-2.2396	-2.4375	-2.8271	-2.0687	-2.6833	338.355	336.782	146.064	365.039	307.964	223.717	252.217	346.049	170.642	162.867	176.664	188.060	32.210	161.160	84.761	322.182	0.00014786	0.0018227	0.0013998	639.86	2.5096e-05	4.4413e-06	720.22	230.46	1.7342e-06	1.4541e-05	324.54	139.09	90.806	49.926	4.131e-05	81.296	0.003826	0.0035493	0.0010998	980.2	4.0834e-05	3.8257e-05	1023.8	344.47	3.9573e-05	3.6277e-05	487.88	194.48	135.41	64	4.0202e-05	101.31	168.752	39.936	158.982	43.311	35.724	297.637	44.601	49.776	284.871	253.759	48.299	53.824	55.434	59.948	225.846	56.776	-8191	255	
7953.350	1	1	0	0	0.26654	0.066625	0.050156	0.27296	0.044994	0.2818	0.26866	0.29084	0.27354	0.27252	0.16685	0.1731	0.10996	0.1689	0.22282	0.25048	-2.1042	-1.9542	-2.6333	-2.3396	-2.0021	-2.5125	-1.9646	-2.5563	-2.4167	-2	-2.6604	-2.2833	-2.2646	-2.6333	-2.0646	-2.4792	163.849	140.162	280.751	341.825	190.577	135.672	334.448	305.094	71.069	341.143	267.394	357.312	315.483	315.063	306.210	349.366	0.0002746	0.0027043	0.00060654	639.81	3.7394e-06	2.3743e-05	725.15	231.67	8.1645e-06	3.523e-05	324.61	140.06	91.252	50.007	1.0071e-05	81.339	0.0032085	0.0030735	0.0010113	916.03	3.4331e-05	3.3749e-05	1001.4	324.02	3.3752e-05	3.2797e-05	475.6	184.91	128.23	62.813	3.7481e-05	97.717	218.134	114.758	147.173	43.688	200.529	239.424	44.056	49.853	102.514	168.839	48.997	54.103	55.636	60.226	159.965	56.860	-8191	255	
7953.446	1	1	0	0	0.12082	0.058211	0.32545	0.082383	0.16568	0.11667	0.14042	0.2651	0.17732	0.053037	0.074485	0.23158	0.028751	0.10099	0.11779	0.070097	-2.1458	-1.8563	-2.5833	-2.4458	-2.0604	-2.8542	-2.2417	-2.3021	-2.4188	-2.05	-2.5167	-2.5667	-2.1	-2.8667	-2.2062	-2.4875	278.832	376.161	39.160	302.773	156.588	103.663	332.463	319.130	267.340	166.736	231.482	365.323	77.705	339.897	385.650	329.815	0.00049385	0.0025064	0.00054714	641.86	6.2882e-06	3.4051e-05	722.17	232.87	2.0251e-06	3.2678e-05	324.81	139.66	92.019	50.204	1.1916e-05	81.326	0.0028384	0.0029696	0.00094907	877.33	3.0792e-05	3.3569e-05	982.9	313.1	3.1045e-05	3.3712e-05	466.22	181.12	126.54	63.961	3.6408e-05	96.676	193.960	183.273	340.089	43.647	286.339	192.751	43.927	49.781	354.699	204.069	48.485	53.523	55.656	59.706	141.960	56.917	-8191	255	
7953.542	1	1	0	0	0.15594	0.12696	0.28855	0.20871	0.091469	0.10006	0.04395	0.40232	0.13214	0.28251	0.062791	0.2116	0.0057784	0.05169	0.11139	0.28395	-2.3229	-2.025	-2.4729	-2.5208	-2.0271	-2.7479	-2.2562	-2.2417	-2.6979	-1.7437	-2.3896	-2.6646	-2.2021	-2.6688	-2.2104	-2.1854	221.743	231.694	89.287	232.564	373.716	84.378	219.674	357.421	157.537	345.627	390.102	354.870	201.267	268.958	119.305	113.447	0.00048421	0.0024628	6.5463e-05	637.32	1.1161e-05	2.1269e-05	725.04	232.62	9.426e-06	3.9256e-05	323.27	137.76	91.06	49.646	2.4874e-05	80.777	0.0027783	0.0031963	0.00091674	870.13	3.0562e-05	3.6071e-05	974.54	311.09	3.1562e-05	3.6439e-05	460.78	179.62	127.72	65.217	3.5946e-05	96.211	210.441	161.031	64.514	43.837	269.732	182.104	43.571	50.396	188.816	180.776	48.324	54.091	55.749	59.870	387.082	56.963	-8191	255	
7953.661	1	1	0	0	0.17292	0.05606	0.18214	0.10986	0.2074	0.19408	0.29473	0.077069	0.11754	0.15782	0.17463	0.10548	0.14818	0.027223	0.1156	0.29229	-2.3167	-2.1875	-2.3708	-2.675	-1.975	-2.5917	-2.4896	-2.0771	-2.7083	-2.1688	-2.5521	-2.6312	-2.0542	-2.8083	-2.3542	-2.4333	51.901	133.683	373.067	341.415	45.761	86.716	317.682	152.067	266.785	136.391	387.525	62.083	37.614	332.203	97.040	61.383	0.00071796	0.0020579	0.00086079	636.57	2.7349e-05	1.205e-05	715.14	228.46	2.0206e-05	5.2789e-06	314.72	135.39	89.466	47.974	5.008e-06	77.805	0.0029692	0.0034905	0.00091364	874.55	3.366e-05	3.917e-05	974.62	311.7	3.5056e-05	3.8999e-05	456.28	179.18	132.13	65.41	3.4757e-05	95.074	184.787	158.954	349.225	44.224	237.668	162.289	44.359	50.840	216.481	268.293	49.032	54.928	57.110	61.131	292.576	57.964	-8191	255	
7953.733	1	1	0	0	0.15233	0.33609	0.071368	0.084263	0.14298	0.13717	0.17369	0.32806	0.32733	0.15315	0.27307	0.35048	0.17959	0.35637	0.17162	0.28186	-2.3187	-2.125	-2.3312	-2.8354	-2.05	-2.525	-2.6417	-2.3229	-2.7	-2.1604	-2.2313	-2.6688	-1.8083	-2.6521	-2.5375	-2.1437	57.767	148.112	131.559	237.879	132.600	353.665	375.568	122.812	215.152	380.815	385.421	317.574	54.203	37.158	50.845	306.467	0.0010548	0.00095002	0.0004899	613.31	3.4544e-05	7.3932e-06	696.69	225.78	1.3464e-05	8.7163e-06	312.37	134.15	89.377	47.783	2.4339e-05	77.736	0.0031697	0.0034218	0.00085531	856.3	3.5026e-05	3.6792e-05	945.68	304.24	3.5242e-05	3.5195e-05	440.51	175.12	131.32	62.851	3.1031e-05	93.423	194.640	194.836	374.884	45.137	210.537	325.249	45.319	51.414	223.005	79.141	49.598	55.375	57.493	60.910	103.530	58.361	-8191	255	
7953.831	1	1	0	0	0.042595	0.27605	0.29489	0.15213	0.066549	0.038527	0.25278	0.21516	0.13327	0.11634	0.1306	0.17909	0.070065	0.20534	0.13816	0.19254	-2.375	-2.1562	-2.0187	-2.7896	-2.2771	-2.575	-2.5604	-2.1708	-2.5208	-2.3771	-2.3729	-2.7625	-2.0708	-2.4688	-2.6167	-2.1104	36.955	240.632	185.078	61.737	379.572	269.850	34.485	267.871	102.577	352.041	294.442	158.525	63.472	42.820	318.546	344.816	0.0009587	0.00044663	0.00028579	619.9	1.0286e-05	1.81e-05	697.92	223.7	5.1927e-06	1.0548e-05	315.45	136.38	88.659	47.919	1.5836e-05	78.603	0.0030894	0.0029816	0.00075178	836.4	3.3403e-05	3.1383e-05	910.84	297.44	3.2909e-05	3.0143e-05	424.11	173.63	128.88	60.749	2.8001e-05	93.821	187.444	77.044	344.557	45.534	156.683	56.429	45.194	51.608	278.492	172.328	49.295	55.405	56.708	60.952	41.155	58.808	-8191	255	
7953.949	1	1	0	0	0.44426	0.17981	0.054618	0.21303	0.11922	0.2669	0.15954	0.13343	0.18887	0.074249	0.19593	0.068305	0.27	0.10903	0.10475	0.20743	-2.1813	-2.4146	-2.0812	-2.75	-2.2708	-2.4729	-2.6813	-2.2271	-2.6479	-2.6188	-2.2292	-2.8729	-2.2292	-2.4021	-2.7313	-2.375	155.625	59.808	163.266	61.990	98.007	352.161	176.776	267.828	240.086	179.367	293.642	389.832	322.220	260.992	116.439	308.473	0.0003919	0.00047052	0.00010817	619.28	1.082e-05	9.1486e-06	695.15	223.35	7.7784e-06	2.7047e-05	313.95	135.08	87.232	47.275	1.6428e-05	77.867	0.002963	0.0027282	0.00070224	844.8	3.2802e-05	2.9337e-05	898.58	303	3.2231e-05	2.8961e-05	418.55	176.01	126.95	59.665	2.6875e-05	94.406	149.506	154.789	57.478	45.428	197.952	353.901	45.758	51.867	284.452	353.296	49.995	55.521	56.603	61.009	124.757	58.414	-8191	255	
7954.046	1	1	0	0	0.16469	0.0060777	0.18071	0.19121	0.14156	0.22817	0.17608	0.30535	0.11793	0.060489	0.22218	0.099249	0.27414	0.31951	0.10644	0.16525	-2.2062	-2.6063	-2.2604	-2.65	-2.4646	-2.325	-2.7313	-2.0771	-2.6333	-2.6229	-2.3396	-2.7521	-2.3375	-2.3208	-2.7521	-2.4208	328.747	152.050	238.564	324.784	370.062	220.781	385.966	191.225	246.291	312.458	270.864	306.787	308.319	70.419	111.805	110.289	0.00033003	0.0022244	0.00047498	621.78	3.035e-05	8.6552e-06	702.97	223.93	9.3459e-06	1.3442e-05	313.48	133.28	87.155	46.923	8.7841e-06	77.635	0.0027777	0.0025686	0.00067581	853.49	3.0835e-05	2.8115e-05	901.01	309.22	3.126e-05	2.8682e-05	422.93	180.08	126.81	59.661	2.9394e-05	96.612	203.488	358.182	165.221	45.166	49.770	81.208	45.134	51.423	340.053	141.949	49.820	55.679	56.889	61.066	246.840	58.507	-8191	255	
7954.142	1	1	0	0	0.12663	0.15763	0.11887	0.35463	0.15233	0.34232	0.20127	0.13229	0.10981	0.10808	0.34109	0.15816	0.13117	0.15626	0.17447	0.13896	-2.0812	-2.5833	-2.1042	-2.8021	-2.5687	-2.2042	-2.9208	-2.3375	-2.4292	-2.5708	-2.1604	-2.7083	-2.4208	-2.3187	-2.7938	-2.3375	256.456	286.336	151.045	36.146	35.172	199.835	335.419	227.741	197.765	345.887	343.402	307.689	354.391	381.863	109.592	369.884	0.00017732	0.0012357	0.00098498	619.52	7.9014e-06	5.128e-06	705.73	226.08	6.4999e-06	1.226e-05	315.38	133.83	87.769	47.565	1.5027e-05	77.475	0.0028378	0.0026721	0.00076425	882.09	3.1611e-05	2.9158e-05	932.82	316.41	3.1237e-05	2.9239e-05	439.05	181.97	126.59	59.834	3.2652e-05	97.201	228.371	361.680	126.975	45.221	356.783	130.670	45.207	51.130	95.499	280.977	49.786	54.864	56.512	60.925	235.849	58.598	-8191	255	
7954.238	1	1	0	0	0.13428	0.099004	0.066372	0.089225	0.18922	0.38104	0.1493	0.13262	0.18733	0.11402	0.20409	0.32721	0.12998	0.26466	0.26503	0.13667	-1.7354	-2.6458	-2	-2.7708	-2.3729	-2.1188	-2.7958	-2.4333	-2.3917	-2.5646	-2.1625	-2.6208	-2.6188	-2.1042	-2.6917	-2.4	247.727	48.571	258.936	361.690	208.591	206.487	339.675	378.656	119.899	332.512	387.907	293.873	104.342	63.623	117.464	291.753	0.00044289	0.0011811	0.00066394	617.12	7.3539e-06	7.8074e-06	696.87	221.64	1.1594e-05	1.545e-05	313.63	133.69	87.988	47.662	2.9309e-05	78.074	0.002792	0.0026977	0.00084682	884.78	3.1765e-05	2.9807e-05	965.5	318.96	3.2288e-05	3.102e-05	460.87	183.79	128.61	61.237	3.7078e-05	98.268	185.221	72.149	128.458	45.125	64.574	343.714	45.561	51.790	360.163	139.394	49.551	55.139	56.551	61.054	209.464	57.999	-8191	255	
7954.334	1	1	0	0	0.13283	0.29717	0.075046	0.25413	0.15101	0.19135	0.039676	0.12284	0.19452	0.17158	0.17777	0.083745	0.17892	0.26156	0.1597	0.10785	-1.7	-2.6562	-2.1813	-2.4208	-2.7146	-2.0458	-2.7333	-2.2938	-2.1771	-2.7146	-2.1271	-2.3208	-2.6125	-2.0938	-2.4958	-2.5917	39.556	351.504	174.569	351.460	52.222	127.166	383.803	312.908	269.012	293.528	142.965	60.547	378.164	271.819	110.613	158.636	0.00048913	0.0015405	0.00041485	617.11	2.6134e-06	2.4558e-05	702.33	223.11	7.218e-06	3.2149e-05	312.18	134.2	87.774	47.722	1.9577e-05	77.597	0.0028973	0.0029263	0.00094819	888.2	3.2433e-05	3.2109e-05	990.93	317.94	3.2224e-05	3.3566e-05	472.64	182.63	128.62	62.922	3.8798e-05	97.499	209.837	172.487	200.098	44.602	135.996	188.321	45.384	51.038	176.045	185.651	49.634	54.638	56.529	60.940	73.758	58.093	-8191	255	
7954.430	1	1	0	0	0.16612	0.033875	0.14385	0.1942	0.060704	0.12785	0.08331	0.25467	0.12282	0.28838	0.14741	0.22398	0.30735	0.087004	0.32709	0.25862	-1.6542	-2.7479	-2.2396	-2.4521	-2.8271	-2.0708	-2.7229	-2.5062	-2.1271	-2.7958	-2.2958	-2.4979	-2.7583	-2.0708	-2.5521	-2.6083	137.634	114.098	80.652	343.590	247.059	351.595	95.507	379.035	368.957	317.005	191.092	50.008	185.725	195.559	364.770	114.674	0.00067475	0.0029171	0.00018199	620.43	1.5126e-05	3.9387e-05	700.79	226.31	5.0038e-06	3.562e-05	313.21	133.29	87.753	47.79	2.7929e-05	77.512	0.0028706	0.0031718	0.00096465	877.64	3.1622e-05	3.4498e-05	980.11	312.96	3.0854e-05	3.5303e-05	466.03	179.67	127.4	63.99	3.7361e-05	96.549	213.694	174.400	357.296	44.945	230.285	200.782	44.637	50.894	216.652	203.390	49.296	54.800	57.191	61.226	35.986	58.200	-8191	255	
7954.551	1	1	0	0	0.20836	0.11384	0.10023	0.1429	0.09282	0.093583	0.16049	0.065683	0.099844	0.23057	0.14573	0.15789	0.18018	0.21931	0.20921	0.031898	-1.7	-2.6458	-2.2521	-2.3	-2.8333	-2.15	-2.6083	-2.7271	-1.9813	-2.8854	-2.4521	-2.3625	-2.8458	-2.1	-2.3521	-2.6479	89.843	57.228	213.471	362.569	87.785	252.071	338.934	172.584	70.570	264.745	351.896	348.750	298.836	377.114	49.386	346.733	0.00035868	0.0016068	0.0007444	620.83	2.0198e-05	2.5347e-05	704.66	224.62	1.0091e-05	1.8576e-05	312.96	133.74	88.157	48.191	1.9394e-05	78.344	0.0028788	0.0034788	0.00096264	879.72	3.3669e-05	3.8921e-05	986.41	315.66	3.3392e-05	3.94e-05	464.77	179.56	130.72	65.747	3.6499e-05	96.449	215.418	118.408	346.438	44.856	225.201	220.672	44.882	50.779	227.092	99.635	49.389	55.022	56.895	60.967	70.296	57.628	-8191	255	
7954.647	1	1	0	0	0.064431	0.006272	0.11111	0.19903	0.15495	0.098063	0.06575	0.23746	0.20855	0.21618	0.23985	0.21577	0.13195	0.14223	0.030381	0.14657	-1.5917	-2.6729	-2.3479	-2.3646	-2.6562	-2.1979	-2.4813	-2.55	-2.2521	-2.6021	-2.4708	-2.2625	-2.8542	-2.3167	-2.3271	-2.7917	242.081	237.781	212.290	384.384	82.060	198.087	200.177	362.247	303.338	251.275	183.010	69.775	153.798	42.881	165.693	109.438	0.00086567	0.001095	0.00091503	622.29	2.9369e-05	1.1622e-05	700.8	222.34	2.4808e-05	1.7978e-05	310.78	133.09	88.92	47.404	1.5604e-05	76.862	0.0030935	0.0036543	0.00093732	878.62	3.6675e-05	4.1097e-05	983.59	317.35	3.7742e-05	4.199e-05	469.12	181.64	137.76	66.672	3.7243e-05	97.059	218.285	95.126	256.431	44.922	227.259	35.334	44.716	51.187	214.862	343.777	49.584	54.893	57.010	60.734	83.324	58.242	-8191	255	
7954.741	1	1	0	0	0.14243	0.14321	0.045676	0.19502	0.1915	0.099797	0.05656	0.26025	0.21084	0.20067	0.29174	0.15523	0.2243	0.1532	0.093106	0.17891	-1.6292	-2.6583	-2.4896	-2.275	-2.7292	-2.3479	-2.3375	-2.6854	-1.9396	-2.5333	-2.6958	-2.1729	-2.8104	-2.2938	-2.2521	-2.7354	277.848	60.106	190.403	366.789	269.113	151.757	288.936	308.066	219.494	34.875	258.030	232.054	355.027	294.317	163.425	51.610	0.0010225	0.0004421	0.00021794	622.96	2.3385e-05	1.3789e-05	697.94	222.75	1.7766e-05	1.2702e-05	311.58	134.63	89.186	47.871	1.1003e-05	78.417	0.0035057	0.0037195	0.00093647	878.91	3.9595e-05	3.9582e-05	966.12	313.81	3.9205e-05	3.8469e-05	456.7	179.81	139.42	65.299	3.5499e-05	97.834	193.830	339.134	334.323	44.768	217.624	362.652	45.485	51.252	236.722	318.549	49.860	54.586	57.015	60.695	61.736	58.023	-8191	255	
7954.838	1	1	0	0	0.07304	0.29585	0.15034	0.27145	0.15938	0.11302	0.42784	0.30349	0.15875	0.18648	0.15937	0.045793	0.15697	0.035246	0.12202	0.066408	-1.6625	-2.4938	-2.625	-2.3	-2.6688	-2.3104	-2.1771	-2.6917	-2.125	-2.4042	-2.9396	-2.3312	-2.5875	-2.7229	-2.075	-2.8875	72.189	376.471	170.536	298.640	48.272	64.653	385.265	318.706	275.128	222.830	34.520	157.131	251.295	42.599	360.012	41.738	0.00090087	0.0016313	0.00044199	625.24	3.0128e-05	1.1352e-05	695.22	224.13	1.4572e-05	1.3282e-05	305.94	134.14	87.98	47.418	1.477e-06	77.643	0.0037231	0.0035928	0.00093421	897.46	4.2822e-05	3.9469e-05	970.04	324.84	4.2787e-05	3.875e-05	459.39	185.93	142.07	64.748	3.4976e-05	99.338	188.350	58.036	358.842	45.071	206.647	61.343	44.636	51.661	132.710	34.089	49.306	55.158	56.608	60.855	140.761	58.764	-8191	255	
7954.958	1	1	0	0	0.057976	0.095037	0.079293	0.2005	0.088011	0.28209	0.1123	0.19448	0.3012	0.15111	0.1084	0.095395	0.18737	0.15409	0.15294	0.17512	-1.7854	-2.4583	-2.5979	-2.225	-2.7083	-2.5583	-2.4104	-2.8292	-2.1813	-2.4479	-2.775	-2.2396	-2.7646	-2.4854	-2.0479	-2.9167	202.736	191.114	201.937	268.377	44.436	162.135	221.943	363.192	207.681	386.531	250.757	308.618	95.315	74.649	252.772	382.435	0.00046372	0.0016755	0.00043308	618.87	8.143e-06	1.6118e-05	690.77	223.35	1.9943e-05	3.1926e-05	309.68	133.07	87.537	47.437	2.5788e-05	76.957	0.0037146	0.003412	0.00089826	915.49	4.1624e-05	3.7655e-05	958.78	332.13	4.1463e-05	3.7292e-05	455.08	189.72	139.8	63.922	3.4742e-05	100.99	226.649	84.628	71.578	45.070	157.374	312.722	44.992	51.812	51.869	392.456	50.034	55.171	57.063	60.684	173.119	58.347	-8191	255	
7955.030	1	1	0	0	0.15832	0.13075	0.19646	0.27766	0.1889	0.23561	0.11055	0.10917	0.11657	0.15665	0.13606	0.32047	0.088908	0.47135	0.05196	0.15584	-2.0021	-2.2208	-2.8833	-2.1937	-2.5771	-2.7896	-2.2354	-2.6833	-2.5438	-2.2833	-2.7542	-2.1771	-2.425	-2.8354	-2.2687	-2.8812	323.676	390.656	341.389	354.223	388.375	142.615	119.110	80.806	146.517	389.328	83.405	354.943	43.667	66.773	85.237	289.500	0.00023058	0.0018489	0.00035346	619.77	2.1908e-05	1.2141e-05	690.27	220.88	1.0214e-05	1.3653e-06	309.03	131.97	87.069	47.002	2.6589e-05	77.069	0.0035603	0.0032688	0.00088847	930.02	3.8666e-05	3.5478e-05	950.83	332.2	3.8062e-05	3.4594e-05	454.36	190.63	135.42	63.013	3.619e-05	101.73	275.382	46.735	139.420	45.442	68.339	41.015	45.485	51.292	39.612	75.013	50.218	55.375	56.684	61.295	212.593	58.407	-8191	255	
7955.126	1	1	0	0	0.1515	0.1739	0.043036	0.15398	0.13458	0.32123	0.10222	0.15236	0.13848	0.1486	0.18152	0.17466	0.10726	0.23681	0.16689	0.16385	-2.0812	-2.0667	-2.8625	-2.1396	-2.425	-2.7896	-2.2646	-2.6583	-2.5167	-2.2104	-2.9313	-2.45	-2.2458	-2.7562	-2.2396	-2.7917	287.942	52.151	305.328	55.957	305.111	75.918	147.277	282.314	46.198	39.011	316.009	48.711	325.947	305.147	119.402	272.818	0.00043571	0.0024162	0.0008631	611.39	2.4982e-06	1.2632e-05	695.42	222.44	6.0049e-06	1.0068e-05	312.3	133.28	87.674	47.288	2.7795e-05	77.141	0.0034273	0.0031872	0.00095712	939.03	3.7402e-05	3.4994e-05	978.84	334.09	3.6553e-05	3.3405e-05	465.89	189.32	131.95	62.049	3.7299e-05	100.01	196.113	313.877	145.816	45.185	175.132	329.634	45.613	51.043	79.812	386.657	50.288	55.100	56.465	60.837	236.726	58.465	-8191	255	
7955.222	1	1	0	0	0.12404	0.15038	0.30736	0.1492	0.24643	0.098774	0.058971	0.31711	0.05501	0.13798	0.23514	0.25576	0.27234	0.33405	0.24789	0.31912	-2.0833	-2.1229	-3.0083	-2.3708	-2.375	-2.7583	-2.2208	-2.5375	-2.7396	-2.225	-2.6875	-2.3896	-2.3083	-2.8458	-2.1437	-2.6146	308.849	350.520	357.519	34.554	243.934	375.459	95.081	353.189	239.439	234.141	282.701	318.826	36.087	342.204	154.222	363.228	0.00034663	0.00041728	0.0007011	618.21	9.5445e-06	1.6777e-05	694.35	220.85	9.9294e-06	2.0581e-05	311.4	131.23	87.192	47.5	4.8918e-05	77.044	0.0031833	0.0029975	0.00098588	920.7	3.5247e-05	3.4048e-05	998.06	327.89	3.5886e-05	3.4163e-05	480.96	187.45	131.6	62.887	4.0647e-05	99.045	276.623	188.646	127.310	45.386	108.212	288.018	45.666	50.865	95.780	187.220	50.532	54.664	56.792	61.091	178.440	57.914	-8191	255	
7955.343	1	1	0	0	0.18516	0.21084	0.058534	0.1427	0.029776	0.12971	0.21229	0.046097	0.087389	0.26735	0.19575	0.043357	0.064836	0.26315	0.037431	0.062006	-2.2125	-2.0917	-2.8063	-2.4646	-2.2479	-2.7833	-2.2333	-2.6771	-2.625	-2.2104	-2.8521	-2.4208	-2.2479	-2.8104	-2.2792	-2.5042	130.061	304.616	71.512	106.513	72.806	233.988	277.774	171.035	50.937	391.740	328.342	186.828	317.601	334.150	50.295	345.442	0.00016706	0.0024524	0.00022031	623.91	7.895e-06	2.2716e-05	706.18	224.78	1.6807e-05	3.2173e-05	312.13	133.72	88.213	47.89	1.3716e-05	77.263	0.0031597	0.0031935	0.0010525	914.96	3.5135e-05	3.6778e-05	1021.6	326.35	3.6143e-05	3.7353e-05	490.25	187	131.89	64.948	4.2324e-05	98.66	215.895	213.089	160.830	44.528	35.057	192.801	44.773	50.628	138.676	199.668	48.912	54.503	55.955	60.873	130.470	57.860	-8191	255	
7955.439	1	1	0	0	0.2796	0.10111	0.15186	0.28504	0.19388	0.12698	0.16982	0.26913	0.16131	0.15508	0.05994	0.065673	0.14036	0.11845	0.27827	0.30206	-2.3812	-1.9104	-2.6	-2.6083	-2.1375	-2.8167	-2.4083	-2.5604	-2.5958	-2.1708	-2.7958	-2.7042	-2.0312	-2.875	-2.4833	-2.5187	294.165	280.432	65.267	390.086	288.939	264.550	262.857	50.208	172.602	222.204	297.282	61.337	349.114	328.461	330.425	357.267	0.00054841	0.0035285	0.00019457	621.42	6.3584e-06	3.4263e-05	696.55	222.08	1.1424e-05	2.8314e-05	306.45	132.32	86.463	46.785	2.6229e-05	76.038	0.0031808	0.0035433	0.0010665	907.58	3.4921e-05	4.0119e-05	1015.6	323.05	3.5676e-05	4.0475e-05	481.09	184.73	131.1	66.183	4.0636e-05	97.545	189.585	143.339	315.020	44.431	170.072	219.839	45.247	50.924	161.415	177.370	49.065	55.024	56.676	61.744	52.318	58.603	-8191	255	
7955.533	1	1	0	0	0.15984	0.16334	0.24468	0.29541	0.064603	0.184	0.16283	0.17968	0.099117	0.21265	0.10314	0.1411	0.18438	0.16846	0.10209	0.073116	-2.4083	-2.1417	-2.3417	-2.7375	-2.075	-2.6917	-2.525	-2.2146	-2.7396	-2.1292	-2.6896	-2.6625	-2.1417	-2.775	-2.5896	-2.2917	316.434	345.670	295.084	269.201	179.953	266.580	344.220	304.127	33.167	107.248	212.162	373.423	359.713	375.288	153.682	303.259	0.00058737	0.0031845	0.0011627	615.16	2.2889e-05	1.1617e-05	697.04	222.3	3.4677e-05	1.339e-05	306.85	132.45	88.053	47.409	2.5958e-05	77.051	0.0031868	0.0037402	0.0010072	897.32	3.5296e-05	4.1884e-05	998.18	318.89	3.6579e-05	4.2215e-05	473.65	183.46	134.28	67.134	3.9099e-05	97.414	191.636	191.523	351.285	44.989	249.059	299.074	45.043	51.066	218.908	154.590	49.613	55.046	56.685	61.254	377.653	57.968	-8191	255	
7955.631	1	1	0	0	0.13865	0.15839	0.21637	0.19776	0.23694	0.09028	0.055831	0.44382	0.26605	0.31281	0.2071	0.049836	0.1698	0.33712	0.23029	0.12131	-2.2542	-2.2146	-2.3792	-2.65	-1.9875	-2.6	-2.5042	-2.0646	-2.7417	-2.1958	-2.4646	-2.9188	-2.1396	-2.6521	-2.5729	-2.2979	186.269	135.465	215.674	380.130	232.522	128.993	100.158	356.599	156.667	95.532	349.183	345.384	76.390	56.653	273.360	332.491	0.0010187	0.00049376	0.00031924	622.8	2.5629e-05	1.4016e-05	696.85	221.14	1.9253e-05	1.3446e-05	306.59	131.4	87.544	47.031	7.0223e-06	77.086	0.003411	0.0038713	0.00097647	896.52	3.8195e-05	4.2073e-05	986.6	315.08	3.8688e-05	4.0478e-05	460.52	180.35	136.29	65.763	3.6124e-05	95.745	195.323	327.640	339.714	45.205	200.289	389.243	45.278	51.062	202.476	98.921	49.753	55.692	57.314	61.286	63.146	58.526	-8191	255	
7955.727	1	1	0	0	0.15282	0.32967	0.11136	0.12196	0.18152	0.10873	0.19505	0.052586	0.17158	0.17429	0.10124	0.17258	0.20044	0.25752	0.12692	0.17353	-2.2958	-2.3812	-2.3792	-2.7333	-2.2771	-2.6146	-2.7	-2.0563	-2.7396	-2.1979	-2.3417	-2.8542	-2.0854	-2.6646	-2.4062	-2.2271	239.489	208.544	123.668	193.483	342.124	264.018	350.964	65.637	53.716	354.581	58.491	368.267	294.287	35.124	119.295	377.675	0.00082101	0.002367	0.00076118	622.55	2.8129e-05	1.2291e-05	694.82	221.14	1.7158e-05	3.3899e-05	309.29	132.43	87.565	47.347	7.2863e-06	77.497	0.003483	0.0035675	0.00090283	879.46	3.9055e-05	3.8346e-05	959.69	310.17	3.8779e-05	3.6883e-05	446.84	178.32	136.52	63.378	3.3098e-05	95.429	202.803	329.522	264.169	45.661	260.427	369.366	45.402	51.669	256.833	389.578	49.659	55.427	57.028	61.093	339.033	58.371	-8191	255	
7955.822	1	1	0	0	0.12604	0.015402	0.19679	0.44906	0.18447	0.26017	0.16138	0.13785	0.16844	0.13291	0.06612	0.36283	0.19672	0.33536	0.25106	0.26637	-2.4229	-2.4521	-2.0187	-2.9271	-2.2812	-2.4625	-2.7792	-2.0958	-2.6	-2.375	-2.0417	-2.9792	-2.2104	-2.3563	-2.7562	-2.1375	196.536	369.535	291.420	376.933	358.399	87.674	88.296	376.765	329.168	117.590	331.574	361.943	52.392	305.939	67.072	76.027	0.00040122	0.0021017	0.00059316	617.62	6.0814e-06	5.7159e-06	698.1	223.39	1.3397e-05	8.7854e-06	311.61	134.13	88.01	47.552	1.591e-06	77.273	0.0034115	0.0031921	0.00081578	871.14	3.7649e-05	3.4159e-05	936.29	311.66	3.7789e-05	3.3976e-05	436.48	180.79	135.29	62.472	3.2048e-05	97.246	184.665	381.905	385.115	45.370	87.087	136.458	45.239	51.540	57.266	380.032	49.718	55.165	56.546	60.572	85.047	58.656	-8191	255	
7955.918	1	1	0	0	0.28297	0.20069	0.21671	0.29525	0.16625	0.28765	0.25789	0.10044	0.16866	0.18845	0.16114	0.15582	0.18153	0.20629	0.069908	0.29537	-2.15	-2.4229	-2.1833	-2.8979	-2.2021	-2.3646	-2.8187	-2.2271	-2.7333	-2.5958	-2.2687	-2.8333	-2.3458	-2.2854	-2.6729	-2.2167	127.493	143.259	312.447	378.284	168.071	46.942	348.372	46.773	279.778	163.391	310.916	83.333	278.714	290.335	249.049	292.684	0.00039917	0.0013154	0.00018914	624.15	6.9777e-06	3.2944e-06	697.12	222.47	2.259e-05	1.438e-05	311.07	133.61	87.849	47.157	2.9148e-05	77.698	0.0033894	0.0031284	0.00080991	901.08	3.7735e-05	3.402e-05	939.55	322.56	3.7429e-05	3.405e-05	441.48	187.04	134.89	62.298	3.2816e-05	99.686	196.563	170.256	130.834	45.493	46.610	63.213	45.655	51.411	75.018	342.388	49.983	55.292	56.512	60.790	183.430	58.509	-8191	255	
7956.039	1	1	0	0	0.22537	0.1255	0.29189	0.18373	0.24773	0.21556	0.27369	0.08042	0.12154	0.18384	0.20407	0.080556	0.11095	0.13656	0.26812	0.23177	-1.9917	-2.4875	-2.1813	-2.9813	-2.4313	-2.0938	-2.7792	-2.2188	-2.5417	-2.6688	-2.0438	-2.8438	-2.2625	-2.2188	-2.7542	-2.2313	119.357	46.426	294.364	250.342	256.159	249.687	305.354	355.365	296.899	138.363	319.044	276.964	381.733	282.590	305.820	328.684	0.00038239	0.0020624	0.00045413	629.45	1.9231e-05	2.4741e-05	699.55	222.61	1.9569e-05	1.9256e-05	311.74	132.31	87.053	47.209	3.9855e-05	77.775	0.0032787	0.0030691	0.00083725	922.58	3.6396e-05	3.3183e-05	953.73	329.36	3.6109e-05	3.3626e-05	452.38	189.57	132.84	62.021	3.5175e-05	100.54	212.660	377.472	180.534	45.317	59.942	343.657	45.908	51.690	53.528	64.399	50.038	55.667	56.774	61.248	223.811	58.200	-8191	255	
7956.135	1	1	0	0	0.34477	0.20068	0.30068	0.23003	0.19225	0.26464	0.19469	0.16415	0.10662	0.13233	0.063413	0.26597	0.1367	0.02012	0.24377	0.31307	-1.9271	-2.6063	-2.0854	-2.8646	-2.6188	-2.1375	-2.8729	-2.3917	-2.3729	-2.6958	-2.3479	-2.5104	-2.4833	-2.2188	-2.8937	-2.3625	388.330	59.085	277.240	356.431	379.041	295.031	335.923	330.926	136.772	358.536	68.092	365.764	84.849	261.145	333.278	308.557	0.00021997	0.00077628	0.0011017	622.88	3.7742e-06	4.3965e-06	701.91	222.25	1.131e-05	8.6893e-06	312.37	132.94	87.776	47.514	3.0654e-05	77.305	0.0031507	0.0029879	0.00089973	921.82	3.4956e-05	3.2058e-05	976.41	327	3.428e-05	3.2181e-05	462.61	186.61	130.13	61.276	3.6628e-05	98.737	190.917	133.209	149.807	45.159	67.678	170.878	45.812	50.851	91.172	269.122	50.124	55.287	56.906	61.336	198.075	58.425	-8191	255	
7956.231	1	1	0	0	0.12768	0.12781	0.51451	0.16813	0.18227	0.23678	0.19487	0.18783	0.16671	0.27166	0.1541	0.25985	0.16257	0.2798	0.20191	0.12003	-1.8	-2.9021	-2.2271	-2.6917	-2.6604	-2.1562	-2.9042	-2.4792	-2.1229	-2.8354	-2.4	-2.5729	-2.6583	-2.2333	-2.6625	-2.5438	242.576	108.056	219.693	39.468	222.940	299.975	346.559	318.433	357.158	364.209	370.485	354.385	322.082	356.604	40.618	373.409	0.00048069	0.0031763	0.00048609	619.67	1.1268e-05	2.2732e-05	702.48	223.8	1.0871e-05	2.7533e-05	312.76	133.4	88.007	47.842	1.6227e-05	78.32	0.002939	0.0028589	0.00092394	893.06	3.2078e-05	3.0554e-05	974.67	315.12	3.0929e-05	3.0321e-05	457.52	179.28	125.31	60.658	3.5209e-05	95.658	209.477	158.654	130.327	44.821	81.127	219.547	45.387	50.604	176.809	144.146	49.935	54.933	56.520	61.111	243.063	58.068	-8191	255	
7956.327	1	1	0	0	0.049568	0.11573	0.17104	0.22171	0.24157	0.13687	0.20309	0.11951	0.39367	0.088515	0.14506	0.4629	0.13021	0.30299	0.17301	0.27901	-1.8604	-2.6625	-2.3083	-2.5375	-2.6521	-2.1292	-2.6354	-2.5958	-2.2708	-2.8979	-2.2792	-2.3521	-2.5604	-2.1333	-2.6854	-2.5354	156.680	159.786	263.875	357.639	389.296	240.981	331.774	349.968	139.378	101.647	302.265	371.098	370.655	315.335	335.854	370.538	0.00043307	0.0018783	0.00039646	622.15	9.5737e-06	3.4534e-05	701.69	221.31	3.4041e-06	3.1314e-05	312.57	133.19	87.654	47.768	1.4222e-05	77.218	0.0026555	0.0028003	0.00089256	860.57	2.9565e-05	3.13e-05	968.8	308.27	2.9524e-05	3.2284e-05	457.85	177.07	124.39	61.962	3.5082e-05	94.885	169.769	149.624	114.155	45.169	382.805	185.883	44.990	50.892	220.125	170.115	49.910	55.190	56.926	61.247	361.719	58.862	-8191	255	
7956.423	1	1	0	0	0.094346	0.25029	0.16843	0.15179	0.11711	0.27165	0.085539	0.23354	0.099243	0.16222	0.07009	0.15513	0.14012	0.24735	0.28027	0.14197	-1.6146	-2.7375	-2.2313	-2.3438	-2.6813	-2.0563	-2.8688	-2.5438	-2.0729	-2.825	-2.2083	-2.2396	-2.8333	-2.15	-2.4208	-2.6437	63.484	108.527	149.465	276.085	39.967	87.883	365.627	187.455	167.845	282.290	366.769	44.830	69.904	370.107	378.602	50.223	0.0007116	0.0011603	0.00047475	616.28	1.0115e-05	2.3403e-05	706.93	223.53	8.7065e-06	1.1089e-05	311.89	134.45	88.868	48.185	1.887e-05	78.441	0.002603	0.0030595	0.00088008	852.33	2.9261e-05	3.3629e-05	957.43	304.72	2.8987e-05	3.4256e-05	449.91	175.88	125.01	63.574	3.3931e-05	95.278	196.287	128.312	290.925	45.098	342.000	194.463	44.864	51.156	313.726	174.838	49.886	54.662	57.128	60.779	43.162	58.051	-8191	255	
7956.519	1	1	0	0	0.046812	0.13068	0.15377	0.13235	0.17159	0.053082	0.098121	0.069661	0.10352	0.13681	0.21726	0.014897	0.26107	0.19931	0.11443	0.11085	-1.6646	-2.55	-2.25	-2.3	-2.7208	-2.2875	-2.4938	-2.7333	-1.8958	-2.7333	-2.6354	-2.2687	-2.7667	-2.2292	-2.4583	-2.7729	306.047	267.257	335.864	83.208	38.709	54.495	123.030	224.730	95.942	196.910	70.116	37.841	355.073	54.051	164.521	330.548	0.00051541	0.0026947	0.00057757	624.62	2.853e-05	1.3678e-05	698.97	224.38	2.0927e-05	1.3067e-05	311.75	134.1	88.422	47.674	1.7273e-05	78.032	0.0027387	0.003312	0.00087343	857.85	3.1778e-05	3.6811e-05	959.22	307.2	3.2453e-05	3.7359e-05	452.07	176.91	129.9	64.708	3.3788e-05	95.541	209.652	133.850	309.144	44.883	198.600	208.073	45.054	51.458	238.837	205.940	50.253	55.277	57.137	61.061	53.599	58.637	-8191	255	
7956.640	1	1	0	0	0.12598	0.15902	0.21887	0.32209	0.19624	0.15484	0.19052	0.41587	0.18779	0.24389	0.22064	0.12085	0.25582	0.1882	0.056629	0.3799	-1.4729	-2.5625	-2.45	-2.1583	-2.7021	-2.2646	-2.5479	-2.7792	-2.2792	-2.6375	-2.725	-2.3729	-2.9813	-2.3417	-2.1583	-3.0687	125.789	35.258	329.465	142.996	190.747	175.370	318.785	363.289	392.850	211.489	361.245	120.708	241.206	358.120	340.890	360.308	0.0009209	0.001132	0.00040245	614.12	3.0334e-05	8.6281e-06	700.71	222.89	2.355e-05	1.5872e-05	309.92	131.66	88.274	47.211	1.5407e-05	77.428	0.0030368	0.0034234	0.00086535	855.56	3.4992e-05	3.7286e-05	953.78	307.45	3.5828e-05	3.7524e-05	451.26	176.7	135.43	64.587	3.4052e-05	95.665	207.723	354.356	383.626	44.773	213.790	345.685	45.301	51.535	242.810	60.605	50.186	55.458	57.581	61.331	387.262	58.788	-8191	255	
7956.734	1	1	0	0	0.20005	0.22052	0.1128	0.03951	0.13521	0.14535	0.12347	0.063637	0.17432	0.046395	0.38293	0.13246	0.18199	0.26458	0.12315	0.080276	-1.7354	-2.5417	-2.7479	-2.2479	-2.7812	-2.2812	-2.2083	-2.8854	-2.0604	-2.5396	-2.5292	-2.1146	-2.7958	-2.4729	-2.2375	-3.0375	218.521	384.205	285.290	387.326	318.013	341.695	273.797	383.456	110.946	258.274	319.291	297.230	284.650	183.733	189.343	311.824	0.00089054	0.00067503	0.00048773	626.11	1.6178e-05	2.2941e-05	696.8	223.4	3.9592e-06	2.4779e-05	313.67	134.41	88.044	47.668	1.9278e-05	77.754	0.0034052	0.0034199	0.00087986	870.63	3.8854e-05	3.7042e-05	952.24	311.99	3.8833e-05	3.6487e-05	448.43	179.2	137.83	63.761	3.3189e-05	97.072	182.625	374.933	315.330	45.127	208.447	370.780	45.200	51.548	238.477	307.604	49.348	55.065	57.116	60.888	59.565	58.296	-8191	255	
7956.831	1	1	0	0	0.29309	0.055164	0.15655	0.15594	0.11537	0.14518	0.20594	0.28371	0.089583	0.32745	0.093802	0.099113	0.070826	0.15839	0.18241	0.1325	-1.7875	-2.3021	-2.6979	-2.0792	-2.7021	-2.5854	-2.1958	-2.7938	-2.1354	-2.5042	-2.7917	-2.2646	-2.9875	-2.5833	-2.1188	-2.9104	294.993	112.279	377.334	380.984	390.322	154.542	260.814	311.994	391.602	339.518	271.595	79.986	370.141	375.249	260.348	47.700	0.00059594	0.0024044	0.00019158	625.14	5.2968e-06	1.0807e-05	689.53	221.87	1.9149e-05	5.5278e-06	311.4	133.42	88.133	47.446	1.7351e-05	77.466	0.0035358	0.0032784	0.00086017	890.71	3.9628e-05	3.599e-05	946.36	320.97	3.98e-05	3.5777e-05	448.62	185.2	139.07	63.888	3.3668e-05	100.12	196.497	350.078	327.557	45.368	152.571	327.562	44.892	51.724	40.211	99.552	49.588	55.579	56.643	61.269	211.089	58.708	-8191	255	
7956.902	1	1	0	0	0.36513	0.20808	0.21119	0.064068	0.22175	0.10451	0.30736	0.35556	0.18092	0.14873	0.11262	0.14018	0.21239	0.1387	0.26571	0.28288	-1.8125	-2.3354	-2.7396	-2.1667	-2.575	-2.5729	-2.2229	-2.675	-2.2896	-2.1958	-2.9208	-2.2167	-2.6063	-2.6521	-2.1667	-3.0104	200.139	329.596	89.758	384.495	354.240	390.179	265.212	321.933	51.783	146.446	74.591	113.715	262.362	343.926	175.947	325.013	0.0003423	0.0012644	0.00016564	624.5	7.0326e-06	7.0098e-06	701.06	223.76	8.7201e-06	2.4585e-05	314.26	134.25	87.128	47.507	2.8724e-05	78.115	0.0035809	0.0032815	0.00087841	926.24	4.0052e-05	3.6663e-05	960.39	334.92	4.0339e-05	3.6553e-05	459.04	192.63	139.51	64.51	3.6395e-05	103.58	159.492	41.827	153.492	45.872	377.206	167.304	44.858	51.780	115.018	381.256	49.962	54.846	56.507	60.728	228.501	58.254	-8191	255	
7956.998	1	1	0	0	0.13336	0.12762	0.22677	0.15526	0.25671	0.016913	0.1372	0.042508	0.11362	0.05722	0.20356	0.38273	0.091423	0.31651	0.089818	0.18039	-1.9042	-2.175	-2.7375	-2.2833	-2.5104	-2.8542	-2.1354	-2.8833	-2.3833	-2.25	-2.9021	-2.275	-2.3375	-2.7812	-2.0062	-2.8542	152.510	260.807	60.376	74.160	330.960	277.326	205.896	45.749	143.291	96.461	380.254	307.678	285.997	368.477	84.139	367.793	0.00010839	0.0014469	0.00034417	628.94	2.2833e-05	9.0047e-06	697.62	222.66	2.4094e-05	2.2202e-05	307.89	131.53	86.574	47.211	3.6343e-05	76.922	0.0036473	0.0033788	0.0009681	964.28	4.0427e-05	3.7935e-05	996.43	346.56	4.1524e-05	3.8302e-05	482.17	199.82	142.02	65.911	4.3146e-05	106.65	235.130	93.971	140.847	44.839	51.072	180.891	45.431	51.454	82.262	96.535	50.095	55.463	56.998	61.533	211.453	58.151	-8191	255	
7957.119	1	1	0	0	0.23316	0.082644	0.15186	0.20302	0.14239	0.098091	0.12764	0.14406	0.060654	0.11159	0.16299	0.10335	0.19813	0.15693	0.13737	0.15247	-2.1042	-2.15	-2.8958	-2.4854	-2.3604	-2.6021	-2.0708	-2.6562	-2.6396	-2.1208	-2.8083	-2.4062	-2.3312	-2.8396	-2.3104	-2.6417	353.278	368.037	200.223	288.766	205.429	358.035	272.174	198.656	116.173	368.529	359.251	295.354	282.858	35.349	336.820	336.412	0.00012496	0.0010818	0.00094669	631.96	5.1599e-06	6.7589e-06	694.69	219.63	1.1789e-05	2.9249e-05	310.39	130.78	87.36	47.775	5.2658e-05	76.99	0.0039129	0.0037037	0.001174	1015.4	4.4646e-05	4.2653e-05	1075.1	362.2	4.6396e-05	4.3495e-05	528.6	209.17	150.28	69.465	5.4656e-05	110.98	245.656	385.087	129.936	44.999	289.967	338.367	45.666	51.406	307.838	243.152	50.185	54.533	55.975	60.948	221.850	58.085	-8191	255	
7957.215	1	1	0	0	0.080705	0.34094	0.10452	0.0084009	0.058836	0.089974	0.10571	0.13944	0.12134	0.018076	0.40993	0.2573	0.18491	0.21588	0.21394	0.19284	-2.2542	-2.0708	-2.9146	-2.3521	-2.1771	-2.7687	-2.1708	-2.5792	-2.7562	-2.1146	-2.4979	-2.3458	-2.4521	-3.0417	-2.2667	-2.4313	258.576	288.307	147.630	315.437	371.156	122.346	331.201	345.524	160.619	314.397	327.716	269.665	241.831	340.424	160.739	198.865	0.00020491	0.00097676	0.00097333	632.86	1.6499e-05	2.3299e-05	701.36	220.17	1.1838e-05	2.3143e-05	309.61	131.31	87.445	47.685	2.0027e-05	76.357	0.0045624	0.0044548	0.0014944	1081.8	5.218e-05	5.209e-05	1183.4	381.73	5.3328e-05	5.2888e-05	581.12	217.4	158.18	74.399	6.446e-05	114.27	258.599	221.601	125.186	44.470	67.304	218.726	45.536	50.821	143.546	177.155	49.628	54.694	56.518	60.951	119.978	57.938	-8191	255	
7957.311	1	1	0	0	0.047387	0.21057	0.12599	0.13034	0.013346	0.13724	0.30505	0.11564	0.10768	0.2612	0.096748	0.43322	0.48275	0.16063	0.06163	0.24815	-2.2625	-2.0458	-2.7229	-2.5396	-2.3583	-2.8396	-2.5062	-2.5667	-2.6771	-1.925	-2.8104	-2.5625	-2.2271	-2.9333	-2.25	-2.3979	74.759	157.860	391.000	245.786	272.218	88.778	356.311	245.822	225.948	371.329	251.119	39.303	365.570	180.622	229.495	344.350	7.9021e-05	0.0059269	0.00029324	626.86	1.7906e-05	2.3847e-05	700.94	220.32	6.716e-06	4.0393e-05	308.06	131.3	88.982	48.052	5.1585e-05	76.595	0.0050372	0.0053823	0.0017363	1135.8	5.8711e-05	6.471e-05	1282	407.06	6.2449e-05	6.819e-05	638.66	234.36	174	83.816	7.6113e-05	121.35	173.886	172.386	333.962	45.134	88.806	255.707	44.257	51.174	386.063	213.884	49.379	55.142	56.485	61.566	368.005	58.100	-8191	255	
7957.430	1	1	0	0	0.13264	0.1366	0.06456	0.14211	0.10836	0.302	0.0080349	0.13775	0.12504	0.35411	0.084268	0.21115	0.26584	0.088643	0.17752	0.11924	-2.3937	-2.05	-2.6437	-2.775	-2.0521	-2.8125	-2.5604	-2.3271	-2.8646	-2.2146	-2.675	-2.8417	-2.15	-2.7479	-2.4729	-2.3417	94.604	317.903	168.309	387.806	158.272	353.173	166.861	57.039	354.670	233.138	342.066	359.059	60.246	75.613	238.505	157.887	0.00068907	0.00020816	0.00057121	650.54	1.8418e-05	3.9451e-05	712.78	222.01	9.2532e-06	3.7479e-05	307.96	133.2	93.128	48.608	4.9745e-05	77.18	0.005901	0.0068215	0.0019645	1214.7	6.619e-05	7.7932e-05	1337.6	423.58	6.8503e-05	7.8895e-05	652.95	240.61	183.64	88.776	7.7649e-05	123.41	263.537	102.697	377.889	44.429	241.119	200.081	45.011	50.877	257.041	219.814	49.081	54.635	56.523	60.685	45.060	57.660	-8191	255	
7957.504	1	1	0	0	0.12515	0.19888	0.1617	0.18994	0.19066	0.15936	0.12124	0.081756	0.077128	0.18075	0.074433	0.18957	0.19039	0.096462	0.28077	0.16773	-2.5125	-2.2875	-2.5812	-2.6979	-2.0187	-2.9104	-2.4771	-2.2313	-2.8083	-2.3187	-2.5812	-2.8208	-2.2021	-2.7896	-2.3771	-2.3021	84.941	191.167	122.754	163.400	232.869	59.642	302.080	73.667	50.663	54.593	243.511	38.454	297.738	310.429	183.422	303.477	0.0013898	0.0030631	0.00058836	656.36	3.9691e-05	6.1852e-06	713.27	224.8	6.1055e-05	9.6269e-06	304.88	131.56	93.373	47.441	3.6531e-05	76.079	0.0064539	0.0075873	0.0019923	1246.4	7.3906e-05	8.63e-05	1361.9	433.72	7.7767e-05	8.6853e-05	663.48	245.66	199.14	91.969	8.0302e-05	125.19	182.063	141.787	336.840	44.675	228.302	301.811	45.171	50.663	244.012	155.456	49.122	55.551	57.582	61.056	64.491	58.157	-8191	255	
7957.600	1	1	0	0	0.32482	0.33798	0.20234	0.28063	0.18634	0.24444	0.13936	0.22083	0.26518	0.09247	0.097944	0.30149	0.21401	0.16026	0.10197	0.093781	-2.5563	-2.3458	-2.5771	-2.7438	-2.175	-2.7938	-2.7792	-2.4667	-3.0375	-2.4896	-2.5229	-2.8354	-2.2896	-2.9062	-2.6167	-2.1063	70.076	237.516	81.999	54.309	273.357	359.092	359.363	229.189	138.010	290.410	241.207	74.588	304.832	363.285	197.127	304.333	0.0015334	0.0030773	0.00069903	658.74	4.6826e-05	1.9772e-05	718.19	225.35	3.7154e-05	5.3058e-05	312.8	133.09	94.61	47.956	2.7602e-05	76.513	0.0073885	0.0080453	0.0020415	1277.1	8.5045e-05	9.047e-05	1397.8	448.41	9.132e-05	9.373e-05	697.76	261.5	226.21	97.557	9.1396e-05	135.03	185.077	269.858	322.836	44.950	255.757	352.312	45.044	51.426	241.091	386.173	49.488	55.598	57.230	60.621	317.689	57.971	-8191	255	
7957.719	1	1	0	0	0.27965	0.2802	0.076894	0.13724	0.17017	0.22471	0.24259	0.22057	0.17316	0.17112	0.10078	0.20471	0.45427	0.035935	0.088554	0.245	-2.6396	-2.45	-2.2333	-3.0333	-2.4417	-2.5687	-2.7521	-2.1792	-2.9521	-2.3729	-2.3937	-2.8896	-2.3354	-2.6896	-2.6958	-2.2771	390.090	180.904	192.592	312.612	371.676	282.137	354.911	392.018	130.516	62.835	280.495	144.027	94.322	352.221	384.974	291.257	0.00075908	0.0014137	0.0015025	677.53	1.8736e-05	4.7833e-05	726.78	232.69	1.1585e-05	4.3667e-05	315.2	136.06	95.402	48.877	5.3338e-05	77.776	0.0092594	0.0092162	0.0023693	1426.4	0.00010679	0.00010266	1514.5	501.44	0.00011094	0.00010336	746.54	287.58	248.85	100.86	9.7531e-05	145.09	176.813	301.568	322.158	45.221	210.493	367.196	44.824	51.554	283.338	369.641	48.793	55.464	56.042	60.178	363.977	58.540	-8191	255	
7957.815	1	1	0	0	0.29618	0.28192	0.092616	0.19628	0.071442	0.12538	0.21525	0.068106	0.29817	0.13063	0.022911	0.17901	0.19614	0.34449	0.029734	0.42308	-2.3542	-2.3688	-2.2125	-2.7938	-2.4062	-2.4708	-2.8104	-2.0604	-2.6917	-2.6542	-2.1354	-3.0021	-2.4479	-2.5062	-2.9229	-2.4604	316.822	110.644	143.042	335.045	322.501	188.646	258.557	221.590	94.032	278.804	108.107	291.878	328.886	368.311	255.939	365.520	0.00017053	0.0026287	0.00026222	689.46	1.5019e-05	1.7912e-05	736.34	236.37	4.1796e-05	1.2515e-05	318.66	137.82	96.26	48.948	1.1707e-05	77.446	0.010199	0.0094911	0.0024601	1541.6	0.00011531	0.0001055	1561.7	550.54	0.00011945	0.00010938	781.52	318.46	264.47	105.47	0.00010629	160.31	64.103	34.680	60.128	45.615	55.238	72.577	44.408	51.606	68.126	92.224	49.082	55.834	55.549	60.151	289.091	58.873	-8191	255	
7957.911	1	1	0	0	0.087008	0.079346	0.20958	0.15248	0.13211	0.086234	0.2255	0.23007	0.15901	0.15659	0.15074	0.17628	0.21903	0.15904	0.20996	0.17052	-2.3	-2.6354	-2.2271	-3.0083	-2.2458	-2.2604	-2.9333	-2.2646	-2.5417	-2.7792	-2.2875	-2.9292	-2.4333	-2.4604	-2.8979	-2.2229	389.194	363.533	221.271	110.120	42.440	109.933	377.209	292.708	148.508	52.132	347.644	97.091	33.749	245.634	315.773	297.839	0.00072377	0.0049974	0.00062984	700.18	5.7811e-05	2.8492e-05	746.2	242.36	5.9254e-05	3.8985e-05	322.92	135.78	95.6	48.904	4.8565e-05	78.789	0.011023	0.010339	0.0027144	1723.4	0.00012328	0.00011247	1647.3	602.84	0.00012264	0.00011325	815.86	338.02	263.85	105.8	0.00011243	166.98	373.611	380.038	209.421	45.718	54.729	386.358	45.275	51.203	46.020	359.419	50.058	55.515	56.125	60.445	179.243	58.175	-8191	255	
7958.032	1	1	0	0	0.098152	0.23227	0.18949	0.081947	0.18825	0.18862	0.16742	0.26175	0.12282	0.22644	0.29184	0.29345	0.21831	0.36446	0.12401	0.17377	-2.3563	-2.6729	-2.1542	-2.875	-2.65	-2.4229	-2.9562	-2.4437	-2.4958	-2.6396	-2.4813	-2.8187	-2.5646	-2.4708	-3.0687	-2.4437	117.619	380.970	304.365	163.412	385.549	386.605	364.034	343.315	144.478	150.211	352.694	287.986	367.971	358.098	160.891	335.032	0.00073631	0.0029519	0.002234	695.43	4.958e-05	3.9916e-05	755.89	240.2	2.5769e-05	4.0443e-05	326.6	135.33	97.581	49.851	0.00011873	78.337	0.010697	0.010171	0.0028644	1770.7	0.00011935	0.00011054	1716.7	621.66	0.00012002	0.00011334	868.34	347.34	265.94	107.34	0.00012778	172.88	314.493	293.605	162.435	45.041	58.105	364.675	45.735	50.877	73.185	391.778	50.356	54.525	55.957	59.748	234.671	57.282	-8191	255	
7958.128	1	1	0	0	0.13057	0.2803	0.18771	0.1652	0.25643	0.31029	0.21056	0.05729	0.2156	0.14092	0.092637	0.27548	0.14537	0.28208	0.24138	0.12514	-2.1625	-2.95	-2.1833	-2.7333	-2.6542	-2.3375	-2.9562	-2.4604	-2.3958	-3.0271	-2.3375	-2.7583	-2.7646	-2.1875	-2.9354	-2.4479	175.430	236.435	155.663	64.547	306.031	180.113	352.490	328.529	322.836	266.600	88.862	289.960	190.433	387.566	134.252	33.286	0.00021005	0.0024262	0.0027766	711.77	5.1627e-05	1.6682e-05	760.68	240.52	3.2393e-05	2.6197e-05	329.62	138.23	99.239	50.852	9.3887e-05	77.316	0.011086	0.010704	0.0033233	1837.2	0.00012497	0.000116	1873.8	634.82	0.00012226	0.00011683	932.65	346.52	265.71	108.58	0.00013565	168.24	358.822	302.183	146.290	43.511	111.409	186.567	45.177	50.035	66.586	145.856	49.946	53.831	55.482	60.774	217.117	57.926	-8191	255	
7958.199	1	1	0	0	0.21583	0.22712	0.22481	0.17667	0.13231	0.055745	0.10933	0.1722	0.092851	0.20147	0.12359	0.35965	0.1807	0.22026	0.20789	0.22356	-1.8896	-2.9271	-2.2604	-2.7875	-2.575	-2.0875	-2.9833	-2.6437	-2.175	-3.0667	-2.35	-2.6875	-2.9792	-2.2062	-2.6833	-2.8125	364.053	145.631	81.775	275.272	202.685	134.848	341.220	310.612	215.168	205.754	367.938	362.795	346.589	360.789	310.591	322.088	0.00023533	0.0037211	0.001729	695.12	4.4292e-05	4.2043e-05	751.68	239.05	3.0339e-05	6.764e-05	324.81	138.65	99.809	51.403	2.8941e-05	78.972	0.010587	0.010661	0.0034367	1755.4	0.00011887	0.00011645	1887.9	606.94	0.00011613	0.00011904	944.3	334.17	259.34	111.9	0.00013769	165.41	66.386	148.427	113.146	44.266	54.973	204.793	45.480	50.450	375.048	171.786	49.617	54.055	55.349	60.598	321.037	57.226	-8191	255	
7958.295	1	1	0	131072	0.045882	0.12554	0.28997	0.31986	0.12702	0.11984	0.19713	0.20269	0.23691	0.2443	0.087948	0.17978	0.095057	0.17161	0.32786	0.11611	-1.9521	-3.0333	-2.3146	-2.4188	-2.7833	-2.2771	-2.8583	-2.7521	-2.4625	-3.0583	-2.5792	-2.6208	-2.8708	-2.4313	-2.75	-3.0146	36.514	60.323	154.763	304.121	287.574	288.385	318.308	323.681	211.600	58.197	282.128	58.829	328.705	297.898	77.121	351.669	0.00043591	0.0088447	0.00098554	702.19	1.3068e-05	9.9901e-05	758.65	241.24	2.6143e-05	6.493e-05	323.37	138.56	99.89	51.627	5.2911e-05	79.29	0.010369	0.011504	0.003537	1740.7	0.00011901	0.0001291	1928.3	611.14	0.00011813	0.00013377	966.49	337.37	264.81	120.51	0.00014018	167.82	89.222	158.650	341.966	44.230	51.169	197.354	44.751	50.211	147.640	199.416	48.730	54.788	56.309	61.012	39.433	57.445	-8191	255	
7958.416	1	1	0	131072	0.1558	0.2496	0.16102	0.34184	0.11696	0.19051	0.30489	0.36248	0.20747	0.29981	0.23029	0.14289	0.18992	0.28398	0.11418	0.13522	-1.8958	-2.7958	-2.4062	-2.4417	-2.8542	-2.3271	-2.8438	-2.8792	-2.4688	-3.0625	-2.5229	-2.4625	-3.0312	-2.4208	-2.65	-2.9479	347.026	69.391	164.145	369.183	122.810	50.440	56.567	32.944	379.317	156.378	86.848	375.062	268.699	64.546	298.909	286.559	0.0012365	0.0077229	0.0015753	704.83	2.2986e-05	1.8756e-05	770.4	243.66	4.5862e-05	6.2303e-05	329.87	140.04	103.64	52.489	5.8003e-05	79.154	0.010761	0.012967	0.0036177	1774.9	0.00012578	0.00014564	1956.1	627.16	0.00012685	0.00014929	981.02	344.65	281.44	129.02	0.00014229	170.8	193.320	160.509	316.311	44.269	224.097	150.380	43.943	50.058	230.854	202.678	47.774	53.980	56.601	59.874	388.848	56.787	-8191	255	
7958.511	1	1	0	131072	0.35583	0.14833	0.20019	0.12305	0.30495	0.25527	0.19686	0.16343	0.34661	0.12137	0.17882	0.21086	0.078393	0.24824	0.13487	0.11195	-1.9333	-3.0083	-2.5062	-2.3958	-3.0271	-2.4646	-2.7333	-2.8854	-2.1146	-3.0708	-2.6646	-2.3667	-2.95	-2.4875	-2.6125	-2.8729	231.422	248.413	188.720	111.868	152.020	140.429	341.360	345.890	136.543	338.500	346.028	332.281	58.950	358.425	107.761	34.739	0.0019513	0.00044578	0.0017357	714.88	8.3463e-05	2.2277e-05	772.37	244.98	7.025e-05	3.7036e-05	331.36	139.78	104.13	51.802	2.1341e-05	79.472	0.011873	0.014116	0.0036367	1791.7	0.00013839	0.00015511	1948.3	631.38	0.00014094	0.00015726	988.28	348.35	303.97	132.9	0.00014397	173.32	202.628	253.742	319.266	43.928	241.901	37.476	43.568	49.935	242.226	360.598	49.186	54.108	56.905	59.392	333.896	57.204	-8191	255	
7958.607	1	1	0	131072	0.15823	0.11778	0.32395	0.20369	0.15017	0.24612	0.30747	0.1718	0.021755	0.015961	0.19009	0.11992	0.052536	0.16974	0.26972	0.13341	-1.825	-2.8312	-2.6417	-2.2417	-3.1208	-2.3333	-2.6167	-2.9729	-2.1229	-2.6875	-2.6542	-2.3792	-2.9854	-2.6688	-2.2188	-2.95	319.487	231.774	280.622	254.123	35.375	229.903	242.816	349.494	377.159	134.208	102.172	199.468	80.929	298.518	179.073	371.678	0.0021408	0.0043845	0.0014114	725.65	8.8687e-05	3.7541e-05	771.63	244.43	6.5989e-05	6.1462e-05	329.39	143.32	103.31	50.316	1.6367e-05	79.487	0.01348	0.014632	0.0037415	1842.8	0.00015833	0.00016193	2001.8	655.26	0.00016086	0.0001612	1009.9	360.87	330.14	134.05	0.00014687	179.41	203.340	351.194	359.445	44.092	216.787	380.384	43.980	50.400	195.899	37.283	49.473	54.888	56.427	59.419	369.378	58.003	-8191	255	
7958.703	1	1	0	131072	0.2193	0.11745	0.27591	0.19525	0.22638	0.14161	0.072658	0.15665	0.14926	0.10527	0.14679	0.18734	0.0089753	0.089063	0.15241	0.32684	-1.6708	-2.5979	-2.5354	-2.2667	-2.7313	-2.3979	-2.4396	-2.9104	-2.2938	-2.6167	-2.9667	-2.3354	-2.8792	-2.5375	-2.4833	-2.9833	178.565	227.517	380.141	378.115	178.028	81.754	297.444	378.704	34.109	112.316	41.976	246.246	247.369	366.252	153.567	367.020	0.0020046	0.0079655	0.0014545	727.46	4.601e-05	3.9009e-05	770.88	247.89	1.999e-05	5.8382e-05	331.67	143.92	103.17	50.321	2.4359e-05	77.465	0.014827	0.014508	0.0037687	1915.5	0.00016973	0.00015847	1987.7	681.03	0.000169	0.00015578	997.92	376.08	336.7	131.13	0.00014301	186.39	200.351	327.316	388.920	45.420	261.641	356.108	44.159	51.504	324.323	366.642	48.736	55.461	55.967	60.104	361.022	58.758	-8191	255	
7958.799	1	1	0	131072	0.11148	0.19861	0.18954	0.09162	0.063625	0.09744	0.10386	0.11691	0.058038	0.29619	0.061011	0.17777	0.17812	0.13092	0.08661	0.18077	-1.9604	-2.2896	-2.6562	-2.3917	-2.5438	-2.5854	-2.2188	-2.9292	-2.4292	-2.125	-2.8563	-2.1833	-2.875	-2.6771	-2.3604	-3.0938	258.122	310.259	180.344	315.453	172.994	193.468	107.211	214.078	137.093	210.283	133.479	367.246	276.832	186.065	239.743	80.540	0.00014629	0.007047	0.001419	732.49	2.3724e-05	1.6244e-05	774.16	248.9	5.0068e-05	1.7415e-05	337.45	143.67	101.42	51.026	6.0722e-05	75.406	0.015055	0.013912	0.003669	2004.3	0.00016765	0.0001526	1952.5	713.76	0.00016631	0.00015096	988.84	396.52	330.37	129.26	0.00014057	193.54	125.943	372.137	357.964	44.855	62.325	51.704	44.252	51.822	62.778	337.390	48.927	54.807	55.059	59.502	232.155	58.309	-8191	255	
7958.895	1	1	0	131072	0.4323	0.20385	0.2627	0.17506	0.11144	0.093759	0.22514	0.21736	0.058016	0.1755	0.42016	0.26965	0.25219	0.088197	0.22946	0.16336	-1.9292	-2.2812	-2.6937	-2.3312	-2.6271	-2.8083	-2.4958	-2.9896	-2.5292	-2.2146	-3.0354	-2.4021	-2.5708	-2.7417	-2.0625	-2.8646	257.813	286.451	260.756	315.273	175.389	183.640	303.906	315.513	66.084	38.103	77.907	340.431	350.507	372.214	220.176	309.138	0.00086768	0.0010831	0.0014412	733	6.5529e-05	3.6335e-05	778.11	249.78	5.3025e-05	6.9616e-05	331.81	142.37	101.4	51.612	9.5357e-05	75.631	0.014444	0.013351	0.0035964	2059.5	0.00015677	0.00014448	1926	721.5	0.00015371	0.00014096	975.85	397.84	311.63	124.9	0.00014322	195.08	373.896	290.851	170.323	44.895	72.210	60.359	45.060	51.376	391.742	352.539	50.779	55.031	54.899	59.536	184.453	57.802	-8191	255	
7958.991	1	1	0	131072	0.15007	0.26171	0.25952	0.22616	0.21196	0.23098	0.24082	0.27591	0.24745	0.22009	0.15839	0.12687	0.30495	0.2219	0.090404	0.27755	-2.2667	-2.1646	-2.8979	-2.3729	-2.5	-2.8354	-2.3792	-3.0312	-2.7229	-2.2375	-2.9167	-2.6479	-2.4083	-3.0125	-2.425	-2.9583	224.436	308.551	67.959	374.860	58.742	152.718	371.557	284.961	172.995	113.649	81.724	345.967	296.241	350.370	310.374	318.007	0.0010613	0.0066301	0.0029574	732.84	8.0844e-05	2.8766e-05	780.57	246.28	3.0104e-05	7.1662e-05	336.39	140.89	102.64	52.134	0.00014446	67.242	0.013709	0.012986	0.0038365	2134.1	0.00015582	0.000147	2079.6	760.76	0.00015953	0.00014785	1088.1	421.82	324.05	130.43	0.00016857	202.83	334.998	327.854	146.258	44.036	391.736	387.934	45.909	50.221	70.910	369.555	50.982	53.366	55.091	59.804	210.659	56.800	-8191	255	
7959.112	1	1	0	131072	0.33025	0.23274	0.13399	0.26721	0.20062	0.15326	0.023289	0.12455	0.18846	0.18723	0.29233	0.24151	0.13401	0.18624	0.12436	0.25977	-2.1917	-2.3042	-2.8917	-2.5167	-2.5979	-2.8583	-2.3771	-2.7313	-2.7438	-2.1646	-3.2083	-2.4396	-2.5312	-2.975	-2.325	-2.7438	281.938	162.897	60.758	296.739	123.659	250.898	325.320	111.571	61.033	366.698	36.457	150.509	292.838	248.551	72.833	334.315	0.00022591	0.0025501	0.0024591	704.07	6.0045e-05	2.1903e-05	742.66	241.89	4.5096e-05	3.5338e-05	345.84	133.68	102.55	50.784	8.009e-05	57.484	0.014648	0.013905	0.0044996	2227.4	0.00016453	0.00015741	2290.6	782.03	0.00016708	0.00015813	1204.6	431.95	334.83	137.83	0.00019257	205.13	190.422	104.243	170.906	44.002	48.586	169.052	46.022	49.227	385.549	240.193	50.787	52.958	54.447	60.085	192.351	56.411	-8191	255	
7959.208	1	1	0	131072	0.038849	0.059794	0.26541	0.08391	0.35594	0.18543	0.17982	0.1176	0.11774	0.14079	0.19684	0.027531	0.27539	0.056264	0.12621	0.093759	-2.4688	-2.2521	-2.9062	-2.525	-2.35	-3.0292	-2.5292	-2.6125	-2.7667	-2.2583	-2.8229	-2.7354	-2.2938	-3.1125	-2.325	-2.6979	147.513	171.967	60.461	315.778	231.139	240.530	325.761	140.744	325.021	203.965	256.276	356.627	330.443	319.655	332.188	333.829	0.00019589	0.010442	0.0011311	606.58	4.9695e-05	9.2495e-05	559.53	196.45	3.8536e-05	9.9688e-05	298.6	103.16	100.83	36.614	6.1132e-05	45.856	0.015499	0.015544	0.0051643	2300.9	0.00017754	0.00018341	2522.8	818.8	0.00018527	0.00019082	1349.4	452.95	361.5	151.9	0.00022214	211.37	80.813	190.952	181.414	43.018	94.653	206.942	44.845	49.519	61.677	205.164	48.117	53.309	54.425	60.730	93.502	56.085	-8191	255	
7959.304	1	1	0	131072	0.28591	0.14591	0.11859	0.05023	0.20172	0.12009	0.078066	0.28428	0.30019	0.1534	0.2511	0.083249	0.25162	0.16297	0.25038	0.24705	-2.3917	-2.2792	-2.7812	-2.7	-2.2771	-2.9542	-2.4271	-2.4583	-2.9021	-2.2458	-2.7667	-2.8708	-2.2229	-3.0333	-2.3875	-2.5229	227.299	51.849	203.235	347.899	61.226	184.633	320.931	298.304	71.884	104.004	382.230	386.272	84.388	326.858	75.474	298.393	0.00066207	0.011806	0.002022	512.18	1.6945e-05	0.00013596	412.21	179.36	3.8105e-06	0.00017553	246.83	97.535	102.22	23.121	9.0539e-05	46.101	0.016943	0.01864	0.0057025	2367.4	0.00018826	0.00021323	2575.5	831.1	0.00019267	0.00021785	1368.3	459.67	373.4	161.09	0.00022912	214.45	45.773	173.906	332.774	43.559	367.645	199.263	43.607	49.256	73.326	193.284	47.603	53.275	54.563	61.095	387.835	56.592	-8191	255	
7959.400	1	1	0	131072	0.013227	0.13228	0.3058	0.072025	0.14553	0.054858	0.012083	0.077254	0.19578	0.31588	0.28158	0.18019	0.14341	0.13675	0.083678	0.11101	-2.5563	-2.2646	-2.7917	-2.8438	-2.1667	-2.8083	-2.6542	-2.5187	-2.8979	-2.3292	-2.5083	-2.8396	-2.2354	-2.975	-2.4833	-2.3604	365.640	156.912	295.370	109.478	167.850	131.342	81.822	188.317	323.028	190.658	336.183	292.575	387.571	377.168	302.730	370.544	0.0012169	0.0079692	0.0019278	498.04	4.2033e-05	8.1185e-05	353.42	180.99	9.2139e-05	0.00010752	207.58	100.76	85.789	14.553	9.0651e-05	47.548	0.018107	0.021341	0.0058958	2434.4	0.00020394	0.00024062	2570.4	848.05	0.00020843	0.0002409	1354.9	466.9	391.75	166.17	0.00022677	215.77	172.310	196.682	344.592	43.611	229.980	208.649	41.923	49.623	249.667	178.631	46.364	53.314	55.698	59.657	42.306	56.960	-8191	255	
7959.496	1	1	0	131072	0.10767	0.12834	0.13319	0.054215	0.25925	0.070337	0.075337	0.10821	0.16384	0.19327	0.15959	0.16382	0.27262	0.12327	0.15255	0.17503	-2.5125	-2.2708	-2.7125	-2.9208	-2.2896	-3.0229	-2.7479	-2.4562	-3.0333	-2.6979	-2.6271	-2.9396	-2.3625	-2.725	-2.7167	-2.45	267.251	117.012	197.111	325.066	129.504	163.608	202.088	265.344	79.991	139.722	159.473	155.960	388.685	358.830	99.527	340.530	0.0029236	0.006446	0.0017911	519.86	0.00011884	2.4442e-05	409.63	193.8	0.00013656	0.00012957	213.32	102.98	66.575	13.92	3.3539e-05	45.481	0.019457	0.02229	0.0057034	2439.5	0.00021928	0.00024623	2531.3	849.4	0.0002267	0.00024455	1330	469.52	411.71	165.36	0.00022439	217.3	206.859	71.697	338.594	44.635	206.556	353.640	43.362	49.962	228.848	371.608	47.620	54.377	56.638	56.855	363.737	57.329	-8191	255	
7959.593	1	1	0	131072	0.29137	0.1519	0.15186	0.064585	0.13432	0.21632	0.091322	0.24398	0.18974	0.21641	0.16946	0.25787	0.14574	0.11295	0.1035	0.29161	-2.4896	-2.3604	-2.6667	-2.9479	-2.2375	-2.7833	-3.1021	-2.4146	-2.9646	-2.4521	-2.5104	-3.0479	-2.5458	-2.7021	-2.8646	-2.3896	350.271	306.251	344.450	363.414	132.829	309.867	348.758	321.075	245.693	236.356	349.438	330.630	193.718	322.959	204.559	292.083	0.0027405	0.0074477	0.0013644	505.49	0.00017468	8.7373e-05	448.35	177.54	8.6674e-05	0.00011017	238.84	87.592	42.982	16.006	2.4382e-05	34.754	0.021304	0.022378	0.0056969	2470.1	0.00024316	0.00024596	2543.2	864.9	0.00025	0.00024485	1342.6	480.8	435.41	163.62	0.00022999	222.35	203.790	374.134	308.830	44.672	231.835	371.234	43.944	50.494	221.474	32.964	48.378	53.879	57.346	55.728	365.894	57.848	-8191	255	
7959.712	1	1	0	131072	0.24324	0.15062	0.1352	0.14677	0.33836	0.20591	0.17602	0.14777	0.059257	0.093422	0.15241	0.12987	0.070727	0.28633	0.039689	0.13712	-2.4875	-2.6854	-2.3375	-2.9562	-2.3417	-2.6667	-2.7375	-2.4188	-2.8854	-2.75	-2.2812	-2.8167	-2.4333	-2.6437	-2.7958	-2.4688	201.988	355.966	137.894	57.657	149.628	47.700	368.201	273.641	134.102	205.294	101.978	266.751	192.600	233.118	158.355	169.098	0.0019044	0.008533	0.0011219	365.76	5.3335e-05	0.00010623	380.32	120.29	2.2256e-06	0.00012779	219.84	55.859	21.807	19.84	4.5053e-05	20.325	0.02361	0.022769	0.0058707	2556.2	0.00026991	0.00025138	2602.3	903.71	0.00027643	0.00025185	1386.5	498.84	448.2	163.19	0.00023891	228.21	184.591	338.666	359.512	44.503	230.636	369.464	44.275	50.939	163.910	368.117	49.101	54.306	54.770	58.100	51.240	59.319	-8191	255	
7959.808	1	1	0	131072	0.17794	0.15504	0.20873	0.14824	0.026133	0.32278	0.24481	0.31001	0.065102	0.1169	0.16888	0.11365	0.059828	0.12623	0.11033	0.14052	-2.4333	-2.8187	-2.3979	-2.9313	-2.5583	-2.5917	-2.9062	-2.35	-2.8063	-2.7604	-2.4042	-3.0625	-2.2896	-2.5833	-2.9021	-2.4667	197.685	157.991	298.746	332.970	259.202	332.077	355.541	288.388	239.676	314.649	130.242	307.129	71.279	326.364	46.038	307.024	0.00051041	0.00753	0.0012838	208.12	4.5613e-05	7.1169e-05	305.75	68.923	6.9672e-05	5.2842e-05	187.47	27.736	23.469	17.827	3.7777e-05	8.5067	0.025097	0.023379	0.0060485	2640.4	0.00028116	0.00025455	2641.7	935.91	0.00028108	0.00025614	1415.3	512.91	442.88	164.54	0.00024785	232.72	108.087	308.570	366.775	46.596	74.011	378.332	43.971	53.620	65.939	346.574	48.012	55.662	52.091	59.663	187.877	61.660	-8191	255	
7959.904	1	1	0	131072	0.060415	0.23223	0.09419	0.17874	0.028295	0.28035	0.15287	0.24091	0.052249	0.21568	0.023357	0.3397	0.020222	0.14079	0.18902	0.19687	-2.3438	-2.8688	-2.2542	-3.0104	-2.6729	-2.5062	-2.9771	-2.4417	-2.7458	-2.7646	-2.2104	-2.9437	-2.7062	-2.4188	-2.8021	-2.5604	69.084	388.018	329.113	319.259	385.784	146.561	292.656	43.111	123.976	96.331	207.430	249.944	126.069	94.974	284.876	180.694	0.0021897	0.0056647	0.0019626	83.585	9.9637e-05	6.6334e-05	267.33	23.968	7.079e-05	7.08e-05	162.97	6.6203	37.665	15.907	0.00013245	1.2797	0.024821	0.023387	0.0062912	2697.8	0.00027639	0.00025258	2660.6	958.17	0.00027421	0.00025467	1431.2	521.47	435.19	165.4	0.00026453	235.09	388.694	354.636	121.385	48.168	46.939	377.719	44.535	54.807	49.836	311.682	49.501	60.139	53.703	59.712	220.189	46.900	-8191	255	
7960.000	1	1	0	131072	0.057567	0.10376	0.22554	0.060695	0.1141	0.18548	0.32197	0.086941	0.18341	0.14042	0.072776	0.1704	0.065569	0.17961	0.37443	0.11761	-2.0917	-2.8	-2.35	-3.0333	-2.8583	-2.4396	-3.0083	-2.45	-2.4708	-3.0021	-2.3875	-2.8937	-2.8958	-2.2729	-3.0167	-2.6458	116.601	29.804	162.093	230.798	234.373	94.822	22.878	333.586	318.084	119.939	256.845	104.010	344.667	362.976	23.009	304.596	0.0015539	0.0057299	0.0044031	30.054	7.0927e-05	4.618e-05	178.49	16.758	7.5301e-05	4.1509e-05	105.16	12.52	47.238	14.788	0.00018635	6.0028	0.024131	0.023466	0.0068103	2716.5	0.00027113	0.00025457	2693.5	960.5	0.00026752	0.00025598	1468	518.88	433.45	165.88	0.0002847	233.48	368.218	321.649	154.805	30.644	60.447	46.615	46.319	40.171	38.347	332.890	52.453	48.668	53.971	58.511	205.505	48.204	-8191	255	
7960.096	1	1	0	131072	0.31499	0.14697	0.051475	0.1333	0.11532	0.21055	0.080817	0.48502	0.15874	0.1499	0.25464	0.34814	0.14497	0.33209	0.15791	0.098383	-2.0771	-2.8146	-2.1937	-2.7479	-2.6604	-2.1937	-2.8688	-2.6542	-2.5146	-2.9604	-2.3625	-2.7854	-3.0667	-2.2021	-2.8396	-2.7938	49.626	64.279	205.004	343.849	163.563	238.437	232.070	321.742	221.254	130.919	293.165	281.161	129.740	387.375	285.777	64.912	0.00021659	0.0022459	0.0046057	113.97	6.3744e-05	6.0575e-05	83.803	49.327	7.8875e-05	7.2472e-05	52.663	32.24	45.921	14.496	7.8084e-05	12.724	0.023536	0.023473	0.0073266	2679.2	0.00026579	0.00025577	2728.3	946.25	0.0002611	0.00025894	1503.5	510.87	434.08	166	0.00029976	231.3	29.159	141.361	147.905	38.445	30.757	222.870	50.296	46.120	74.523	210.374	54.084	51.369	55.104	59.640	191.062	53.375	-8191	255	
#DATA ENDS
