BOXY.EXE: ISS Imagent and Oximeter Data Acquisition Program Version 0.80
Ascii Record File

#ACQ INFORMATION
2  Detector Channels 
16  External MUX Channels 
1  Auxiliary Channels 
5000  Waveform (CCF) Frequency (Hz)
1  Waveforms Skipped 
30  Waveforms Averaged 
1  Cycles Averaged 
16  Acquisitions per Waveform 
10.0806  Updata Rate (Hz) 

#FILE INFORMATION
TRUE -- External MUX Channel results are PARSED.
FALSE -- AC DC and Phase are NOT grouped.
TRUE -- Companion Program Settings File CREATED.
FALSE -- AC data not excluded
FALSE -- DC data not excluded
FALSE -- Phase data not excluded
FALSE -- Auxillary Chn. data not excluded
Tab delimiters

#CALIBRATION STATE
TRUE -- Waveform Calibration Values APPLIED.


#AUX CALIBRATION VALUES
Val Type	aux-1	

Term	1.0000e+00	
Factor	0.0000e+00	


#WF CALIBRATION VALUES
A = Detector Channel
Val Type	A-AC1	A-AC2	A-AC3	A-AC4	A-AC5	A-AC6	A-AC7	A-AC8	A-AC9	A-AC10	A-AC11	A-AC12	A-AC13	A-AC14	A-AC15	A-AC16	A-DC1	A-DC2	A-DC3	A-DC4	A-DC5	A-DC6	A-DC7	A-DC8	A-DC9	A-DC10	A-DC11	A-DC12	A-DC13	A-DC14	A-DC15	A-DC16	A-Ph1	A-Ph2	A-Ph3	A-Ph4	A-Ph5	A-Ph6	A-Ph7	A-Ph8	A-Ph9	A-Ph10	A-Ph11	A-Ph12	A-Ph13	A-Ph14	A-Ph15	A-Ph16	

Term	0.00000e+00	0.00000e+00	0.00000e+00	0.00000e+00	0.00000e+00	0.00000e+00	0.00000e+00	0.00000e+00	0.00000e+00	0.00000e+00	0.00000e+00	0.00000e+00	0.00000e+00	0.00000e+00	0.00000e+00	0.00000e+00	0.00000e+00	0.00000e+00	0.00000e+00	0.00000e+00	0.00000e+00	0.00000e+00	0.00000e+00	0.00000e+00	0.00000e+00	0.00000e+00	0.00000e+00	0.00000e+00	0.00000e+00	0.00000e+00	0.00000e+00	0.00000e+00	0.00000e+00	0.00000e+00	0.00000e+00	0.00000e+00	0.00000e+00	0.00000e+00	0.00000e+00	0.00000e+00	0.00000e+00	0.00000e+00	0.00000e+00	0.00000e+00	0.00000e+00	0.00000e+00	0.00000e+00	0.00000e+00	
Factor	1.00000e+00	1.00000e+00	1.00000e+00	1.00000e+00	1.00000e+00	1.00000e+00	1.00000e+00	1.00000e+00	1.00000e+00	1.00000e+00	1.00000e+00	1.00000e+00	1.00000e+00	1.00000e+00	1.00000e+00	1.00000e+00	1.00000e+00	1.00000e+00	1.00000e+00	1.00000e+00	1.00000e+00	1.00000e+00	1.00000e+00	1.00000e+00	1.00000e+00	1.00000e+00	1.00000e+00	1.00000e+00	1.00000e+00	1.00000e+00	1.00000e+00	1.00000e+00	X	X	X	X	X	X	X	X	X	X	X	X	X	X	X	X	

B = Detector Channel
Val Type	B-AC1	B-AC2	B-AC3	B-AC4	B-AC5	B-AC6	B-AC7	B-AC8	B-AC9	B-AC10	B-AC11	B-AC12	B-AC13	B-AC14	B-AC15	B-AC16	B-DC1	B-DC2	B-DC3	B-DC4	B-DC5	B-DC6	B-DC7	B-DC8	B-DC9	B-DC10	B-DC11	B-DC12	B-DC13	B-DC14	B-DC15	B-DC16	B-Ph1	B-Ph2	B-Ph3	B-Ph4	B-Ph5	B-Ph6	B-Ph7	B-Ph8	B-Ph9	B-Ph10	B-Ph11	B-Ph12	B-Ph13	B-Ph14	B-Ph15	B-Ph16	

Term	0.00000e+00	0.00000e+00	0.00000e+00	0.00000e+00	0.00000e+00	0.00000e+00	0.00000e+00	0.00000e+00	0.00000e+00	0.00000e+00	0.00000e+00	0.00000e+00	0.00000e+00	0.00000e+00	0.00000e+00	0.00000e+00	0.00000e+00	0.00000e+00	0.00000e+00	0.00000e+00	0.00000e+00	0.00000e+00	0.00000e+00	0.00000e+00	0.00000e+00	0.00000e+00	0.00000e+00	0.00000e+00	0.00000e+00	0.00000e+00	0.00000e+00	0.00000e+00	-7.23465e+01	-1.49617e+02	-1.26872e+02	-1.83762e+02	-5.18693e+01	-6.06153e+01	-1.58526e+02	-1.62015e+02	-4.81224e+01	-7.56965e+01	-1.70957e+02	-1.70833e+02	-1.76992e+02	-1.76825e+02	-4.67194e+01	-1.50028e+02	
Factor	1.63432e-05	1.10510e-04	3.48016e-05	1.52478e-01	1.22918e-06	1.22249e-06	1.63273e-01	5.15583e-02	9.18127e-07	1.18410e-06	8.55517e-02	2.92432e-02	2.25317e-02	9.04730e-03	1.05066e-06	1.29668e-02	1.38578e-06	1.45995e-06	4.07899e-07	7.71863e-02	1.59237e-08	1.59708e-08	7.76724e-02	2.61251e-02	1.59683e-08	1.59842e-08	4.15537e-02	1.42499e-02	1.15109e-02	4.55475e-03	1.60640e-08	6.29093e-03	X	X	X	X	X	X	X	X	X	X	X	X	X	X	X	X	



#DISTANCE SETTINGS
A = Detector Channel
A-1	A-2	A-3	A-4	A-5	A-6	A-7	A-8	A-9	A-10	A-11	A-12	A-13	A-14	A-15	A-16	

2.5000e+00	3.0000e+00	2.5000e+00	3.0000e+00	2.0000e+00	3.0000e+00	1.5000e+00	3.0000e+00	3.0000e+00	3.0000e+00	3.0000e+00	3.0000e+00	3.0000e+00	3.0000e+00	1.5000e+00	3.0000e+00	

B = Detector Channel
B-1	B-2	B-3	B-4	B-5	B-6	B-7	B-8	B-9	B-10	B-11	B-12	B-13	B-14	B-15	B-16	

1.0000e+01	1.0000e+01	1.0000e+01	1.4400e+00	1.0000e+01	1.0000e+01	1.5100e+00	1.9400e+00	1.0000e+01	1.0000e+01	1.9900e+00	2.4900e+00	2.4100e+00	2.9000e+00	1.0000e+01	2.9800e+00	




#DATA BEGINS
time	group	step	mark	flag	A-AC1	A-AC2	A-AC3	A-AC4	A-AC5	A-AC6	A-AC7	A-AC8	A-AC9	A-AC10	A-AC11	A-AC12	A-AC13	A-AC14	A-AC15	A-AC16	A-DC1	A-DC2	A-DC3	A-DC4	A-DC5	A-DC6	A-DC7	A-DC8	A-DC9	A-DC10	A-DC11	A-DC12	A-DC13	A-DC14	A-DC15	A-DC16	A-Ph1	A-Ph2	A-Ph3	A-Ph4	A-Ph5	A-Ph6	A-Ph7	A-Ph8	A-Ph9	A-Ph10	A-Ph11	A-Ph12	A-Ph13	A-Ph14	A-Ph15	A-Ph16	B-AC1	B-AC2	B-AC3	B-AC4	B-AC5	B-AC6	B-AC7	B-AC8	B-AC9	B-AC10	B-AC11	B-AC12	B-AC13	B-AC14	B-AC15	B-AC16	B-DC1	B-DC2	B-DC3	B-DC4	B-DC5	B-DC6	B-DC7	B-DC8	B-DC9	B-DC10	B-DC11	B-DC12	B-DC13	B-DC14	B-DC15	B-DC16	B-Ph1	B-Ph2	B-Ph3	B-Ph4	B-Ph5	B-Ph6	B-Ph7	B-Ph8	B-Ph9	B-Ph10	B-Ph11	B-Ph12	B-Ph13	B-Ph14	B-Ph15	B-Ph16	aux-1	digaux	

2778.696	1	1	0	512	0.17321	0.12073	0.26748	0.37297	0.12911	0.30341	0.35114	0.27013	0.16874	0.13868	0.23273	0.34227	0.2179	0.20009	0.051027	0.37812	-2.2375	-2.8312	-2.4896	-2.7875	-2.7667	-2.5854	-3.1292	-2.8104	-2.4854	-3.0812	-2.5458	-2.85	-2.8708	-2.4729	-2.8792	-2.9292	77.404	221.030	327.926	337.165	339.990	87.091	391.202	393.078	141.963	366.262	359.426	369.846	361.933	95.453	238.635	322.529	0.00073769	0.0026124	0.00047059	562.95	4.0503e-06	4.4162e-05	735.4	234.73	9.4552e-06	2.5283e-05	355.7	176.24	116.9	62.56	1.1663e-05	94.328	0.0044525	0.0051495	0.0015043	792.85	5.145e-05	5.6346e-05	974.66	311.2	5.0386e-05	5.8344e-05	480.48	211.67	145.35	74.376	5.788e-05	107.9	226.766	119.276	354.573	87.040	249.688	234.492	86.171	92.484	285.820	227.140	90.410	94.328	96.604	100.379	286.137	97.536	-8191	255	
2778.770	1	1	0	0	0.18026	0.072538	0.098507	0.23217	0.038338	0.20491	0.050205	0.21909	0.047234	0.16857	0.30194	0.12704	0.24424	0.44983	0.25668	0.19909	-1.8896	-3.0875	-2.4625	-2.6646	-3.0646	-2.3271	-3.1813	-2.7625	-2.3625	-3.1479	-2.6479	-2.6792	-3.1979	-2.5271	-2.8208	-3.1104	181.629	353.445	132.811	407.378	311.558	256.938	251.436	404.335	191.374	221.885	210.619	416.278	386.245	82.960	331.102	354.983	0.0010299	0.0014136	0.00040341	561.13	3.074e-05	1.8827e-05	733.54	232.63	1.6769e-05	1.112e-05	354.21	176.7	116.6	63.037	9.5138e-06	94.908	0.0043136	0.005205	0.0014064	767.93	4.8322e-05	5.4123e-05	940.92	297.37	4.6986e-05	5.4173e-05	459.67	205.89	142.53	73.62	5.0709e-05	106.61	211.232	194.732	334.056	86.752	198.454	138.004	86.369	92.215	246.463	281.131	90.670	94.352	96.343	100.469	326.067	97.478	-8191	255	
2778.866	1	1	0	0	0.16453	0.2873	0.16515	0.13564	0.18343	0.047461	0.33132	0.17876	0.078304	0.15537	0.17641	0.39289	0.21831	0.2394	0.15093	0.1045	-1.9833	-2.9583	-2.7375	-2.6604	-3.0563	-2.4042	-2.7687	-3.0792	-2.2	-2.9333	-2.7667	-2.6	-3.0708	-2.9125	-2.6854	-3.0958	131.953	386.188	311.181	386.438	255.796	343.485	370.662	281.353	292.503	399.749	92.924	389.810	403.080	357.823	280.382	425.926	0.00067583	0.001702	0.00012586	559.7	3.8945e-05	1.4763e-05	739.6	232.72	1.4251e-05	1.4469e-05	350.27	176.13	115.8	62.368	3.5008e-06	95.404	0.0041175	0.0048315	0.0012597	736.49	4.7458e-05	5.0885e-05	915.7	288.14	4.614e-05	4.977e-05	443.69	199.97	140.81	71.88	4.4828e-05	103.77	210.769	141.759	250.427	86.824	219.117	393.844	86.027	92.314	285.274	156.446	90.344	94.550	96.880	100.188	189.347	97.503	-8191	255	
2778.962	1	1	0	0	0.13511	0.2363	0.21189	0.22454	0.068959	0.069916	0.24022	0.1506	0.070249	0.12634	0.19148	0.18505	0.16266	0.069345	0.073145	0.24421	-2.0354	-3.0479	-2.7229	-2.6354	-3.025	-2.475	-2.8729	-3.0479	-2.375	-2.8833	-2.7562	-2.7479	-2.9813	-2.6125	-2.7333	-3.325	320.028	426.638	176.249	163.355	269.797	268.833	333.270	110.507	150.102	232.773	390.572	415.239	383.398	406.548	414.788	329.975	0.00078314	0.0021655	0.00035964	549.89	1.7856e-06	8.7086e-06	717.78	227.16	1.5276e-05	1.3697e-05	342.44	172.97	112.73	61.822	3.3516e-06	94.88	0.0038966	0.0042081	0.0011008	696.87	4.4106e-05	4.4172e-05	863.17	274.12	4.331e-05	4.3427e-05	420.5	193.63	136.63	69.889	3.9947e-05	102.28	214.595	263.343	332.576	87.082	295.969	287.690	86.285	92.717	155.011	424.337	90.028	94.323	96.877	100.516	159.501	97.420	-8191	255	
2779.081	1	1	0	0	0.044466	0.10606	0.31672	0.14342	0.21948	0.22728	0.18402	0.083165	0.41545	0.15284	0.072261	0.05881	0.09923	0.17483	0.090881	0.14433	-1.9375	-2.7812	-2.825	-2.5917	-3.0167	-2.45	-2.5792	-3.2042	-2.4354	-2.8417	-2.7125	-2.6813	-3.1604	-2.5458	-2.5687	-3.1667	240.233	106.026	377.169	363.946	374.352	259.185	143.713	332.345	326.813	141.019	118.826	397.309	416.485	74.669	359.779	347.833	0.00074137	0.0014609	0.00038556	539.9	6.3285e-06	6.3423e-06	696.61	223.44	2.0862e-06	1.0648e-05	335.17	172.18	111.27	61.171	4.5812e-06	94.736	0.0037934	0.0038436	0.00099974	681.6	4.2939e-05	4.0977e-05	830.96	268.9	4.1634e-05	3.9908e-05	403.46	191.23	132.82	68.238	3.5431e-05	101.89	220.961	319.902	276.562	87.101	316.191	80.044	85.838	92.249	231.208	307.293	89.982	94.486	96.399	100.495	165.545	97.556	-8191	255	
2779.177	1	1	0	0	0.19639	0.11378	0.18165	0.24605	0.13483	0.27762	0.30986	0.18036	0.073159	0.22731	0.13408	0.039506	0.19477	0.47776	0.25552	0.097342	-1.9896	-2.8792	-2.8937	-2.6229	-3.1917	-2.4875	-2.6604	-3.3438	-2.4667	-2.7979	-3.0271	-2.5	-3.2646	-2.8896	-2.5333	-3.4562	94.323	323.200	199.796	413.384	335.292	106.354	408.990	246.344	393.478	178.643	103.338	433.057	113.899	424.528	82.748	422.181	0.00061048	0.00045927	0.00047978	530.93	5.4956e-06	7.5352e-06	692.55	218.94	2.9646e-06	2.262e-05	329.45	169.98	109.29	60.811	2.5265e-05	95.205	0.0035366	0.0034848	0.00090071	671.04	3.9935e-05	3.7862e-05	807.47	265.49	3.9094e-05	3.6867e-05	393.19	190.47	129.28	67.072	3.3725e-05	102.19	220.376	304.618	183.270	86.877	355.508	123.031	85.776	92.576	147.568	261.024	89.941	94.425	96.542	100.329	243.198	97.443	-8191	255	
2779.273	1	1	0	0	0.41584	0.20839	0.306	0.35925	0.17037	0.042229	0.23215	0.21061	0.09251	0.28549	0.1114	0.14124	0.1138	0.15945	0.11611	0.16417	-2.2354	-2.6479	-2.7938	-2.4062	-2.9208	-2.6042	-2.7313	-3.05	-2.4708	-2.675	-3.1312	-2.3625	-3.0312	-3.0333	-2.4562	-3.1083	429.915	185.154	160.993	374.322	130.092	317.542	381.188	355.122	182.916	378.341	186.569	391.590	367.307	387.679	134.867	334.853	0.00092813	0.00013891	0.00041608	527.23	4.4437e-06	2.0781e-05	693.55	217.93	1.5559e-05	1.516e-05	334.7	169.82	109.79	60.826	2.419e-05	94.092	0.0033563	0.0032726	0.00086522	670.12	3.767e-05	3.5805e-05	802.85	265.86	3.8043e-05	3.56e-05	397.59	192.3	129.38	67.091	3.5953e-05	103.13	232.195	230.531	132.296	87.176	85.405	379.964	86.223	92.399	208.793	152.201	90.457	94.067	96.400	100.356	276.863	97.840	-8191	255	
2779.369	1	1	0	0	0.11543	0.1795	0.039363	0.18786	0.21438	0.074702	0.1984	0.14482	0.080703	0.074635	0.15058	0.12194	0.18926	0.45281	0.16061	0.32383	-2.0021	-2.5396	-2.9938	-2.5938	-2.7687	-3.0542	-2.5187	-3.0896	-2.5104	-2.4292	-3.0708	-2.5062	-3.1521	-3.0104	-2.3375	-3.1208	116.661	159.940	389.053	85.741	171.464	132.452	75.671	157.869	345.946	347.963	366.970	83.418	74.579	425.182	196.640	329.201	0.00072813	0.00075482	0.0006443	528.39	9.7727e-06	1.2491e-05	716.62	222.48	5.4987e-06	1.0912e-05	345.41	173.56	113.15	61.068	2.5299e-05	95.1	0.0035101	0.003385	0.00098876	702.17	4.1025e-05	3.8422e-05	855.25	279.44	4.1761e-05	3.7963e-05	423.89	199.99	134.67	68.147	4.2248e-05	105.47	236.093	333.255	143.670	87.229	418.352	104.571	86.009	92.315	314.217	253.465	90.438	94.271	96.237	100.299	217.638	97.907	-8191	255	
2779.466	1	1	0	0	0.11264	0.043679	0.41428	0.12453	0.22237	0.16016	0.18567	0.22863	0.19512	0.065586	0.26604	0.08391	0.28755	0.27355	0.11121	0.25342	-2.4938	-2.6	-2.8187	-2.4646	-2.8271	-2.7854	-2.4729	-3.1042	-2.6542	-2.5229	-3.2729	-2.6125	-2.8958	-2.8896	-2.4604	-3.1208	78.084	399.263	151.594	115.178	108.477	310.026	341.620	406.515	95.458	142.613	410.026	345.616	387.426	403.503	91.399	390.980	0.00050867	0.00042397	0.00071952	547.88	8.9056e-06	7.7828e-06	737.91	232.01	1.0183e-05	1.1215e-05	360.67	178.82	115.88	61.64	1.6483e-05	96.223	0.0037871	0.0035869	0.0011421	731.45	4.3486e-05	4.0975e-05	901.32	293	4.4196e-05	4.0447e-05	453.47	206.39	138.81	69.065	4.5945e-05	106.33	210.716	300.830	141.230	86.855	80.088	158.943	86.423	92.271	364.318	242.478	90.381	94.723	96.425	100.331	282.699	97.554	-8191	255	
2779.562	1	1	0	0	0.061603	0.18368	0.17617	0.073396	0.13625	0.0986	0.14313	0.29732	0.17645	0.19824	0.067376	0.19413	0.054606	0.30481	0.1686	0.21088	-2.3333	-2.4083	-3.2229	-2.6312	-2.5312	-2.95	-2.5292	-3.1312	-2.75	-2.3688	-3.1833	-2.5875	-2.7646	-3.3688	-2.2896	-2.9542	245.509	296.969	326.103	89.611	426.677	89.006	395.222	381.189	103.999	175.188	138.074	419.226	402.547	419.511	108.105	283.414	0.00048039	0.0018808	0.0006288	548.03	7.1592e-06	2.2795e-05	751.33	236.86	1.2538e-05	1.7994e-06	366.97	180.4	116.26	61.995	8.6776e-06	96.91	0.0037295	0.003649	0.0011783	724.6	4.1052e-05	4.0817e-05	909.47	292.68	4.1038e-05	4.0358e-05	457.28	205.35	136.79	69.378	4.5413e-05	106.14	211.938	154.778	157.705	87.201	433.291	191.151	86.286	92.143	83.401	392.259	89.975	94.325	96.368	100.406	380.592	97.630	-8191	255	
2779.682	1	1	0	0	0.10412	0.075544	0.035096	0.076017	0.039832	0.098797	0.4622	0.27422	0.17055	0.3768	0.26862	0.1424	0.30596	0.055085	0.12115	0.33022	-2.4208	-2.325	-2.8771	-2.6417	-2.5563	-2.9688	-2.6125	-2.9667	-2.7875	-2.4271	-3.0604	-2.7167	-2.5833	-3.1979	-2.3292	-2.85	289.138	239.386	335.431	221.951	236.561	427.170	363.342	407.189	91.125	124.285	356.299	369.823	85.745	337.317	280.590	409.486	0.0007355	0.0014406	0.000238	551.74	1.1474e-05	3.4821e-05	749.92	241.03	1.0185e-05	1.7362e-05	373.96	179.38	117.09	61.726	9.2081e-06	95.166	0.0035432	0.0038306	0.0011834	727.9	3.9962e-05	4.4417e-05	924.7	297.82	4.1658e-05	4.5314e-05	468.25	207.2	138.83	70.728	4.7888e-05	105.31	245.020	110.093	368.454	86.769	316.250	226.394	86.342	92.401	388.687	172.622	89.987	94.435	95.936	100.469	100.436	97.348	-8191	255	
2779.778	1	1	0	0	0.21515	0.22708	0.14911	0.11926	0.054269	0.1565	0.28973	0.085984	0.29039	0.38486	0.38003	0.15617	0.12928	0.0084104	0.3537	0.29478	-2.6417	-2.45	-3.0104	-2.9938	-2.5417	-3.0896	-2.5125	-2.8042	-2.7604	-2.3667	-2.875	-2.9688	-2.5083	-3.0792	-2.6396	-2.7479	426.045	161.545	229.135	118.430	170.854	429.836	326.586	314.262	430.497	120.932	378.354	321.724	253.796	137.532	160.842	354.199	0.00085982	0.0010795	0.00012694	553.81	1.8703e-05	4.4298e-05	751.17	240.82	1.7541e-05	2.3601e-05	368.78	178.14	116.95	61.21	7.648e-06	94.181	0.0036975	0.0042878	0.0012174	733.93	4.1324e-05	4.7504e-05	928.11	296.79	4.2051e-05	4.7983e-05	461.82	204.45	138.46	70.539	4.7058e-05	104.1	214.554	164.770	310.779	87.116	240.809	175.188	86.230	92.444	214.808	248.078	90.082	94.279	95.959	100.187	416.360	97.377	-8191	255	
2779.873	1	1	0	0	0.12596	0.14196	0.37068	0.37439	0.052874	0.090529	0.22191	0.24803	0.27235	0.13861	0.24048	0.18101	0.27712	0.089414	0.30399	0.24216	-2.4146	-2.4333	-2.7812	-2.7562	-2.4542	-2.9583	-2.7188	-2.4896	-3.0229	-2.5146	-2.7313	-2.9896	-2.6979	-3.0833	-2.7229	-2.7021	349.095	180.417	84.860	83.217	427.425	82.737	342.219	400.071	352.634	227.820	364.802	332.117	384.870	344.575	271.246	351.919	0.00088959	0.00093663	0.00017657	554.97	2.4199e-05	7.2753e-06	747.51	239.24	3.0412e-05	1.1929e-05	368.91	176.5	115.63	60.564	1.2922e-05	94.022	0.0037796	0.0044649	0.0011963	728.47	4.379e-05	4.8668e-05	924.51	293.76	4.4493e-05	4.9127e-05	460.48	202.39	139.96	70.488	4.7696e-05	103.73	227.709	123.671	79.426	86.694	237.929	155.668	85.985	92.079	227.609	283.885	89.600	94.523	96.273	100.183	374.291	97.429	-8191	255	
2779.993	1	1	0	0	0.14928	0.11382	0.18009	0.16986	0.11021	0.21614	0.2453	0.11755	0.16133	0.19143	0.20742	0.29753	0.1785	0.08375	0.062752	0.074351	-2.8021	-2.4417	-2.7083	-2.9354	-2.3167	-3.0167	-2.8042	-2.6312	-2.825	-2.4917	-2.9437	-2.9458	-2.5292	-3.0521	-2.8	-2.4729	189.865	275.301	87.934	109.427	132.774	119.718	417.807	249.534	117.283	325.929	390.998	323.072	79.316	322.249	285.894	392.819	0.0012005	0.00097837	0.00065955	562.73	3.7454e-05	1.5607e-05	750.98	242.4	1.7622e-05	3.0309e-05	371.02	176.9	115.89	60.722	1.0802e-05	93.64	0.0041614	0.0046134	0.0012196	733.97	4.8378e-05	5.0199e-05	932.59	297.28	4.9289e-05	5.0675e-05	465.51	203.69	144.3	71.003	4.9516e-05	104.1	219.080	355.058	334.160	86.760	246.637	163.168	85.931	91.979	244.845	344.694	89.960	94.583	96.332	100.313	324.505	97.822	-8191	255	
2780.065	1	1	0	0	0.22136	0.037654	0.24343	0.20043	0.2981	0.10815	0.11344	0.070118	0.17111	0.089979	0.13914	0.12864	0.12003	0.31683	0.066291	0.058868	-2.8625	-2.45	-2.4604	-3.0479	-2.5146	-2.7313	-3.1292	-2.5146	-3.15	-2.6625	-2.6125	-3.0708	-2.5438	-3.0521	-2.8063	-2.5292	219.338	424.802	103.589	112.090	363.129	377.908	333.859	86.919	74.605	209.206	374.302	329.002	413.073	374.785	124.031	427.393	0.00091361	0.0016931	0.00070413	563.06	2.0986e-05	9.0183e-06	758.14	246.34	3.4452e-06	2.2684e-05	372.82	177.18	115.7	60.201	2.7585e-06	92.519	0.004625	0.0048073	0.0012589	752.66	5.3796e-05	5.3134e-05	948.32	308.36	5.6155e-05	5.4908e-05	477.4	210.65	150.64	72.395	5.4129e-05	106.9	222.228	259.557	386.776	87.157	132.157	220.489	86.188	92.309	362.533	396.386	90.240	94.569	96.285	100.772	431.273	97.795	-8191	255	
2780.161	1	1	0	0	0.1195	0.10442	0.18963	0.45277	0.27072	0.17388	0.22335	0.2241	0.12404	0.05588	0.24098	0.33305	0.1333	0.21865	0.069974	0.26918	-2.5812	-2.5312	-2.5021	-3.0229	-2.4062	-2.8729	-2.8729	-2.575	-3.15	-2.7687	-2.7333	-2.9667	-2.4833	-2.8917	-2.9833	-2.5917	247.715	94.544	201.268	380.106	184.006	387.391	191.018	344.140	290.106	158.201	218.178	86.771	323.660	408.393	173.710	430.710	0.00071656	0.0023577	0.00072109	570.48	2.8756e-06	1.7839e-05	755.15	248.25	5.7856e-06	2.115e-05	374.61	178.89	117.44	60.454	1.3096e-05	93.289	0.0053792	0.0053455	0.0013779	803.38	6.1785e-05	5.9199e-05	972.92	326	6.2584e-05	5.9253e-05	485.74	217.94	153.5	72.744	5.2895e-05	108.85	231.475	333.723	350.176	87.345	181.440	346.006	86.154	92.200	314.408	433.818	90.258	94.798	96.661	100.683	95.380	97.798	-8191	255	
2780.257	1	1	0	0	0.23276	0.13345	0.041025	0.18494	0.088711	0.21721	0.26203	0.29611	0.1556	0.038934	0.22066	0.25208	0.17538	0.15704	0.099928	0.2959	-2.7208	-2.5771	-2.6167	-3.2188	-2.5167	-2.875	-3.0021	-2.5771	-3.0125	-2.6021	-2.4417	-3.425	-2.5062	-2.8333	-2.8667	-2.4813	305.525	340.083	303.327	315.696	140.065	198.712	86.631	369.992	426.109	246.703	345.956	384.566	379.885	288.275	327.973	412.576	0.00080384	0.0010267	0.00046002	569.36	2.6718e-06	2.6491e-05	767.84	249.54	1.851e-05	1.569e-05	376.39	179.2	116.82	60.8	2.3009e-05	94.678	0.0051638	0.0050638	0.0012771	797.9	5.564e-05	5.2047e-05	945.76	319.13	5.3525e-05	5.0612e-05	469.23	214.25	146.11	70.576	4.7484e-05	108.53	225.261	314.980	195.132	87.244	335.946	416.724	86.127	92.397	389.443	386.603	90.132	94.379	96.087	100.896	271.833	98.012	-8191	255	
2780.378	1	1	0	0	0.11386	0.12798	0.029283	0.18272	0.1103	0.12333	0.16746	0.12126	0.17016	0.099808	0.035129	0.079797	0.07081	0.27285	0.32412	0.29397	-2.5354	-2.6896	-2.3917	-2.8646	-2.5979	-2.825	-3.0271	-2.5062	-2.8187	-2.8688	-2.3479	-3.0521	-2.7479	-2.5104	-2.8208	-2.7333	123.155	198.045	324.346	359.229	292.971	420.033	102.197	352.907	344.352	341.566	332.496	432.257	349.514	371.491	249.927	398.178	0.0007644	0.0009373	0.00083378	565.86	3.4768e-05	1.8876e-05	768.95	245.73	6.7204e-06	3.1388e-06	376.18	179.05	116.58	60.691	1.944e-05	95.142	0.0044962	0.0043909	0.0011847	777.71	4.9647e-05	4.5961e-05	935.73	311.76	4.8382e-05	4.5057e-05	464.23	210.22	142.36	68.902	4.6709e-05	107.1	227.471	335.228	184.302	86.718	251.862	400.172	86.090	91.903	308.813	388.361	90.056	94.343	96.422	100.393	244.692	97.673	-8191	255	
2780.474	1	1	0	0	0.23129	0.14465	0.095047	0.14051	0.073033	0.15815	0.29761	0.35374	0.22254	0.14107	0.090637	0.31792	0.18686	0.10336	0.12291	0.13548	-2.3312	-2.8104	-2.5042	-3.2521	-2.625	-2.55	-3.1813	-2.5896	-2.5187	-2.9167	-2.6271	-3.0146	-2.7313	-2.5	-3.1271	-2.5521	355.070	309.645	150.242	114.440	412.462	75.972	342.981	88.221	252.390	292.385	403.436	382.322	380.992	149.979	179.360	376.554	0.00061997	0.00080465	0.00058225	560.12	1.0202e-05	1.3829e-05	761.46	241.36	9.8499e-06	1.4594e-05	373.24	178.3	114.7	60.722	1.5702e-05	95.7	0.0041353	0.0039728	0.0011729	759.29	4.631e-05	4.1863e-05	931.76	303.55	4.5128e-05	4.1639e-05	460.46	206.6	138.8	67.844	4.6299e-05	105.82	208.057	315.074	125.655	86.928	240.460	242.341	86.345	92.048	337.800	251.771	89.990	94.299	96.302	100.248	217.963	97.660	-8191	255	
2780.570	1	1	0	0	0.2557	0.2409	0.12272	0.1202	0.094008	0.095994	0.33152	0.040364	0.12242	0.10324	0.20515	0.083779	0.21487	0.20633	0.13453	0.32505	-2.2521	-2.8479	-2.3646	-2.9646	-2.6667	-2.3937	-3.1146	-2.5333	-2.7125	-2.9458	-2.4396	-2.9792	-2.9708	-2.6813	-3.1542	-2.5563	325.683	105.088	218.910	403.017	423.875	414.846	425.021	340.063	344.930	187.699	371.451	378.486	371.697	163.046	366.966	320.918	0.00078259	0.0016086	0.00047535	556.95	6.0276e-06	1.5571e-05	763.32	239.97	5.4121e-06	9.407e-06	372.51	177.96	115.52	60.646	2.2002e-05	94.798	0.003789	0.0037269	0.0011745	739.6	4.3581e-05	4.0953e-05	931.53	299.59	4.2952e-05	4.2048e-05	462.99	205.23	138.28	68.385	4.8889e-05	105.84	221.542	228.972	222.663	86.643	278.506	200.157	86.006	92.281	307.978	243.224	89.797	94.191	96.333	100.292	296.901	97.731	-8191	255	
2780.642	1	1	0	0	0.11003	0.10723	0.23024	0.47146	0.29408	0.20565	0.19491	0.28284	0.068994	0.091239	0.23648	0.19608	0.11093	0.34885	0.189	0.15982	-2.3104	-3.0563	-2.3229	-2.8896	-2.7646	-2.3667	-3.1604	-2.7167	-2.5854	-2.9875	-2.6312	-2.7167	-3.0208	-2.5667	-2.9771	-2.7854	336.336	225.848	376.682	293.674	216.584	369.848	286.994	382.191	276.384	340.367	252.880	418.904	234.450	344.369	164.837	94.412	0.0007761	0.00097197	0.00048481	554.66	1.1878e-05	2.585e-05	756.89	239.72	5.3732e-06	1.4619e-05	367.12	177.02	116.51	61.18	1.1726e-05	94.89	0.003763	0.0040358	0.001236	740.06	4.2688e-05	4.3988e-05	937.08	297.97	4.1823e-05	4.5383e-05	464.66	205.25	138.52	69.776	4.9448e-05	106.15	214.132	154.080	411.294	87.113	274.747	193.526	86.117	91.890	85.512	245.368	89.827	94.120	96.366	100.312	238.352	97.730	-8191	255	
2780.763	1	1	0	0	0.1853	0.047567	0.31121	0.38478	0.29198	0.13464	0.042667	0.063862	0.3326	0.015842	0.29367	0.33181	0.19194	0.26524	0.17626	0.33766	-2.0646	-3.1396	-2.55	-2.8208	-3.0896	-2.2354	-3.1312	-2.7958	-2.7208	-2.9896	-2.6875	-2.8542	-2.9229	-2.5146	-2.8708	-3.1583	233.884	94.570	359.118	338.634	221.186	135.725	325.415	385.934	365.192	282.203	359.241	413.634	114.528	416.723	195.053	397.008	0.00093502	0.0013828	0.00018044	554.18	5.3655e-06	2.8859e-05	762.44	246.74	1.1732e-05	3.8046e-05	381.48	178.8	118.76	60.973	9.7779e-06	92.984	0.003786	0.004518	0.0013065	754.11	4.5982e-05	5.178e-05	965.75	313.52	4.7373e-05	5.5117e-05	493.17	213.71	147.25	73.57	5.9233e-05	108.37	203.460	93.158	205.358	86.948	221.183	229.843	86.207	91.965	204.283	213.985	90.083	94.243	96.704	100.528	108.976	97.961	-8191	255	
2780.859	1	1	0	0	0.25732	0.081887	0.1682	0.44868	0.34988	0.099019	0.21798	0.15426	0.2214	0.20387	0.021252	0.26971	0.3271	0.10623	0.12582	0.45947	-2.0812	-3.0667	-2.6292	-2.6208	-3.0687	-2.4562	-2.7854	-3.0542	-2.4583	-2.9625	-2.7958	-2.6542	-3.2313	-2.6063	-2.6937	-2.8375	135.321	308.747	272.562	340.500	137.567	370.399	103.239	353.363	255.120	121.270	151.388	369.835	416.093	129.436	242.146	378.228	0.00089935	0.00032677	0.00024945	568.02	4.0886e-05	9.5157e-06	765.42	256.02	2.9116e-05	1.6383e-05	385.93	180.98	121.64	61.696	1.5471e-05	92.744	0.0047743	0.005879	0.0016083	816.99	5.9331e-05	6.636e-05	1027.8	337.52	5.9085e-05	6.7052e-05	522.11	219.21	156	76.008	6.2938e-05	108.79	223.733	94.361	224.698	87.221	202.727	142.636	86.060	92.081	249.080	224.504	90.133	94.535	96.882	101.022	106.294	98.254	-8191	255	
2780.955	1	1	0	0	0.14046	0.13847	0.13848	0.15082	0.073976	0.16751	0.10532	0.11812	0.11164	0.17437	0.17914	0.24834	0.091688	0.22543	0.040219	0.28728	-1.8833	-2.8271	-2.5042	-2.825	-3.0271	-2.4938	-2.975	-3.0646	-2.2271	-3.0729	-2.7687	-2.7396	-3.0271	-2.7479	-2.8417	-2.8563	315.584	295.295	85.039	376.258	251.271	427.912	296.308	209.952	358.737	212.095	368.594	124.105	162.096	411.057	368.375	414.829	0.0011897	0.001546	0.00033106	571.49	2.8266e-05	1.2479e-05	776.46	262.71	2.4088e-05	1.7915e-05	396.15	182.5	122.03	61.515	1.0492e-05	94.369	0.0053231	0.0061417	0.0016394	817.09	6.3973e-05	6.7858e-05	1039.3	342.51	6.4575e-05	6.8342e-05	531.89	220.17	160.41	76.032	6.1252e-05	108.78	223.134	374.477	97.872	87.153	214.914	190.882	86.369	92.507	213.772	128.738	90.231	94.329	96.727	100.662	345.079	98.144	-8191	255	
2781.074	1	1	0	0	0.065472	0.18196	0.040024	0.19042	0.060663	0.23467	0.23797	0.20711	0.10257	0.1305	0.21928	0.045339	0.11836	0.19058	0.15497	0.16333	-1.8542	-2.9229	-2.6312	-2.6604	-3.0896	-2.5854	-2.8333	-3.0333	-2.2833	-2.9479	-2.7708	-2.6	-3.2333	-2.3917	-2.6896	-3.3875	243.826	329.404	199.451	426.039	115.447	151.587	397.181	174.332	150.738	396.283	406.133	309.217	421.105	414.717	360.922	305.745	0.0011813	0.0010167	0.00039475	573.28	2.9123e-05	2.4136e-05	777.52	263.25	1.9979e-05	1.0093e-05	394.58	184.03	123.29	61.651	4.2451e-06	94.012	0.0053842	0.0056279	0.0014809	786.03	6.026e-05	5.9298e-05	996.33	332.38	5.9801e-05	5.9273e-05	512.58	217.91	158.91	74.811	5.6131e-05	108.67	206.965	186.214	320.420	86.947	199.503	127.891	86.330	92.341	203.174	122.088	90.351	94.437	96.898	100.997	426.853	98.234	-8191	255	
2781.170	1	1	0	0	0.19639	0.15128	0.31319	0.27451	0.18467	0.17783	0.29047	0.20664	0.12059	0.19628	0.15064	0.046453	0.23459	0.22127	0.13611	0.17102	-1.9479	-3.1208	-2.7083	-2.6271	-2.9437	-2.7604	-2.9125	-3.0604	-2.3667	-2.8229	-2.8563	-2.7167	-3.2438	-2.9542	-2.5021	-3.3187	362.022	426.363	191.800	414.141	434.340	324.367	389.634	359.042	417.475	342.951	378.511	99.513	388.201	107.841	367.880	110.376	0.0010115	0.00076837	0.00019485	583.01	1.4628e-05	6.9126e-06	792.65	271.07	1.4535e-05	1.0498e-05	400.35	182.89	123.8	61.755	1.3747e-05	92.933	0.0054387	0.0055252	0.0014438	813.69	6.2555e-05	5.9911e-05	1001.8	344.85	6.1507e-05	5.924e-05	511.4	220.07	159.4	74.441	5.4068e-05	109.34	203.426	164.814	160.314	87.171	200.582	334.199	86.254	92.517	417.170	422.181	90.307	94.683	96.652	101.077	364.259	98.401	-8191	255	
2781.266	1	1	0	0	0.2558	0.069154	0.053846	0.15911	0.18723	0.079771	0.026621	0.18783	0.14502	0.15177	0.43157	0.11806	0.17851	0.20876	0.1497	0.089055	-2.0771	-2.7458	-2.9	-2.5167	-2.9938	-2.8542	-2.6417	-3.1417	-2.5625	-2.725	-3.125	-2.6833	-3.1792	-2.6937	-2.5	-3.3187	361.565	338.590	110.831	81.980	148.964	130.868	260.607	387.591	147.677	292.112	431.420	403.324	360.969	359.246	77.557	401.977	0.00080465	0.0024885	0.00033511	587.37	8.4549e-06	9.4857e-06	798.79	274.68	2.0056e-05	1.9705e-05	400.26	181.66	123.46	61.18	1.9821e-05	92.23	0.0054423	0.0054685	0.0014194	840.99	6.3455e-05	6.0544e-05	1008.2	356.96	6.2802e-05	6.0002e-05	515.5	223.67	160.91	74.554	5.7121e-05	111.07	220.921	262.230	121.149	87.063	277.290	347.193	86.089	92.489	253.363	391.156	90.300	94.510	96.747	101.239	220.151	98.678	-8191	255	
2781.362	1	1	0	0	0.15957	0.17339	0.35859	0.046854	0.062249	0.13696	0.25271	0.20292	0.14488	0.10249	0.09408	0.28972	0.23644	0.097518	0.15114	0.23504	-2.0833	-2.8125	-3.0375	-2.6271	-2.9313	-2.8583	-2.5187	-3.2875	-2.5583	-2.8187	-3.0208	-2.5271	-3.1688	-3.1	-2.4146	-3.3146	318.068	406.686	261.665	289.401	429.626	350.734	387.292	424.435	421.544	357.580	288.053	91.144	363.190	257.233	346.360	426.901	0.00063422	0.0015647	0.0012053	598.82	2.1875e-05	6.8375e-06	812.83	272.87	5.5532e-06	2.4705e-05	400.35	177.55	122.25	60.688	1.3841e-05	90.307	0.0057336	0.0056926	0.0015577	891.64	6.8333e-05	6.5253e-05	1057.8	375.24	6.968e-05	6.5028e-05	540.31	229.69	164.52	75.561	6.6298e-05	112.78	230.057	304.766	172.038	87.552	209.690	434.038	86.293	92.697	365.911	389.552	90.616	95.291	97.079	101.279	243.877	98.142	-8191	255	
2781.458	1	1	0	0	0.10983	0.14608	0.12648	0.37836	0.22914	0.14495	0.17915	0.27909	0.1231	0.12304	0.16195	0.1233	0.30358	0.086805	0.36454	0.11295	-2.3604	-2.625	-3.2833	-2.3312	-2.9292	-2.7979	-2.6771	-3.1042	-2.8063	-2.5979	-3.2208	-2.6333	-2.8167	-3.0896	-2.3937	-3.0083	430.275	376.739	193.096	307.786	85.599	250.754	380.254	392.806	327.879	197.269	380.654	145.322	350.330	379.238	324.827	404.349	0.00066051	0.00089789	0.0010168	600.19	1.0185e-05	1.4179e-05	802.45	275.59	9.0209e-06	1.9602e-05	398.52	175.72	122.61	60.612	3.4284e-05	89.179	0.0061419	0.0058614	0.0017509	914.73	6.9009e-05	6.4261e-05	1079.1	377.17	7.0061e-05	6.3597e-05	551.78	229.72	164.51	75.16	7.1278e-05	112.05	227.744	259.105	173.464	87.533	310.313	80.826	86.735	92.404	338.329	176.905	90.616	94.924	96.983	101.372	272.783	98.321	-8191	255	
2781.555	1	1	0	0	0.12369	0.15173	0.19473	0.23413	0.17825	0.075379	0.1927	0.23485	0.10999	0.17185	0.17087	0.32818	0.032149	0.21399	0.23316	0.062763	-2.2417	-2.5812	-3.1896	-2.4417	-2.7917	-3.0042	-2.45	-3.2562	-2.6937	-2.6646	-3.0438	-2.6354	-2.7167	-3.0833	-2.4646	-3.025	217.838	205.761	395.934	85.426	329.828	413.542	389.329	416.631	369.889	107.856	78.395	382.997	184.119	423.026	124.314	152.334	0.00085952	0.00031864	0.00076697	604.4	5.5107e-06	4.5387e-06	804.48	276.81	1.2646e-05	2.4433e-05	400.84	179.36	122.45	61.468	1.2227e-05	91.783	0.0061149	0.0057915	0.0018584	910.55	6.7384e-05	6.348e-05	1093.3	372.25	6.647e-05	6.2138e-05	555.45	229.22	161.27	75.5	7.2569e-05	112.9	238.840	229.596	171.223	87.822	381.915	264.351	86.466	92.276	415.197	221.234	90.422	94.534	96.789	100.962	312.279	98.469	-8191	255	
2781.675	1	1	0	0	0.079413	0.15096	0.19355	0.15753	0.14733	0.027294	0.2742	0.13676	0.14183	0.14741	0.17606	0.2041	0.055631	0.35164	0.18605	0.12455	-2.5104	-2.5042	-3.0792	-2.575	-2.7542	-3.1042	-2.5875	-2.9542	-2.8771	-2.4813	-3.25	-2.8896	-2.7479	-3.0812	-2.7708	-2.8375	411.250	288.714	90.510	426.592	372.432	106.229	335.513	370.379	290.851	157.131	125.498	331.009	111.204	77.895	110.357	384.641	0.00076772	0.0036369	0.00055287	596.21	1.1439e-05	3.0459e-05	805.08	273.79	4.5577e-06	1.6431e-05	404.42	182.11	122.43	61.69	2.4502e-05	91.826	0.0058008	0.0059859	0.0019002	905.87	6.6472e-05	6.8693e-05	1118.6	375.83	6.8139e-05	6.984e-05	575.03	234.04	163.08	78.468	7.8755e-05	114.83	206.367	167.779	75.897	87.416	249.985	208.610	86.113	92.036	120.559	215.744	90.547	94.794	96.613	101.309	351.064	98.309	-8191	255	
2781.771	1	1	0	0	0.1463	0.14458	0.16014	0.18929	0.13982	0.09621	0.22676	0.052962	0.17542	0.11279	0.12708	0.19026	0.47837	0.25706	0.23235	0.13229	-2.5896	-2.3729	-3.1312	-2.6667	-2.5396	-3.0958	-2.6625	-2.9375	-3.0792	-2.4458	-3.1667	-2.9	-2.4792	-3.2917	-2.2875	-2.7625	223.458	316.493	302.592	247.536	317.872	287.956	372.327	137.791	241.537	153.263	108.546	418.485	375.197	406.075	114.270	321.498	0.00049288	0.0022295	0.00036385	598.1	1.4873e-05	2.082e-05	802.5	274.01	2.0782e-05	4.1501e-05	401.67	180.68	123.25	62.093	1.0073e-05	93.431	0.0060521	0.0067939	0.0020311	919.55	6.7023e-05	7.5834e-05	1122.2	372.97	6.5924e-05	7.2692e-05	564.21	229.78	159.76	78.109	6.9423e-05	111.87	197.865	151.659	198.682	87.692	159.899	241.509	86.372	92.301	300.220	202.771	89.916	94.602	96.897	101.234	92.757	98.159	-8191	255	
2781.866	1	1	0	0	0.14736	0.25921	0.085257	0.085822	0.21286	0.26604	0.17059	0.24724	0.18714	0.13247	0.21503	0.23742	0.24111	0.090276	0.15729	0.31981	-2.6437	-2.1396	-3.1146	-2.8208	-2.4021	-3.1437	-2.5438	-2.8312	-2.7958	-2.5438	-3	-3.0396	-2.6104	-3.2042	-2.4542	-2.7938	427.115	163.635	332.306	314.211	78.408	238.336	313.873	310.762	197.954	294.821	386.166	396.502	407.810	77.559	232.612	364.036	0.00092513	0.0038534	0.00023456	586.44	1.9758e-05	1.4913e-05	798.06	270.02	1.7581e-05	3.0266e-05	406.01	183.98	124.25	62.344	9.8306e-06	94.887	0.0052269	0.0060284	0.0016453	836.45	5.5317e-05	6.3153e-05	1041.1	344.08	5.4599e-05	6.0494e-05	525.14	219.24	153.36	75.338	5.689e-05	108.09	229.086	139.808	287.788	87.276	237.923	267.291	86.254	92.491	248.779	170.718	89.919	94.683	96.888	101.061	249.032	98.045	-8191	255	
2781.939	1	1	0	0	0.055729	0.18718	0.15349	0.025504	0.21726	0.43099	0.2168	0.079855	0.16081	0.16687	0.264	0.20016	0.27239	0.066666	0.13481	0.18968	-2.8104	-2.3146	-2.9896	-2.9479	-2.3438	-3.0062	-2.6521	-2.7958	-2.9146	-2.3396	-2.8479	-3.0208	-2.4188	-3.2229	-2.7062	-2.6417	415.158	89.249	302.695	126.720	379.860	378.447	411.624	432.674	116.538	253.452	99.449	133.118	429.655	204.458	295.957	267.859	0.00094553	0.0010017	0.00038257	582.52	1.8219e-05	7.7366e-06	803.81	271.51	1.2078e-05	1.4536e-05	403.62	185.64	125.73	62.847	1.8832e-05	95.541	0.0046908	0.0052949	0.0014137	791.79	5.2244e-05	5.7373e-05	1006	333.01	5.3306e-05	5.6065e-05	511.6	215.62	154.11	74.332	5.1285e-05	106.09	218.754	226.142	152.251	87.186	249.082	215.415	86.013	92.312	249.398	409.551	90.190	94.574	96.573	101.025	341.195	97.925	-8191	255	
2782.058	1	1	0	0	0.092023	0.057528	0.082592	0.12308	0.28156	0.02308	0.21485	0.23341	0.065164	0.15859	0.11485	0.18926	0.43799	0.39102	0.072312	0.19551	-2.7375	-2.625	-2.6292	-3.0062	-2.1646	-2.9896	-2.7417	-2.4354	-3.3396	-2.5208	-2.7354	-3.1521	-2.3146	-3.1896	-2.5625	-2.7438	310.739	349.730	354.501	121.416	423.990	199.633	336.395	382.419	323.274	415.810	352.893	143.812	115.021	357.209	348.315	323.526	0.00080508	0.0014852	0.00035526	582.06	2.8407e-05	1.0758e-05	800.02	268.43	1.9174e-05	5.4748e-06	406.59	187.78	125.33	63.393	2.8171e-06	97.81	0.0044739	0.0047195	0.0012349	759.26	4.8395e-05	4.8604e-05	962.34	316.89	4.665e-05	4.5098e-05	481.19	209.28	147.23	71.442	4.0344e-05	104.94	205.146	240.531	200.182	87.533	166.224	322.190	86.253	92.590	225.866	97.151	90.267	94.431	96.517	100.732	276.056	97.717	-8191	255	
2782.154	1	1	0	0	0.023048	0.2536	0.22668	0.1601	0.17096	0.056492	0.28033	0.11188	0.19942	0.019216	0.10727	0.048305	0.17106	0.22153	0.17442	0.2524	-2.7938	-2.3979	-2.6063	-3.0333	-2.3187	-2.8958	-2.8312	-2.4771	-2.8646	-2.75	-2.6729	-3.1292	-2.7188	-2.9104	-2.7271	-2.4833	397.029	249.327	290.930	423.811	370.051	113.147	331.462	429.844	298.847	288.486	163.415	416.981	410.753	116.661	80.831	388.550	0.00089605	0.00051732	0.0002538	579.39	1.5217e-05	1.2223e-05	788.65	267.48	5.8268e-06	5.8064e-06	404.02	189.08	124.84	63.974	4.0383e-06	98.235	0.0038169	0.0038609	0.0010115	725.4	4.3465e-05	4.2613e-05	927.9	312.22	4.4065e-05	4.1775e-05	468.56	208.85	145.78	70.784	3.6682e-05	105.1	223.109	423.903	274.715	87.208	253.909	142.363	85.730	92.312	258.593	202.310	89.817	94.426	96.428	100.581	307.197	97.544	-8191	255	
2782.250	1	1	0	0	0.14917	0.085372	0.16301	0.14723	0.078812	0.070666	0.33177	0.17342	0.17455	0.32045	0.13919	0.31617	0.21693	0.1783	0.16658	0.17718	-2.6792	-2.6562	-2.5208	-3.1562	-2.4375	-2.8521	-3.1917	-2.3021	-3.0438	-2.5646	-2.6917	-3.1604	-2.5667	-3.0125	-2.8604	-2.7021	178.355	170.770	120.363	348.965	187.850	76.170	389.007	379.100	153.032	150.006	284.764	394.544	363.670	313.546	218.133	128.425	0.00065354	0.00072279	0.00025785	567.75	7.9425e-06	1.2945e-05	782.19	265.73	5.3054e-06	1.9921e-05	402.52	188.6	124.67	63.988	5.2407e-06	98.052	0.0035891	0.0035577	0.00090516	714.78	4.0341e-05	3.9189e-05	903.24	310.21	4.0937e-05	3.9204e-05	460.78	209.79	145.06	70.508	3.5663e-05	105.82	227.343	307.540	411.152	87.827	309.012	415.561	86.541	92.027	94.886	157.398	89.689	94.284	96.396	100.419	182.724	97.861	-8191	255	
2782.347	1	1	0	0	0.32573	0.17661	0.076492	0.096999	0.13876	0.1712	0.24303	0.016132	0.17	0.16909	0.26803	0.36439	0.25598	0.19347	0.26893	0.22532	-2.6667	-2.7687	-2.4542	-3.1667	-2.6188	-2.6646	-3.2938	-2.35	-2.9792	-2.8396	-2.4604	-3.2812	-2.7125	-2.825	-3.0042	-2.6167	210.637	368.522	92.055	293.731	316.233	382.670	135.239	365.300	287.507	365.888	233.768	425.880	412.566	344.679	416.909	100.369	0.00086755	0.00026812	0.00013356	567.91	9.9236e-06	1.1152e-05	785.72	263.03	2.9437e-06	7.7771e-06	403.74	188.84	124.85	63.575	2.161e-05	97.447	0.0035159	0.0034663	0.00089146	720.24	3.9415e-05	3.7499e-05	900.77	310.19	4.0038e-05	3.8138e-05	463.14	211.77	145.14	70.196	3.9089e-05	106.86	224.433	278.622	284.467	87.196	213.931	184.820	86.123	92.161	375.791	223.063	89.761	94.650	96.479	100.607	234.069	97.895	-8191	255	
2782.443	1	1	0	0	0.30346	0.17038	0.14452	0.36704	0.21299	0.29466	0.1927	0.083589	0.30851	0.10754	0.1393	0.19909	0.4435	0.020263	0.2058	0.26362	-2.425	-2.7958	-2.2833	-3.2	-2.7229	-2.5375	-3.1667	-2.7292	-2.8896	-2.7833	-2.7333	-3.1083	-2.6396	-2.6688	-3.125	-2.3729	199.003	233.014	337.339	425.688	375.182	374.797	307.173	112.159	86.385	127.020	78.941	412.294	410.857	345.938	363.207	295.811	0.00065426	0.000998	0.00065011	576.79	5.4798e-06	9.4646e-06	790.7	266.58	6.0446e-06	4.5578e-06	401.61	187.03	124.27	62.86	2.4936e-05	95.522	0.0037616	0.0036921	0.0010361	756.81	4.4111e-05	4.0837e-05	943.68	325.75	4.5239e-05	4.228e-05	485.77	216.72	149.62	70.85	4.8427e-05	108.03	240.418	168.180	121.842	87.519	390.963	396.508	86.053	92.283	315.691	419.845	90.533	94.502	96.652	100.501	258.005	97.978	-8191	255	
2782.539	1	1	0	0	0.19775	0.091752	0.10904	0.22826	0.086373	0.17478	0.07902	0.25272	0.030067	0.16313	0.25324	0.18462	0.28423	0.094117	0.21028	0.16997	-2.4146	-2.8917	-2.2854	-2.9729	-2.8396	-2.7208	-3.0812	-2.5958	-2.8146	-2.8812	-2.4604	-3.0979	-2.6792	-2.6042	-3.1521	-2.7438	173.995	122.068	297.840	401.436	133.616	102.118	395.674	98.504	234.149	284.282	369.137	318.913	314.852	425.626	292.774	313.346	0.00080886	0.00050738	0.00085561	571.54	1.525e-05	1.1787e-05	796.84	269.18	9.0141e-06	1.5999e-05	404.79	185.53	124.21	61.945	1.8207e-05	94.332	0.0042686	0.0041742	0.0012961	793.54	5.1233e-05	4.7383e-05	997.49	340.49	5.2589e-05	4.9507e-05	518.21	221.64	153.94	72.277	5.8261e-05	109.6	224.082	314.404	174.204	87.004	115.981	301.391	86.348	91.953	271.585	208.662	90.057	94.668	96.815	100.713	164.911	98.120	-8191	255	
2782.635	1	1	0	0	0.066805	0.24714	0.29815	0.22431	0.10629	0.032276	0.12838	0.15518	0.045964	0.32956	0.10011	0.2713	0.24922	0.11975	0.27747	0.29659	-2.3187	-3.0083	-2.3812	-3.25	-2.8167	-2.3146	-3.2833	-2.775	-2.6646	-2.9146	-2.4854	-3.0021	-3.0458	-2.3833	-3.1167	-2.7771	90.933	138.452	311.961	100.467	80.844	239.829	95.993	404.528	415.460	316.694	78.536	317.216	433.995	107.517	125.860	416.068	0.0005022	0.0010449	0.00046983	580.04	1.6774e-05	2.7644e-05	794.85	269.25	4.5345e-06	1.5298e-05	403.08	183.83	123.7	62.082	1.4204e-05	93.666	0.0047236	0.0047676	0.0015175	820.42	5.4519e-05	5.3978e-05	1037.5	349.05	5.5663e-05	5.6841e-05	536.28	225.5	156.19	74.369	6.4852e-05	110.81	205.001	105.437	151.305	87.359	396.602	255.034	86.005	92.171	415.106	168.256	90.355	94.738	96.437	101.000	96.885	98.158	-8191	255	
2782.756	1	1	0	0	0.15371	0.034136	0.085276	0.31894	0.28283	0.14274	0.053706	0.23041	0.11306	0.23799	0.34998	0.14581	0.22814	0.26542	0.078679	0.20227	-2.1604	-3.3896	-2.1958	-2.9646	-2.9458	-2.3771	-3.2958	-2.7562	-2.5729	-3.1917	-2.5125	-2.9604	-3.1417	-2.5062	-3.2667	-3.0083	231.592	336.142	239.236	401.175	395.128	342.171	420.384	400.195	179.943	265.905	150.741	95.261	324.254	107.726	413.461	111.535	0.00079523	0.0040821	0.00068118	584.2	2.3004e-05	1.7396e-05	796.58	270.19	8.0287e-06	4.2043e-05	405.4	187.26	124.15	62.494	1.0205e-05	96.11	0.0049893	0.0055412	0.0016694	844.97	5.6279e-05	5.9967e-05	1048.3	349.1	5.2988e-05	5.8135e-05	526.25	221.82	151.15	73.78	5.5144e-05	109.09	239.771	134.563	79.150	86.931	344.366	204.024	86.537	92.276	219.521	189.096	89.813	94.493	96.519	100.681	335.317	98.082	-8191	255	
2782.852	1	1	0	0	0.16663	0.022974	0.22154	0.069613	0.086234	0.22586	0.28605	0.14844	0.011151	0.14477	0.18475	0.1776	0.065212	0.25078	0.13467	0.17927	-2.0396	-3.1521	-2.5479	-2.8979	-2.9271	-2.4	-3.0875	-3.0521	-2.3458	-3.0667	-2.6229	-2.925	-3.1542	-2.4333	-2.8438	-2.975	409.962	395.005	252.805	394.621	291.204	317.787	235.200	107.663	159.235	384.141	422.471	374.062	362.236	380.150	249.701	352.124	0.00065173	0.0017271	0.00026936	571.99	1.7347e-05	1.8403e-05	797.03	265.01	1.4219e-05	2.4428e-05	402.74	187.83	123.9	62.694	9.7159e-06	97.246	0.004058	0.0047742	0.0013024	762.13	4.4014e-05	4.9205e-05	974.49	321.19	4.2031e-05	4.7897e-05	492.8	211.94	144.76	71.703	4.5046e-05	106.31	225.180	98.613	197.921	86.843	175.664	241.157	86.009	92.411	247.542	139.050	89.921	94.169	96.583	100.603	267.093	97.943	-8191	255	
2782.946	1	1	0	0	0.46584	0.057269	0.17577	0.15532	0.084601	0.074958	0.35782	0.18981	0.081601	0.18086	0.14807	0.25544	0.15117	0.14871	0.25182	0.085121	-2.1104	-3.0521	-2.5208	-2.8187	-2.7396	-2.3708	-3.1021	-2.8833	-2.5062	-2.9875	-2.6417	-2.5104	-3.05	-2.5146	-2.6979	-2.9062	176.364	378.604	167.470	356.937	183.707	238.070	398.147	95.220	413.118	201.017	252.078	323.386	154.930	340.194	302.167	370.307	0.00085238	0.00041939	0.000247	565.67	2.2616e-05	2.933e-05	794.69	262.79	1.9053e-05	8.712e-06	402.07	187.31	123.04	62.712	1.1537e-05	97.366	0.0035753	0.0041871	0.0011156	722.75	4.085e-05	4.4442e-05	944.28	309.34	4.0177e-05	4.3863e-05	478.8	206.45	142.95	70.494	4.0704e-05	104.36	231.218	158.235	226.915	86.987	272.464	252.977	86.259	92.037	235.136	123.262	90.265	94.379	96.407	100.693	402.375	97.937	-8191	255	
2783.044	1	1	0	0	0.19365	0.15287	0.19713	0.24629	0.14413	0.186	0.22646	0.12849	0.25958	0.087146	0.22395	0.15445	0.12285	0.28293	0.17005	0.13391	-1.8604	-2.9354	-2.5646	-2.4167	-3.1479	-2.6146	-2.9375	-3.1125	-2.3396	-3.1312	-2.8542	-2.5417	-3.3521	-2.475	-2.6875	-3.2854	219.457	76.530	299.579	125.208	306.169	422.500	379.999	362.310	384.721	79.139	407.368	423.812	403.070	98.918	329.318	404.864	0.0011483	0.0015964	0.00071307	568.44	1.4972e-05	5.7196e-07	786.79	264	1.6343e-05	8.2838e-06	404.2	187.29	123.9	62.505	9.2716e-06	96.643	0.0034757	0.0038331	0.0010218	702.51	4.0627e-05	4.1514e-05	928.07	305.25	4.1363e-05	4.3079e-05	476.77	206.32	146.19	71.022	4.215e-05	104.79	221.145	265.397	279.572	87.166	248.770	237.050	85.830	91.944	243.486	312.340	89.848	94.464	96.447	100.588	134.945	98.085	-8191	255	
2783.163	1	1	0	0	0.34459	0.063401	0.21054	0.22836	0.085464	0.21357	0.048253	0.14727	0.093437	0.05449	0.35853	0.13281	0.053591	0.36004	0.11605	0.41358	-1.9	-2.9417	-2.6042	-2.3646	-3.1167	-2.6188	-2.7354	-3.2833	-2.425	-2.9771	-2.8104	-2.55	-3.1708	-2.7687	-2.525	-3.1792	322.244	431.327	192.327	414.901	386.920	384.353	95.024	311.651	428.477	335.026	372.981	420.420	225.663	424.803	253.046	367.771	0.00079938	0.00087852	0.00050593	580.43	1.0229e-05	2.6603e-06	797.04	270.2	9.2565e-06	1.7838e-05	404.17	185.33	124.06	62.303	1.5356e-05	94.533	0.0039184	0.0041376	0.0011	734.03	4.7306e-05	4.6739e-05	953.85	323.15	4.9495e-05	4.8932e-05	492.38	211.86	152.72	72.551	4.7301e-05	106.13	225.934	360.634	351.730	87.475	240.460	399.767	86.012	92.171	321.858	358.238	90.177	94.447	96.532	101.105	415.044	98.109	-8191	255	
2783.235	1	1	0	0	0.26364	0.11463	0.16073	0.12452	0.44174	0.14221	0.26567	0.35269	0.13829	0.12503	0.27695	0.21357	0.12171	0.18713	0.12619	0.17977	-2.0062	-2.8083	-2.8042	-2.6021	-3.0062	-2.7188	-2.8146	-3.1104	-2.625	-2.7021	-2.975	-2.5438	-3.1958	-2.6479	-2.5583	-3.4333	128.620	357.427	162.570	285.620	220.273	253.272	364.968	324.373	183.030	165.710	425.079	324.498	132.871	369.494	243.441	415.041	0.00065407	0.00024594	0.00048416	591.34	1.7608e-05	2.1306e-05	804.6	277.02	4.169e-06	2.185e-05	406.17	181.44	124.06	62.034	1.682e-06	92.968	0.0047071	0.0047555	0.0012348	796.57	5.5876e-05	5.4519e-05	990.52	345.66	5.8166e-05	5.6103e-05	507.83	219.04	158.31	74.28	5.2279e-05	108.51	195.597	273.775	160.489	87.079	128.612	80.812	86.386	92.429	221.192	405.313	90.151	94.375	96.513	101.255	236.518	98.153	-8191	255	
2783.355	1	1	0	0	0.087348	0.30463	0.17032	0.29966	0.17999	0.20684	0.089801	0.074037	0.082021	0.047007	0.32245	0.068451	0.20874	0.10435	0.21905	0.05626	-2.1542	-2.7313	-2.8104	-2.4958	-2.9792	-2.8063	-2.7458	-3.2458	-2.5792	-2.625	-3.0146	-2.2896	-3.0208	-2.925	-2.3812	-3.3458	427.288	300.778	371.108	419.536	233.388	393.348	412.554	79.686	358.089	258.643	410.874	414.610	88.050	397.411	413.192	310.654	0.00088197	0.0011066	0.00036322	601.65	1.3034e-05	2.3371e-05	810.42	280.38	7.0835e-06	1.5705e-05	408.14	181.96	124.07	62.499	2.8771e-05	93.166	0.0052107	0.0051524	0.0013213	841.88	5.821e-05	5.561e-05	1001.5	355.67	5.8316e-05	5.5199e-05	511.18	221.68	157.92	74.163	5.3247e-05	109.52	206.592	195.457	314.173	87.375	176.707	266.103	85.975	92.542	216.343	427.508	90.246	94.407	96.778	101.191	241.198	98.285	-8191	255	
2783.451	1	1	0	0	0.042966	0.14471	0.03155	0.37186	0.020948	0.045813	0.12765	0.21782	0.16195	0.14722	0.18453	0.26648	0.12048	0.028469	0.11868	0.41022	-2.1479	-2.6375	-3.0979	-2.4729	-2.6271	-3.0104	-2.5333	-3.0625	-2.4896	-2.5979	-3.1125	-2.3979	-3.0062	-2.825	-2.275	-3.1167	324.125	429.916	248.239	408.471	248.781	407.073	331.069	78.300	205.317	109.854	305.389	390.624	387.305	277.485	213.868	374.489	0.00077306	0.0013462	0.00073145	605.43	3.0673e-06	1.4239e-05	810.43	280.84	1.1075e-05	2.0875e-05	408.86	181.93	125.75	62.703	2.5801e-05	93.462	0.0050616	0.0049395	0.0013608	849.7	5.6981e-05	5.3181e-05	1012.9	359.75	5.6452e-05	5.1753e-05	517.05	220.28	156.42	73.163	5.2927e-05	109.05	216.467	125.352	149.132	87.207	432.110	377.838	86.320	92.720	294.414	413.067	90.392	94.600	96.314	101.093	239.789	98.133	-8191	255	
2783.548	1	1	0	0	0.091507	0.057561	0.24926	0.13612	0.056221	0.1423	0.24302	0.2843	0.30321	0.091733	0.0026685	0.30017	0.14088	0.38663	0.26627	0.20364	-2.1458	-2.4062	-3.0042	-2.5354	-2.9167	-2.8312	-2.5292	-3.0042	-2.8917	-2.4938	-3.0167	-2.5625	-2.9271	-3.0708	-2.1833	-3.275	288.332	405.113	124.612	273.411	343.031	260.988	422.141	403.220	82.823	82.495	120.107	86.749	321.980	399.746	353.704	431.257	0.00056011	0.00055681	0.00060707	599.26	1.037e-05	8.6328e-06	804.22	279.01	1.91e-06	4.8279e-06	409.58	183.02	125.76	63.896	8.5148e-06	95.879	0.0047025	0.0043983	0.0013519	820.61	5.1015e-05	4.6495e-05	993.74	345.26	4.8057e-05	4.3188e-05	501.03	212.91	148.73	71.031	4.5774e-05	106.34	194.299	297.246	189.436	87.299	363.312	296.775	86.384	92.133	383.487	114.086	89.848	94.898	96.440	100.907	242.559	97.949	-8191	255	
2783.644	1	1	0	0	0.14286	0.30043	0.2439	0.24406	0.24258	0.15413	0.11125	0.19873	0.27703	0.058602	0.18714	0.11105	0.26567	0.1876	0.11143	0.029842	-2.4292	-2.4271	-3.0938	-2.6437	-2.6958	-2.9813	-2.5958	-2.9708	-2.7792	-2.6146	-3.1562	-2.5833	-2.8042	-3.0021	-2.2812	-2.9167	198.410	366.103	347.086	86.308	138.671	310.901	418.570	420.608	151.553	234.386	134.031	148.958	399.488	409.070	279.229	271.640	0.00089746	0.0010921	0.00040588	581.61	1.4318e-05	1.2051e-05	791.64	269.59	4.7375e-06	4.5375e-06	397.89	184.44	123.23	63.451	8.2804e-06	96.808	0.0037401	0.0035516	0.0011375	750.16	3.9874e-05	3.813e-05	936.4	317.89	3.8138e-05	3.6289e-05	474.37	205.66	140.31	69.495	4.0142e-05	104.39	220.347	160.908	173.016	87.029	98.782	227.659	86.276	92.164	278.009	431.728	89.661	94.467	96.266	100.472	264.850	97.679	-8191	255	
2783.764	1	1	0	0	0.025802	0.41959	0.044174	0.13558	0.24972	0.17889	0.3143	0.16798	0.078192	0.18009	0.23828	0.26444	0.081323	0.19604	0.18032	0.072468	-2.3438	-2.55	-2.9083	-2.5917	-2.6896	-2.925	-2.5292	-2.9521	-3.0146	-2.1854	-3.1146	-2.7562	-2.75	-3.3187	-2.2125	-2.8875	255.754	262.422	161.389	394.552	271.225	264.347	365.169	386.527	77.847	414.590	364.750	92.745	80.396	91.918	232.492	374.599	0.00072385	0.00065259	8.3873e-05	568.45	7.9313e-06	2.7075e-05	777.44	263.01	8.3663e-06	2.265e-05	398.18	184.53	123.43	63.202	8.7762e-06	97.847	0.0031417	0.0032327	0.0010166	709.22	3.3902e-05	3.6306e-05	909.98	306.88	3.3922e-05	3.5701e-05	465.87	203.48	137.69	69.5	3.7612e-05	104.24	215.811	409.942	205.096	86.983	299.755	225.788	86.202	91.917	352.585	172.112	90.042	94.294	96.206	100.673	261.891	97.604	-8191	255	
2783.836	1	1	0	0	0.080208	0.037258	0.18501	0.11107	0.20256	0.035851	0.085621	0.18932	0.090991	0.29583	0.099057	0.14872	0.047988	0.35591	0.096648	0.32461	-2.4813	-2.3729	-2.9146	-2.7729	-2.6	-3.1208	-2.7604	-2.7958	-2.9458	-2.3563	-3.0146	-2.8146	-2.5333	-3.2646	-2.4958	-2.8292	89.689	175.154	353.288	342.882	319.549	217.457	101.754	347.140	161.447	199.451	111.845	393.268	113.649	391.602	404.619	327.799	0.00066163	0.0016341	0.00033168	563.3	1.8324e-05	1.6989e-05	776.19	258.75	1.2072e-05	7.3056e-06	392.3	184.59	121.4	63.557	9.1601e-06	98.437	0.0028731	0.0032688	0.00094596	693.78	3.1673e-05	3.6315e-05	896.63	296.57	3.1879e-05	3.5482e-05	454.12	200.75	134.31	68.941	3.4245e-05	103.17	217.655	157.961	205.188	87.510	179.442	175.876	86.218	91.680	249.347	194.854	89.794	94.307	96.008	100.612	226.132	97.429	-8191	255	
2783.932	1	1	0	0	0.17432	0.18433	0.26689	0.23391	0.13454	0.14115	0.34664	0.1085	0.28362	0.33056	0.069926	0.34712	0.19185	0.32696	0.03276	0.28351	-2.5917	-2.1813	-2.9792	-2.7625	-2.4104	-3.1688	-2.825	-2.5917	-2.9562	-2.6875	-2.9104	-2.7917	-2.6292	-3.2604	-2.6396	-2.8896	265.859	170.798	316.725	403.148	144.522	247.476	417.191	386.696	316.287	396.069	409.907	401.549	95.582	422.787	271.461	412.786	0.0009977	0.0014213	0.00049052	555.97	2.1936e-05	7.4286e-06	770.06	249.88	1.4236e-05	1.3809e-05	385.31	184.24	119.77	62.794	4.0795e-06	98.525	0.0027263	0.0031417	0.00085092	666.65	3.0252e-05	3.434e-05	873.82	282.72	3.0442e-05	3.3482e-05	438.06	196.78	132.11	67.864	3.111e-05	102.19	207.409	413.896	127.998	86.775	236.364	236.655	86.455	91.647	231.004	220.668	89.567	93.980	96.382	100.429	353.156	97.292	-8191	255	
2784.027	1	1	0	0	0.10017	0.16361	0.25141	0.13315	0.047033	0.08404	0.31049	0.28676	0.12382	0.32804	0.29228	0.083063	0.28366	0.19046	0.2146	0.37778	-2.6583	-2.4521	-2.8312	-3.0125	-2.2271	-3.0146	-2.8563	-2.6292	-3.0563	-2.55	-3.0667	-3.075	-2.5292	-3.1021	-2.8229	-2.6042	103.731	281.013	322.795	112.478	90.119	229.564	420.976	344.125	205.607	248.151	349.068	401.491	321.546	432.041	166.443	398.401	0.00095251	0.0005002	0.00011695	544.81	1.5956e-05	3.0963e-06	753.62	240.01	1.2553e-05	6.978e-06	371.47	181.5	114.93	62.136	1.1453e-05	100.33	0.002622	0.0028522	0.00075688	638.74	2.8787e-05	3.0328e-05	837.24	264.34	2.8407e-05	2.8701e-05	411.17	190.2	125.31	65.5	2.585e-05	101.18	223.321	201.963	117.540	86.849	244.421	93.261	86.077	91.559	226.540	423.440	89.929	94.266	96.180	99.942	282.156	97.049	-8191	255	
2784.147	1	1	0	0	0.2172	0.055244	0.17148	0.21116	0.17839	0.14451	0.01761	0.30319	0.082379	0.15184	0.15243	0.055276	0.13499	0.042969	0.28034	0.12706	-2.6937	-2.4292	-2.5896	-3.2021	-2.3875	-2.9313	-2.9313	-2.4521	-3.0563	-2.5208	-2.6292	-3.1792	-2.4271	-3.0125	-2.8438	-2.6688	201.884	100.674	311.147	290.099	84.509	276.207	417.273	374.945	421.300	239.403	227.600	151.493	373.588	278.361	127.211	326.543	0.00069621	0.0020704	0.00032683	526.29	2.4981e-05	1.2513e-05	715.87	225.94	1.4347e-06	7.5903e-06	356.68	181.05	113.93	62.249	1.0731e-05	100.24	0.0023332	0.0024088	0.00063192	597.96	2.5971e-05	2.579e-05	784.87	247.55	2.6155e-05	2.5641e-05	390.7	188.02	123.83	65.284	2.4136e-05	101.55	217.097	174.193	330.445	86.867	263.820	243.236	85.318	92.192	414.039	227.473	89.612	93.907	95.855	99.793	400.518	97.352	-8191	255	
2784.243	1	1	0	0	0.17373	0.19821	0.23137	0.27008	0.097026	0.14082	0.39079	0.094326	0.091377	0.24683	0.24882	0.3449	0.23915	0.28552	0.081586	0.31454	-2.7042	-2.7292	-2.3521	-2.8729	-2.375	-3.0187	-3.0312	-2.5563	-3.2167	-2.6854	-2.5312	-3.1063	-2.5708	-2.9125	-3.0458	-2.5083	267.565	80.315	251.856	429.812	245.567	262.233	298.723	247.597	319.745	212.843	427.115	414.138	359.571	393.067	97.422	381.727	0.00072304	0.0012708	0.00012182	517.51	5.9888e-06	4.1331e-06	717.42	227.05	2.8349e-06	3.7446e-06	357.29	180.77	113.77	62.719	1.4109e-05	100.28	0.0023772	0.0023659	0.00061432	603.33	2.7325e-05	2.6494e-05	786.38	251.94	2.8057e-05	2.6984e-05	391.22	191.02	125.9	65.885	2.4916e-05	102.68	212.127	74.607	273.778	87.039	173.772	358.436	86.074	92.014	83.601	225.424	89.683	94.156	96.307	99.894	370.293	97.111	-8191	255	
2784.339	1	1	0	0	0.14343	0.14961	0.049819	0.36717	0.19536	0.15222	0.2684	0.1927	0.24603	0.056197	0.1184	0.24493	0.10135	0.25379	0.14837	0.2709	-2.625	-2.75	-2.3979	-3.1604	-2.5896	-3.0062	-3.0375	-2.3979	-2.8917	-2.8	-2.6188	-3.1021	-2.7396	-2.8187	-2.8063	-2.65	427.862	348.260	290.988	364.630	289.897	303.748	337.620	87.439	418.053	99.830	380.976	425.447	158.487	379.937	397.138	433.265	0.00077681	0.0012859	0.00015605	526.29	6.3343e-06	1.5676e-05	717.18	228.79	1.9856e-05	9.4022e-06	362.52	182.83	116.02	62.925	1.0087e-05	100.69	0.0025287	0.0025048	0.00063629	623.97	2.9022e-05	2.7902e-05	794.56	260.4	2.9651e-05	2.8464e-05	400.19	195	129.24	67.029	2.7853e-05	105.14	216.865	167.353	210.958	86.820	333.737	125.337	85.921	92.077	291.639	197.766	89.767	94.140	95.934	99.773	263.416	96.889	-8191	255	
2784.436	1	1	0	0	0.018079	0.11119	0.12196	0.20891	0.29435	0.36001	0.11246	0.26543	0.18991	0.15029	0.35821	0.21468	0.12294	0.21087	0.093734	0.20801	-2.5938	-2.7958	-2.5312	-3.1875	-2.4688	-2.8542	-2.9729	-2.6417	-2.9792	-2.9208	-2.5187	-3.2583	-2.6271	-2.8521	-3.2958	-2.4479	378.110	132.115	74.840	345.539	237.523	232.561	345.048	97.393	416.199	241.410	384.792	426.784	411.978	375.263	111.668	368.082	0.00086288	0.00083543	0.0002759	530.43	1.0909e-05	6.2411e-06	727.37	236.12	1.5992e-05	1.3148e-05	369.5	183.2	116.84	63.747	2.4506e-05	100.84	0.0027426	0.0027217	0.00071746	649.82	3.1299e-05	2.9528e-05	819.51	272.67	3.2017e-05	3.0405e-05	416.8	199.85	132.64	67.878	3.1639e-05	106.11	233.667	398.550	140.966	86.877	289.986	226.816	86.011	92.006	286.177	418.408	89.528	94.033	95.888	99.896	255.392	96.968	-8191	255	
2784.532	1	1	0	0	0.16744	0.17127	0.13782	0.19855	0.25599	0.19716	0.29106	0.37833	0.16308	0.049021	0.12198	0.35047	0.061882	0.3487	0.37646	0.20249	-2.3937	-2.8083	-2.2687	-3.1833	-2.5396	-2.4604	-3.0833	-2.4917	-2.8354	-2.8958	-2.6208	-3.3125	-2.8187	-2.6083	-3.2104	-2.5333	209.616	147.335	232.500	232.439	126.961	212.400	348.225	275.316	172.587	421.450	108.791	408.133	368.019	106.841	138.568	256.202	0.00087654	0.0013999	0.00036249	536.37	1.6777e-05	6.7299e-06	736.76	236.67	6.1268e-06	7.6019e-06	366.81	182.29	117.08	63.522	4.0469e-06	100	0.0029056	0.0027844	0.00080903	665.13	3.2852e-05	2.9789e-05	838.94	275.94	3.2387e-05	2.9757e-05	420.6	198.89	132.25	67.586	3.3289e-05	105.27	216.366	198.254	141.380	86.554	284.448	253.399	85.820	92.128	359.999	92.900	89.705	94.161	96.025	100.087	102.552	97.470	-8191	255	
2784.628	1	1	0	0	0.054695	0.13896	0.090152	0.20886	0.13038	0.2309	0.24322	0.082082	0.15921	0.11167	0.28776	0.23439	0.1491	0.29315	0.16462	0.15267	-2.1354	-3.1042	-2.4437	-3.0854	-2.8042	-2.5229	-3.0896	-2.3896	-2.7833	-3.1063	-2.3896	-3.2396	-2.7271	-2.6562	-3.2812	-2.5125	161.564	354.964	93.939	347.916	378.125	345.320	82.077	139.601	432.217	79.607	314.094	426.433	100.921	425.274	86.437	142.088	0.00090649	0.0016952	0.00094867	533.56	1.132e-05	8.7578e-06	732.02	235.22	4.1811e-06	7.0171e-06	359.49	179.55	116.04	63.218	1.17e-05	98.512	0.0028735	0.0027586	0.00086698	663.78	3.2602e-05	3.0352e-05	840.84	274.41	3.1121e-05	2.9153e-05	415.18	194.6	129.18	67.041	3.2785e-05	103.27	223.786	159.731	169.603	86.601	258.338	194.744	85.880	91.633	338.308	262.039	89.274	94.108	95.979	99.896	252.315	97.024	-8191	255	
2784.724	1	1	0	0	0.06387	0.15741	0.097612	0.32234	0.18561	0.21383	0.012181	0.085978	0.097535	0.1277	0.25707	0.17159	0.099362	0.21982	0.095758	0.23782	-2.1646	-2.8854	-2.3896	-2.7854	-2.825	-2.5938	-2.9792	-2.7271	-2.5312	-3.1542	-2.2896	-2.9813	-2.8604	-2.3792	-2.9417	-2.7354	194.237	131.643	400.686	367.927	142.304	424.571	297.137	208.584	187.092	268.420	76.127	145.463	313.005	109.747	289.716	391.997	0.00090632	0.00087651	0.00079485	524.08	5.0426e-06	1.5875e-05	712.47	231.18	1.892e-05	6.1637e-06	363.06	179.87	116.66	63.316	5.8252e-06	98.247	0.0026292	0.0026891	0.00083763	640.46	2.994e-05	3.0069e-05	821.78	269.3	3.0412e-05	3.2371e-05	423.45	196.73	131.45	68.493	3.6631e-05	104.23	225.037	80.016	179.137	86.764	289.318	200.382	85.547	91.742	378.481	147.082	89.684	94.113	96.073	99.931	254.480	97.346	-8191	255	
2784.845	1	1	0	0	0.1905	0.21571	0.20203	0.30005	0.1658	0.16211	0.14855	0.2072	0.25781	0.11759	0.22108	0.23607	0.044342	0.29734	0.18002	0.21952	-2.2958	-3.0896	-2.3125	-2.9375	-2.8604	-2.4167	-3.0917	-2.6896	-2.3292	-3.0875	-2.5646	-2.8563	-2.9062	-2.4771	-2.9708	-2.9479	165.443	389.342	169.023	386.583	302.988	150.391	291.382	76.942	408.630	356.479	377.746	430.749	152.891	80.098	264.811	364.351	0.00079788	0.0019341	0.00045708	537.74	1.85e-05	2.0131e-05	726.75	237.4	9.671e-06	1.6983e-05	369.23	179.73	117.75	62.975	1.3598e-05	97.863	0.0027919	0.0031732	0.00091831	665.11	3.1676e-05	3.4783e-05	852.35	277.95	3.2049e-05	3.6598e-05	435.79	199.37	133.82	69.636	3.9538e-05	105.5	234.233	177.794	376.008	86.673	206.288	208.817	85.822	91.953	152.614	201.469	89.765	93.889	96.151	100.203	355.911	97.262	-8191	255	
2784.939	1	1	0	0	0.24951	0.020813	0.11794	0.063983	0.29265	0.19791	0.078352	0.15497	0.13229	0.12317	0.26754	0.09429	0.13839	0.10064	0.34013	0.060388	-2.0083	-3.0292	-2.3646	-2.4688	-2.9813	-2.25	-3.0896	-2.7521	-2.5208	-3.0833	-2.7729	-2.5958	-3.0458	-2.4146	-2.85	-3.0354	284.612	371.672	365.778	331.361	185.428	215.799	347.401	359.598	133.201	201.714	412.393	244.430	189.706	105.230	315.736	268.642	0.00081806	0.0021235	4.816e-05	547.15	9.9612e-06	5.8957e-06	752.56	254.49	1.9208e-05	8.4917e-06	390.82	185.26	123.16	63.752	9.068e-06	98.338	0.0031697	0.0038214	0.0010748	707.45	3.888e-05	4.3823e-05	918.34	305.31	4.0228e-05	4.5472e-05	475.34	208.61	144.14	72.902	4.5088e-05	107.21	218.200	120.152	301.755	87.073	185.730	255.041	85.827	91.857	260.634	210.939	90.304	93.803	96.361	100.277	297.519	97.540	-8191	255	
2785.035	1	1	0	0	0.11516	0.12564	0.21148	0.29354	0.1069	0.060834	0.15728	0.028165	0.085461	0.25091	0.33939	0.26045	0.3161	0.21108	0.042563	0.36209	-1.8521	-3.0667	-2.3042	-2.6583	-2.8396	-2.4896	-2.8104	-2.9062	-2.375	-2.8833	-2.5979	-2.5563	-3.2125	-2.6542	-2.8146	-2.9688	408.750	206.495	305.658	382.585	152.805	423.677	73.989	212.921	294.942	127.802	421.124	411.513	110.589	396.280	244.964	390.042	0.00095248	0.0016833	0.00050429	556.46	1.5975e-05	1.2313e-05	778.94	262.78	1.4459e-05	1.4887e-05	400.19	185.83	123.91	63.704	6.9431e-06	98.053	0.0037668	0.0042773	0.0011636	724.64	4.3631e-05	4.7406e-05	944.28	313.63	4.5004e-05	4.7554e-05	487.19	209.81	148.09	73.309	4.6034e-05	107.02	220.309	386.592	177.475	87.251	278.200	264.242	86.110	91.926	283.850	395.024	89.889	94.114	96.464	100.439	158.690	97.972	-8191	255	
2785.131	1	1	0	0	0.051525	0.25463	0.17236	0.2154	0.088286	0.10822	0.07715	0.11902	0.094048	0.21228	0.18211	0.25418	0.11223	0.19205	0.1811	0.085662	-1.8979	-3.1396	-2.3792	-2.5563	-2.9875	-2.4	-2.6937	-2.9854	-2.4458	-2.8479	-2.7021	-2.4917	-3.2146	-2.65	-2.9167	-3.025	127.632	261.185	82.636	84.220	420.364	203.390	375.439	294.966	137.380	236.284	412.342	400.306	136.746	414.937	211.264	383.864	0.0010326	0.00099313	0.00062171	565.71	1.5516e-05	1.1958e-05	783.01	265.18	1.7216e-05	6.4152e-06	399.76	186.93	123.69	63.328	1.2443e-05	98.112	0.0040668	0.0043537	0.0011674	727.9	4.6855e-05	4.7374e-05	946.46	315.92	4.686e-05	4.7055e-05	484.76	209.97	148.95	72.547	4.3255e-05	107.08	212.890	406.785	393.638	86.956	211.643	251.326	85.796	92.206	201.561	239.560	89.882	94.365	96.352	100.389	335.364	97.777	-8191	255	
2785.228	1	1	0	0	0.083056	0.12313	0.15705	0.12983	0.15873	0.27118	0.2357	0.15672	0.03495	0.019617	0.17207	0.12289	0.14584	0.27585	0.071504	0.40875	-2.0479	-2.8417	-2.7521	-2.4958	-2.8875	-2.5687	-2.5979	-3.0771	-2.3167	-2.7729	-2.7542	-2.6417	-3.2375	-2.8167	-2.4396	-3.3625	329.491	107.710	354.750	332.740	79.666	125.656	349.001	428.482	76.082	259.868	387.783	425.367	419.187	402.267	375.650	95.584	0.00086769	0.0010584	0.00022697	570.15	1.2286e-05	1.3292e-05	782.96	262.66	1.3806e-05	2.0975e-05	398.69	186.72	123.22	63.535	1.3817e-05	99.133	0.0040322	0.004138	0.0010853	723.03	4.6182e-05	4.4453e-05	929.27	313.93	4.5574e-05	4.4055e-05	474.82	209.85	146.83	71.493	3.8688e-05	107.72	225.362	418.599	359.229	87.081	267.502	241.464	85.862	92.047	231.480	208.250	89.636	94.424	96.287	100.592	296.568	97.747	-8191	255	
2785.324	1	1	0	0	0.18889	0.072507	0.4955	0.20598	0.28492	0.13067	0.32714	0.25695	0.062665	0.10858	0.046891	0.28236	0.21207	0.34981	0.068974	0.10009	-2.0812	-2.8	-2.9167	-2.5021	-3.1646	-2.5208	-2.6375	-3.1312	-2.5938	-2.8417	-3.1937	-2.4646	-3.1875	-2.8187	-2.5375	-3.3021	184.528	262.510	373.263	338.353	322.576	110.879	357.753	100.457	250.338	356.504	249.165	361.264	404.668	104.129	292.417	405.549	0.00085528	0.0015774	5.8052e-05	561.91	1.3236e-05	1.7102e-05	787.77	263.48	2.7748e-06	2.3565e-05	399.09	186.81	123.69	63.593	5.5786e-06	98.487	0.0037874	0.0037632	0.00096443	716.82	4.235e-05	4.0781e-05	910.61	312.61	4.2364e-05	4.0841e-05	466.38	209.47	145	70.895	3.6918e-05	107.35	227.931	177.636	103.272	86.774	429.204	273.726	85.855	92.069	393.550	420.735	89.536	94.270	96.180	100.604	408.952	97.900	-8191	255	
2785.420	1	1	0	0	0.088394	0.10514	0.13407	0.14462	0.35849	0.11601	0.14373	0.21185	0.22205	0.12279	0.17724	0.27491	0.228	0.1363	0.045612	0.17405	-2.2021	-2.775	-2.9833	-2.5167	-2.925	-2.7938	-2.6292	-3.0917	-2.4458	-2.8396	-3.0667	-2.7396	-3.0312	-3.0125	-2.3812	-3.2604	371.804	383.209	131.164	352.295	222.503	211.169	410.149	399.674	390.144	87.517	342.198	86.100	76.963	415.237	109.505	127.950	0.00090872	0.00054908	0.00032655	561.99	5.5406e-06	1.3837e-05	786.25	263.09	9.9605e-06	5.8576e-06	398.32	185.22	122.97	63.31	2.2207e-05	97.66	0.0036545	0.0035939	0.000947	724.8	4.1052e-05	3.8898e-05	905.26	313.37	4.0543e-05	3.7891e-05	462.03	208.11	142.76	69.866	3.6617e-05	106.56	223.983	163.732	197.328	86.531	145.958	87.311	86.141	92.131	331.656	271.406	90.110	94.227	95.696	100.435	271.621	97.521	-8191	255	
2785.540	1	1	0	0	0.068366	0.3629	0.218	0.39711	0.17122	0.2387	0.33345	0.22499	0.065503	0.14463	0.14724	0.15831	0.40411	0.23513	0.070588	0.19277	-2.0042	-2.4979	-3.025	-2.5604	-2.8937	-2.8917	-2.5625	-3.2646	-2.6312	-2.4313	-3.1979	-2.65	-2.8896	-3.0687	-2.4396	-3.2917	243.877	291.490	170.513	396.621	382.891	156.547	285.283	93.395	160.698	247.216	395.939	389.368	374.060	116.474	275.197	341.292	0.0005722	0.00081372	0.00016574	565.89	9.672e-06	4.5421e-06	783.14	260.44	3.2493e-06	1.4122e-05	396.43	185.72	123.48	63.596	2.6191e-05	97.652	0.0034715	0.0033236	0.00096632	723.33	3.938e-05	3.6805e-05	909.37	311.08	3.9097e-05	3.567e-05	464.98	207.85	142.61	69.489	3.8578e-05	106.09	218.496	295.983	152.833	87.132	234.900	247.349	86.235	91.763	338.563	334.463	89.964	94.413	96.282	100.616	246.920	97.756	-8191	255	
2785.637	1	1	0	0	0.18479	0.34655	0.16404	0.076177	0.25928	0.20864	0.055455	0.19725	0.18092	0.20916	0.076897	0.14318	0.21864	0.098334	0.15108	0.43402	-2.1208	-2.5854	-3.0917	-2.6229	-2.7979	-2.9979	-2.4042	-3.1333	-2.6854	-2.3417	-3.0167	-2.8125	-2.6229	-3.2188	-2.4729	-3.1354	210.645	189.268	229.547	355.229	244.264	91.545	402.274	409.233	325.270	119.880	91.511	392.525	432.133	426.203	286.996	380.621	0.00070023	0.0015317	0.00055701	561.94	1.0087e-05	2.2239e-05	774.99	260.2	2.0047e-05	1.7597e-05	390.02	184.45	123.1	63.486	1.9559e-05	96.914	0.0034299	0.0032148	0.0010063	718.4	3.8246e-05	3.5583e-05	911.11	307.71	3.8158e-05	3.5014e-05	464.67	206.34	141.1	69.261	3.9835e-05	104.63	239.488	115.727	124.275	86.962	247.356	235.296	85.995	92.113	358.257	242.856	89.927	93.895	96.107	100.281	252.357	97.797	-8191	255	
2785.708	1	1	0	0	0.19704	0.14221	0.14356	0.050461	0.090887	0.14141	0.19993	0.28321	0.071804	0.22627	0.32131	0.11146	0.29203	0.18018	0.14328	0.26739	-2.2625	-2.4604	-3.0042	-2.4417	-2.7542	-2.8521	-2.5208	-3.0125	-2.9354	-2.5875	-3.2208	-2.8354	-2.6417	-3.1688	-2.4896	-2.9479	103.916	347.664	201.104	406.076	412.485	322.376	398.571	339.034	217.887	196.138	402.859	176.300	117.616	112.778	285.044	357.833	0.00076285	0.00020996	0.0006896	558.91	7.4616e-06	2.4711e-05	765.69	254.9	7.876e-06	3.1863e-05	385.26	182.54	121.27	63.336	9.7595e-06	95.4	0.0032758	0.0032157	0.0010337	708.94	3.6234e-05	3.6173e-05	902.04	301.37	3.6084e-05	3.5584e-05	456.87	202.89	137.65	69.226	3.8688e-05	102.84	223.554	332.235	167.925	86.887	266.882	252.374	85.672	91.963	322.066	237.978	90.095	94.280	96.188	100.491	286.910	97.319	-8191	255	
2785.804	1	1	0	0	0.22938	0.082202	0.058333	0.16101	0.17876	0.069644	0.099673	0.11768	0.20314	0.15498	0.1634	0.16104	0.52472	0.074216	0.028182	0.3352	-2.4125	-2.2771	-3.1958	-2.6229	-2.7583	-3.0604	-2.5854	-2.8708	-2.9292	-2.4667	-3.0521	-2.6792	-2.6458	-3.05	-2.4792	-2.9667	320.577	254.347	279.401	370.908	132.646	365.301	405.942	117.511	157.946	201.740	84.349	364.516	385.929	367.931	122.558	79.834	0.00057549	0.0012002	0.000595	552.57	1.3645e-05	4.2662e-05	750.81	249.81	1.0967e-05	1.5184e-05	376.53	181.52	120.26	63.419	3.8251e-07	96.361	0.0029964	0.0032201	0.00097604	688.52	3.245e-05	3.5801e-05	880.03	290.45	3.2779e-05	3.5615e-05	443.26	199.3	134.34	69.138	3.6663e-05	102.42	236.332	84.435	419.509	86.641	291.147	225.741	86.127	91.925	154.779	214.393	89.386	94.038	96.107	100.417	116.449	96.993	-8191	255	
2785.923	1	1	0	0	0.079467	0.24314	0.10672	0.21389	0.12303	0.080053	0.1368	0.24348	0.33409	0.25809	0.25541	0.06054	0.22283	0.18379	0.056227	0.23599	-2.6979	-2.45	-2.9	-2.9104	-2.5312	-3.1813	-2.6792	-2.8333	-3.1792	-2.4021	-2.8792	-2.9354	-2.3937	-3.1437	-2.4604	-2.9188	266.573	378.965	160.502	288.442	286.699	240.174	360.506	361.560	340.126	166.177	87.408	95.044	419.958	416.046	392.739	99.911	0.00099835	0.0018471	0.00022109	548.25	1.8651e-05	1.2492e-05	750.46	246.6	7.2187e-06	8.6022e-06	374.45	181.33	119.89	63.141	4.7876e-06	96.882	0.0028237	0.0032962	0.00091957	674.52	3.165e-05	3.6077e-05	868.13	283.85	3.2287e-05	3.6595e-05	436.56	197.62	134.55	69.186	3.59e-05	102.5	217.644	150.221	147.241	86.725	259.418	230.050	86.078	92.042	230.929	169.739	89.902	94.094	95.912	100.414	252.868	97.065	-8191	255	
2786.019	1	1	0	0	0.20347	0.025414	0.11412	0.030653	0.21707	0.071494	0.16552	0.027813	0.19424	0.10102	0.10637	0.37131	0.17785	0.15756	0.32402	0.22228	-2.5854	-2.5042	-2.975	-2.9667	-2.6604	-3.0729	-2.7083	-2.7729	-3.1167	-2.4604	-2.8146	-3.0979	-2.6771	-3.1042	-2.7479	-2.7792	348.433	351.775	278.774	289.275	240.132	246.355	397.950	411.057	133.672	180.964	416.967	418.769	416.004	359.996	166.027	370.404	0.00091865	0.0020505	0.00017578	553.22	2.2574e-05	1.2069e-05	753.38	249.96	1.4991e-05	8.2946e-06	381.6	183.39	121.91	63.397	1.3129e-05	96.846	0.002941	0.00342	0.00092909	677.23	3.4633e-05	3.8528e-05	883.65	290.13	3.6275e-05	3.9552e-05	450.48	200.81	139.88	70.62	3.8833e-05	103.03	221.233	149.496	321.513	87.216	228.859	405.845	85.987	91.718	267.702	178.130	89.876	94.075	96.120	100.235	124.453	97.211	-8191	255	
2786.117	1	1	0	0	0.24735	0.18488	0.11534	0.17993	0.084769	0.10098	0.18945	0.24043	0.15068	0.037908	0.10656	0.2519	0.16667	0.13795	0.24395	0.096861	-2.6271	-2.5396	-2.8125	-2.8229	-2.3375	-2.8521	-2.8375	-2.6125	-3.0062	-2.7083	-3.0229	-3	-2.4729	-3.2562	-2.7646	-2.6833	120.215	272.038	221.065	421.698	93.857	195.971	368.665	310.238	163.147	136.874	314.472	397.289	98.236	393.087	363.173	347.812	0.00094946	0.00097264	0.0003643	556.67	2.9991e-05	1.227e-05	770.09	256.82	1.9468e-06	5.1701e-06	390.27	185.66	123.11	63.658	8.3484e-06	96.661	0.0034403	0.0037318	0.0010052	694.98	3.9937e-05	4.1521e-05	906.06	299.07	4.1341e-05	4.2138e-05	464.1	205.03	145.14	71.651	4.1206e-05	104.42	224.665	361.767	148.252	87.000	257.616	170.061	85.890	92.047	176.635	186.979	89.916	94.196	96.275	100.533	160.235	97.463	-8191	255	
2786.236	1	1	0	0	0.05728	0.19141	0.087928	0.20763	0.13748	0.097497	0.063293	0.16091	0.12986	0.23655	0.046144	0.13777	0.22704	0.19093	0.12825	0.23085	-2.9625	-2.5375	-2.6063	-3.1375	-2.2687	-2.9479	-2.875	-2.5729	-2.9521	-2.525	-2.7917	-3.0708	-2.7521	-2.9354	-2.8208	-2.7229	325.283	336.981	295.238	171.601	403.956	151.020	82.879	263.645	418.339	175.844	194.077	356.083	345.676	393.279	256.722	345.980	0.00079904	0.00077804	0.00092709	567.47	2.5096e-05	5.4655e-06	773.98	261.61	9.2687e-06	6.4747e-06	394.29	185.34	124.27	63.617	1.0858e-05	97.372	0.003899	0.0039915	0.0010506	722.96	4.4892e-05	4.4421e-05	924.29	309.85	4.6548e-05	4.4623e-05	470.05	208.87	148.4	71.93	4.1456e-05	106.15	208.678	311.052	284.067	87.141	254.423	144.425	86.108	91.989	162.294	263.560	89.669	94.502	96.425	100.727	398.549	97.637	-8191	255	
2786.332	1	1	0	0	0.12665	0.16449	0.14727	0.37528	0.13046	0.074434	0.071607	0.21381	0.29238	0.20177	0.43992	0.20223	0.48007	0.16972	0.050787	0.11097	-2.7229	-2.6708	-2.6646	-3.0625	-2.4167	-3	-2.8937	-2.5146	-3.1229	-2.5687	-2.5375	-3.1208	-2.575	-2.9458	-2.7375	-2.5333	365.089	379.348	390.931	329.725	214.762	350.912	181.339	415.649	308.422	260.405	101.591	380.274	412.568	76.125	243.283	74.112	0.00081407	0.0018144	7.7321e-05	568.9	9.8069e-06	2.2724e-05	775.73	260.63	1.0888e-05	1.9368e-05	393.42	186	123.54	63.815	5.726e-06	96.962	0.0040532	0.0040452	0.0010311	734.63	4.5351e-05	4.3576e-05	915.79	312.07	4.5052e-05	4.2997e-05	463.29	210.76	147.01	71.549	3.9641e-05	106.82	220.053	138.370	142.769	87.370	227.382	405.535	86.505	91.819	273.924	425.228	90.092	94.673	96.101	100.582	266.646	97.772	-8191	255	
2786.404	1	1	0	0	0.1462	0.051732	0.20294	0.18784	0.1014	0.28064	0.22346	0.20573	0.14166	0.18171	0.40134	0.2297	0.121	0.096201	0.047449	0.11654	-2.3937	-2.7104	-2.4229	-3.1792	-2.625	-2.5958	-2.9479	-2.45	-3.0146	-2.7687	-2.4458	-3.2167	-2.6771	-2.7271	-3.0542	-2.5563	195.679	228.869	297.037	346.061	258.856	292.472	334.034	345.020	345.759	137.634	81.162	384.947	394.790	408.821	291.602	401.102	0.00080268	0.00090171	0.00082452	568.67	4.1989e-06	3.8908e-06	776.32	261.93	1.1949e-05	1.282e-05	395.32	185.6	124.68	63.283	1.1843e-05	97.057	0.003908	0.0039069	0.0009911	745.87	4.4273e-05	4.2125e-05	915.49	317.26	4.4042e-05	4.1919e-05	464.71	212.05	146.86	71.093	3.9901e-05	106.69	231.101	388.745	173.963	87.282	375.589	134.860	86.209	92.034	162.972	97.730	89.675	94.461	96.325	100.455	263.726	97.766	-8191	255	
2786.525	1	1	0	0	0.3187	0.26071	0.34973	0.30709	0.3221	0.19423	0.27256	0.16685	0.091635	0.23204	0.12999	0.15351	0.11701	0.30519	0.061426	0.35306	-2.6333	-2.8187	-2.5146	-3.0167	-2.5979	-2.6333	-3.1729	-2.6833	-2.7042	-2.9229	-2.5292	-3.0938	-2.7604	-2.6063	-3.1625	-2.5833	294.052	189.940	75.344	78.035	428.390	368.230	325.065	362.176	173.792	387.905	247.754	84.214	116.010	80.565	332.729	374.215	0.00071443	0.00029348	0.00055889	570.77	1.0548e-05	1.8233e-05	787.1	262.58	6.4511e-06	8.2672e-06	395.49	185.54	124.64	63.677	1.5552e-05	96.766	0.0037271	0.0036667	0.00099201	743.23	4.1891e-05	3.861e-05	917.35	315.61	4.1804e-05	3.9005e-05	466.64	210.83	145.95	70.484	4.1109e-05	106.33	215.741	320.572	144.442	87.024	338.964	324.425	86.470	92.090	294.141	90.691	89.809	94.523	96.421	100.424	195.071	98.006	-8191	255	
2786.621	1	1	0	0	0.10581	0.26212	0.032985	0.27233	0.069977	0.1576	0.13934	0.3814	0.078172	0.14279	0.12722	0.12186	0.26418	0.23289	0.14572	0.34276	-2.5354	-2.8104	-2.3146	-3.3604	-2.875	-2.6292	-3.1188	-2.6083	-2.7792	-3.0146	-2.4771	-3.225	-2.6875	-2.6896	-3.0167	-2.5563	149.920	279.323	397.302	378.914	225.209	220.862	84.093	375.948	364.300	117.455	257.108	372.765	337.450	323.998	168.523	380.446	0.00095092	0.0012513	0.00095841	571.35	1.3642e-06	1.0064e-05	780.14	263.06	1.7843e-05	2.7338e-05	396.28	186.14	124.6	64.106	5.4768e-06	97.128	0.0036095	0.0034779	0.0010387	741.24	4.1097e-05	3.7253e-05	928.24	316.13	4.0512e-05	3.7974e-05	473.05	210.32	145.34	70.385	4.2585e-05	105.96	229.760	236.974	140.668	87.015	422.589	152.933	86.057	92.006	205.545	151.520	89.786	94.472	96.562	100.213	216.255	97.631	-8191	255	
2786.717	1	1	0	0	0.25314	0.074999	0.10273	0.16012	0.05488	0.086177	0.39453	0.22962	0.20752	0.048113	0.08677	0.12703	0.074708	0.0692	0.16404	0.17558	-2.4229	-2.9521	-2.4125	-2.9646	-2.4375	-2.625	-3.0521	-2.5938	-2.6771	-2.9229	-2.3	-3.0854	-3.0646	-2.6042	-3.2792	-2.9125	76.955	141.521	124.270	122.109	192.935	168.012	361.958	423.974	201.007	294.183	160.174	359.497	309.138	156.166	414.603	409.149	0.00058693	0.00087171	0.00015907	573.67	1.9085e-05	1.6959e-05	782.61	263.25	3.8741e-06	1.6971e-05	396.92	183.26	124.87	64.27	1.297e-05	96.064	0.0034831	0.0034446	0.0010724	734.81	3.9345e-05	3.7147e-05	933.56	312.53	3.8602e-05	3.8359e-05	472.15	207.7	143.95	70.524	4.3245e-05	104.61	230.191	336.805	128.054	87.104	93.025	212.168	86.026	92.363	186.615	228.024	89.895	94.159	96.251	100.269	248.286	97.460	-8191	255	
2786.838	1	1	0	0	0.21413	0.058016	0.082233	0.34715	0.21743	0.1814	0.14451	0.35554	0.2054	0.15749	0.23998	0.11508	0.2602	0.29197	0.15752	0.50951	-2.1646	-3.1146	-2.1479	-3	-2.7062	-2.6562	-3.0708	-2.7833	-2.6188	-3.25	-2.5896	-2.95	-2.9625	-2.6458	-3	-2.875	339.854	362.320	264.335	80.834	360.743	397.367	382.921	88.921	432.926	218.070	317.454	423.808	370.289	357.149	146.973	384.309	0.00055823	0.0013696	0.00057408	577.73	1.112e-05	3.1858e-05	777.1	262.49	7.5391e-06	1.5798e-05	391.5	183.35	125.29	64.135	1.3107e-05	95.448	0.003338	0.0036234	0.0010981	733.12	3.812e-05	3.9529e-05	931.79	312.7	3.7147e-05	4.0914e-05	471.82	206.49	143.59	71.399	4.2995e-05	104.33	224.650	430.453	267.384	87.186	381.767	179.479	86.150	92.843	411.674	171.565	89.609	94.067	96.266	100.523	403.111	97.586	-8191	255	
2786.932	1	1	0	0	0.02204	0.080712	0.0736	0.21488	0.27935	0.043766	0.16347	0.23349	0.11494	0.18984	0.17408	0.25585	0.080774	0.25573	0.091122	0.054353	-2.1542	-3.2104	-2.3292	-2.8479	-3.0042	-2.4792	-3.2	-2.95	-2.4062	-3.0021	-2.7583	-2.9375	-3.3479	-2.5167	-2.9917	-3.1688	115.742	179.070	334.644	283.657	118.755	184.094	200.927	389.166	372.213	354.907	389.430	414.611	115.194	360.821	187.953	263.868	0.00072928	0.0019556	0.00025569	567.83	1.1285e-05	5.4944e-06	774.29	263.37	1.3057e-05	2.0807e-05	393.27	184.18	125.6	64.007	9.2265e-06	95.728	0.0032251	0.0037989	0.0010797	727.25	3.7178e-05	4.1458e-05	925.15	311.08	3.6746e-05	4.1973e-05	469.72	205.37	142.84	71.636	4.13e-05	103.87	224.253	164.399	141.273	87.369	228.908	320.307	86.097	92.215	205.662	182.574	89.879	94.090	96.521	100.484	198.760	97.646	-8191	255	
2787.005	1	1	0	0	0.053475	0.092852	0.039797	0.15545	0.12931	0.14342	0.25681	0.21774	0.18586	0.16557	0.0722	0.048335	0.16131	0.23737	0.10893	0.26058	-2.2083	-3.1271	-2.3521	-2.7562	-3.0896	-2.3771	-3.1437	-2.9625	-2.4896	-3.2333	-2.8458	-2.8292	-3.2062	-2.6479	-2.9042	-3.1104	284.022	128.423	341.089	401.813	79.852	380.856	417.822	412.337	204.047	351.358	302.571	76.211	395.050	385.986	190.621	90.719	0.00080537	0.0015306	9.2319e-05	571.29	7.5262e-06	2.0847e-05	781.69	266.08	7.669e-06	1.5228e-05	395.17	183.61	125.29	63.869	6.2246e-06	95.837	0.0032388	0.0038989	0.0010562	718.4	3.894e-05	4.3391e-05	933.36	313.69	4.0436e-05	4.5803e-05	478.75	206.68	147.02	72.827	4.4253e-05	104.35	211.164	101.364	116.882	86.809	223.674	199.669	86.103	92.303	226.603	365.330	89.536	93.943	96.219	100.690	117.047	97.658	-8191	255	
2787.100	1	1	0	0	0.048304	0.070898	0.040558	0.14415	0.18535	0.10393	0.23741	0.19007	0.27082	0.096866	0.060096	0.33171	0.033718	0.11429	0.3243	0.2347	-1.8646	-3.0312	-2.4125	-2.675	-3.1	-2.55	-2.7792	-2.9625	-2.2438	-3.2625	-2.8146	-2.3729	-3.2479	-2.4083	-2.8042	-3.1875	321.556	150.205	182.840	304.496	223.412	368.081	316.127	286.344	222.340	150.143	175.157	77.286	422.426	367.893	77.861	342.542	0.00094832	0.00035683	0.00011049	572.91	3.712e-05	1.0586e-05	781.97	265	6.7982e-06	2.0324e-05	395.05	185.47	125.54	64.013	1.063e-05	96.068	0.0037411	0.0041849	0.0011173	725.99	4.3636e-05	4.5437e-05	936.8	313.29	4.3887e-05	4.6193e-05	480.24	207.13	149.53	72.752	4.4086e-05	104.86	218.397	304.192	176.595	86.896	237.487	312.607	86.116	92.411	223.914	343.437	89.748	94.113	96.058	100.750	384.256	97.625	-8191	255	
2787.220	1	1	0	0	0.18279	0.13044	0.11227	0.34226	0.35751	0.15779	0.33889	0.055067	0.23064	0.071707	0.45805	0.43675	0.2436	0.077987	0.22859	0.20286	-1.9771	-2.9396	-2.6667	-2.4792	-3.2396	-2.4917	-2.6917	-2.9521	-2.3271	-2.8042	-2.7833	-2.6146	-3.1021	-2.4875	-2.8354	-3.0938	183.291	138.381	87.259	413.579	340.353	344.566	315.067	303.709	373.378	157.056	79.848	367.968	372.063	135.684	220.401	368.440	0.0007383	0.00085974	0.00031082	576.63	7.9029e-06	1.7206e-05	786.1	267.39	1.0376e-05	1.5397e-05	398.83	185.74	125.62	63.62	1.6464e-05	96.171	0.0040508	0.0042682	0.0011399	737.45	4.7907e-05	4.7408e-05	947.17	319.82	4.838e-05	4.7846e-05	484.95	210.42	152.9	73.455	4.5027e-05	106.81	203.010	227.621	100.767	87.220	207.402	347.486	86.097	92.392	185.772	348.693	89.965	94.267	96.812	100.984	94.627	97.742	-8191	255	
2787.317	1	1	0	0	0.13132	0.084118	0.091454	0.35984	0.07881	0.26408	0.33449	0.18414	0.25527	0.016856	0.14078	0.13456	0.1809	0.081105	0.11412	0.26856	-1.8792	-2.7167	-2.8417	-2.3688	-3.0125	-2.5917	-2.525	-3.1896	-2.3417	-2.9479	-2.9708	-2.5896	-3.1458	-2.7708	-2.45	-3.1917	231.146	277.566	127.835	406.557	395.026	291.920	398.757	323.491	163.848	268.045	168.631	268.981	318.674	401.151	99.344	339.707	0.00077414	0.0011698	0.00015008	581.03	8.7395e-06	8.9516e-06	785.01	271.16	8.6439e-06	2.6761e-05	400.14	185.53	125.76	63.799	9.635e-06	96.049	0.0043911	0.0044674	0.001166	765.29	5.141e-05	4.9204e-05	954.17	331.28	5.1754e-05	4.9968e-05	490.24	216.21	155.75	74.24	4.6383e-05	109.24	229.663	109.446	325.306	86.833	173.398	184.404	86.152	92.540	171.887	242.143	90.082	94.257	96.470	100.781	184.825	98.020	-8191	255	
2787.413	1	1	0	0	0.068673	0.14208	0.16652	0.32765	0.11409	0.074154	0.11149	0.35976	0.11824	0.22098	0.13282	0.13039	0.08322	0.1904	0.18603	0.26622	-2.0854	-2.7875	-2.9417	-2.6833	-2.9813	-2.6604	-2.5583	-2.9667	-2.2479	-2.6958	-3.1333	-2.3937	-2.8583	-2.85	-2.6479	-3.1354	361.504	77.626	391.432	85.382	106.667	157.806	394.307	83.734	162.500	390.021	97.384	424.352	99.992	313.453	211.527	406.517	0.00045899	0.0023584	0.0003945	595.38	1.5305e-05	2.2933e-05	793.59	271.81	2.2762e-05	9.3942e-06	397.76	183.78	126.12	63.36	1.5784e-05	94.037	0.0047598	0.0048107	0.0012603	819.37	5.7304e-05	5.5696e-05	988.75	351.72	6.0016e-05	5.755e-05	510.45	224.69	161.97	76.051	5.4731e-05	111.74	214.769	264.874	184.908	86.741	270.595	221.623	85.847	92.288	370.381	288.443	90.141	94.854	96.901	100.975	253.860	98.289	-8191	255	
2787.509	1	1	0	0	0.11433	0.1404	0.22016	0.18531	0.341	0.054774	0.042476	0.11406	0.17187	0.094748	0.42751	0.19033	0.065499	0.11978	0.056446	0.038544	-2.3042	-2.7958	-2.9375	-2.45	-2.9167	-2.8292	-2.5729	-3.1917	-2.7625	-2.6083	-3.2729	-2.3688	-3.0354	-2.8354	-2.5438	-3.0896	195.930	167.088	181.477	400.294	303.568	103.497	125.374	373.862	127.490	124.503	433.764	389.754	285.472	278.565	216.323	92.881	0.00076437	0.0022848	0.00099713	605.93	1.2632e-05	1.2217e-05	804.01	271.71	6.7682e-06	2.6389e-05	397.55	184.93	125.92	63.598	1.9315e-05	95.947	0.0053672	0.0052147	0.0014267	862.81	5.9909e-05	5.6041e-05	1005.4	355.07	5.8337e-05	5.3471e-05	509.1	223.91	157.96	74.404	5.2416e-05	111.02	220.489	272.205	187.157	87.106	173.626	322.984	86.374	92.157	211.180	406.464	90.038	94.492	97.008	100.902	220.258	97.986	-8191	255	
2787.630	1	1	0	0	0.13997	0.056685	0.25005	0.29195	0.24702	0.089641	0.19168	0.2392	0.11258	0.37978	0.097191	0.21804	0.14709	0.19592	0.18347	0.31455	-2.2562	-2.4437	-2.9292	-2.4729	-2.7812	-2.9083	-2.3812	-3.2625	-2.6125	-2.425	-3.1333	-2.7021	-2.8917	-3.025	-2.5271	-3.2687	162.377	83.625	126.947	350.258	329.164	341.629	371.786	337.598	208.304	252.877	298.319	80.107	386.299	122.467	407.041	379.594	0.000683	0.00096911	0.00066709	589.83	8.0005e-06	4.2326e-06	795.52	267.7	1.2782e-05	1.2131e-05	403.17	185.87	124.99	64.216	4.2962e-06	96.565	0.0046666	0.0043806	0.0013081	808.95	5.0055e-05	4.6293e-05	978.02	335.14	4.9162e-05	4.4184e-05	498.6	217.77	150.86	72.494	4.8317e-05	109.09	219.901	265.863	170.590	86.942	251.778	333.043	86.397	92.371	410.585	159.537	90.213	94.861	96.171	100.767	305.988	97.929	-8191	255	
2787.701	1	1	0	0	0.16818	0.0037053	0.096399	0.1961	0.18059	0.14398	0.091272	0.13077	0.25085	0.079587	0.064373	0.38267	0.34127	0.25131	0.17678	0.19471	-2.2938	-2.4417	-3.1583	-2.4875	-2.6708	-3.0396	-2.6625	-3.0521	-2.6625	-2.4667	-3.0354	-2.6479	-2.775	-3.0042	-2.5208	-3.1417	193.775	179.989	169.514	392.329	191.526	348.908	297.797	403.689	103.795	268.152	224.367	77.648	425.646	398.489	405.757	419.234	0.00061342	0.00078164	0.000282	583.2	8.6326e-06	2.0868e-05	799.24	266.97	1.6614e-06	9.0272e-06	402.48	188.3	125.97	64.563	1.7573e-05	97.716	0.0040855	0.0038641	0.0012455	777.86	4.4879e-05	4.2825e-05	972.17	328.57	4.4634e-05	4.1765e-05	495.98	215.17	148.24	72.33	4.7162e-05	108.13	193.294	137.110	147.667	87.638	100.352	225.999	86.031	92.590	363.071	204.631	90.377	94.440	96.007	100.568	249.825	97.716	-8191	255	
2787.797	1	1	0	0	0.20508	0.044497	0.11315	0.27023	0.094382	0.15034	0.24763	0.18755	0.2752	0.2391	0.17679	0.16367	0.20972	0.16404	0.15742	0.064848	-2.375	-2.3542	-3.1583	-2.575	-2.7562	-2.9188	-2.4771	-2.7833	-2.9062	-2.325	-3.2833	-2.8771	-2.5563	-3.3229	-2.3667	-2.9208	253.516	170.288	183.148	390.761	206.778	283.434	419.705	404.555	169.926	259.584	108.853	406.048	205.241	347.442	384.801	128.921	0.00041809	0.0019813	0.00055172	578.72	1.9224e-05	1.6624e-05	794.03	266.91	3.9906e-06	3.049e-05	400.97	187.23	125.72	65.201	6.3009e-06	98.377	0.0037158	0.0037897	0.0011906	758.02	4.0314e-05	4.2042e-05	959.93	320.18	3.9979e-05	4.1141e-05	486.32	211.95	145.23	72.612	4.4176e-05	107.39	225.151	178.369	180.203	87.131	432.860	203.309	85.812	92.190	102.004	206.207	89.994	94.569	96.414	100.991	236.219	98.040	-8191	255	
2787.918	1	1	0	0	0.07012	0.061365	0.22953	0.1343	0.14397	0.16789	0.22557	0.13137	0.040085	0.31713	0.21265	0.26049	0.019128	0.21422	0.077832	0.26232	-2.5042	-2.2667	-3.125	-2.6208	-2.6146	-2.9833	-2.6312	-2.7104	-3.0354	-2.4375	-3.0646	-2.925	-2.5667	-3.0375	-2.4667	-2.9208	386.859	194.675	270.010	408.927	146.619	175.976	423.448	335.552	95.495	365.815	109.548	399.121	196.141	419.362	337.121	364.832	0.00071677	0.0019005	4.6976e-05	587.3	1.8199e-06	1.1962e-05	792.65	269.28	7.0601e-06	1.8405e-05	401.5	187.87	126.87	65.078	1.6224e-05	97.832	0.0034172	0.0038367	0.0011339	749.63	3.8353e-05	4.326e-05	950.42	319.29	3.8616e-05	4.2837e-05	482.87	211.31	145.07	73.315	4.3543e-05	106.51	201.428	148.096	372.140	87.189	391.168	248.495	86.282	92.164	222.419	230.891	90.081	94.314	95.922	100.674	195.329	97.971	-8191	255	
2788.012	1	1	0	0	0.21788	0.1611	0.14088	0.25393	0.15823	0.21959	0.15288	0.044748	0.063259	0.3519	0.26002	0.26406	0.073281	0.21655	0.37691	0.1805	-2.7167	-2.3792	-3.0062	-2.8667	-2.4958	-3.0229	-2.6375	-2.8042	-2.9854	-2.425	-2.8729	-3.0104	-2.3521	-3.1875	-2.4813	-2.7667	292.853	84.699	310.586	335.893	183.884	234.902	365.443	383.732	147.324	308.285	396.862	83.791	349.671	88.682	77.595	179.935	0.0011242	0.0011662	0.00045213	585.13	2.0547e-05	9.1147e-06	794.99	269.12	3.6859e-06	9.158e-06	402.11	188.49	128.04	65.401	6.6635e-06	98.1	0.0034275	0.0039729	0.0011084	745.07	3.864e-05	4.462e-05	947.97	317.09	3.9694e-05	4.3779e-05	480.61	210.19	146.7	73.703	4.2542e-05	105.96	211.792	413.954	231.667	86.865	271.945	262.527	86.065	91.709	146.256	195.951	89.657	94.253	96.262	100.368	279.566	97.463	-8191	255	
2788.109	1	1	0	0	0.16251	0.1698	0.081782	0.11644	0.043817	0.11554	0.2088	0.096179	0.12276	0.11771	0.13866	0.05554	0.12654	0.16584	0.1243	0.053432	-2.8792	-2.3063	-2.6958	-2.9979	-2.4354	-3.1688	-2.9313	-2.5083	-3.0708	-2.3479	-2.7583	-3.2396	-2.4458	-3.1688	-2.6354	-2.7896	183.757	125.664	189.230	414.502	114.251	125.736	394.877	318.322	157.746	375.157	408.463	197.466	404.533	433.463	156.720	119.931	0.00084135	0.0013661	0.00016548	589.44	9.6924e-06	5.8746e-06	793.35	268.88	1.5277e-05	1.2408e-05	398.06	187.72	127.55	65.268	9.4248e-06	97.33	0.0035759	0.004003	0.0010838	738.08	4.0625e-05	4.4417e-05	942.22	313.68	4.2263e-05	4.3858e-05	477.27	208.65	149.19	73.701	4.2507e-05	104.8	208.076	111.913	415.879	86.885	234.484	241.363	86.133	92.452	202.789	176.920	89.947	94.226	96.517	100.712	338.789	97.955	-8191	255	
2788.205	1	1	0	0	0.076787	0.18348	0.20906	0.25602	0.18524	0.067432	0.12431	0.11657	0.11324	0.18841	0.4718	0.2768	0.22076	0.21273	0.15157	0.17314	-2.7771	-2.3583	-2.6562	-3.1188	-2.4313	-2.9125	-2.7792	-2.4604	-2.8729	-2.4833	-2.6604	-3.0729	-2.3271	-3.1063	-2.6333	-2.5438	279.921	286.871	209.150	362.051	403.821	432.446	432.836	396.526	152.413	410.855	359.686	388.731	407.273	126.589	146.972	133.406	0.0011541	0.00047044	0.00036693	592.92	2.3458e-05	1.4512e-05	789.71	267.52	1.5726e-05	1.4624e-05	393.84	187.02	127.5	65.323	5.5948e-06	96.37	0.0038209	0.0040157	0.0010662	739.07	4.3238e-05	4.3994e-05	939.07	312.73	4.4145e-05	4.3475e-05	468.79	207.69	149.96	73.232	4.1296e-05	104.31	221.133	230.782	304.229	87.611	220.298	77.918	85.929	92.548	241.226	309.063	89.664	94.548	96.449	100.439	353.874	97.917	-8191	255	
2788.301	1	1	0	0	0.17973	0.17013	0.060308	0.1475	0.12157	0.19291	0.076675	0.15464	0.14121	0.18194	0.17803	0.14332	0.41475	0.21734	0.17125	0.059936	-2.6	-2.4188	-2.6396	-3.1167	-2.5083	-2.9042	-3.0646	-2.4979	-3.2812	-2.6333	-2.8292	-3.0396	-2.5167	-3.0854	-2.8125	-2.5021	324.833	310.298	80.916	426.542	362.233	139.603	207.361	402.848	354.109	240.287	341.260	372.632	93.061	401.237	139.953	80.632	0.00095965	0.00094865	0.00073666	597.34	1.2846e-05	7.6193e-06	788.49	271.65	6.5482e-06	1.1557e-05	395.69	187.15	127.62	65.698	1.0254e-05	97.319	0.0039295	0.0039608	0.0010252	750.52	4.4461e-05	4.3229e-05	931.84	317.72	4.446e-05	4.2593e-05	465.7	209.89	150.26	72.965	3.8382e-05	105.63	213.358	182.751	279.121	87.233	262.616	157.403	86.720	92.170	208.364	243.599	89.750	94.241	96.542	100.332	172.946	98.025	-8191	255	
2788.397	1	1	0	0	0.13314	0.26187	0.28043	0.4549	0.24566	0.33997	0.36993	0.06817	0.14299	0.13499	0.3766	0.25734	0.28742	0.13222	0.086428	0.11212	-2.4771	-2.5792	-2.5292	-3.0938	-2.4313	-2.8146	-2.9354	-2.3042	-2.9938	-2.4417	-2.6479	-3.2521	-2.5542	-2.9917	-2.8229	-2.4667	247.923	238.308	205.762	415.188	89.949	102.984	369.460	368.081	394.186	286.513	351.937	325.050	372.298	78.639	135.302	423.323	0.00063185	0.00040024	0.00020873	593.51	1.2616e-05	6.5692e-06	798.31	269.58	1.3101e-06	1.2119e-05	396.4	189.08	127.66	65.605	1.3813e-05	97.963	0.0037662	0.0037611	0.00094283	749.85	4.1998e-05	4.0614e-05	921.69	317.99	4.2256e-05	4.0658e-05	462.35	211.41	149.38	72.545	3.7202e-05	106.78	213.063	200.449	384.202	87.355	394.965	220.888	86.265	92.019	76.782	188.223	89.885	94.510	96.488	100.362	255.877	97.785	-8191	255	
2788.518	1	1	0	0	0.041834	0.18353	0.17416	0.18372	0.055014	0.14923	0.047178	0.30713	0.03699	0.089263	0.13137	0.17021	0.095724	0.32673	0.081887	0.49464	-2.4271	-2.8958	-2.5458	-3.0854	-2.5146	-2.6562	-3.1604	-2.4833	-3.0292	-2.8375	-2.4958	-3.3167	-2.5438	-2.675	-3.1146	-2.5271	278.307	97.835	392.881	78.862	82.450	423.082	355.212	309.874	304.801	121.719	100.355	330.563	81.346	427.567	337.912	378.309	0.00070364	0.0011162	0.0011173	588.11	2.4565e-06	1.2621e-05	794.21	269.66	1.1346e-06	4.9095e-06	401.64	188.28	126.91	65.28	3.0963e-05	97.678	0.0036625	0.00361	0.00094431	752.41	4.1196e-05	3.8799e-05	919.09	319.33	4.0991e-05	3.8893e-05	464.42	212.39	148.25	71.84	3.9069e-05	106.91	238.026	160.304	156.614	87.233	251.895	344.990	86.328	92.252	298.978	407.058	90.018	94.216	96.375	100.674	218.410	97.726	-8191	255	
#DATA ENDS
