BOXY.EXE: ISS Imagent and Oximeter Data Acquisition Program Version 0.80
Ascii Record File

#ACQ INFORMATION
2  Detector Channels 
16  External MUX Channels 
1  Auxiliary Channels 
5000  Waveform (CCF) Frequency (Hz)
1  Waveforms Skipped 
30  Waveforms Averaged 
1  Cycles Averaged 
16  Acquisitions per Waveform 
10.0806  Updata Rate (Hz) 

#FILE INFORMATION
TRUE -- External MUX Channel results are PARSED.
FALSE -- AC DC and Phase are NOT grouped.
TRUE -- Companion Program Settings File CREATED.
FALSE -- AC data not excluded
FALSE -- DC data not excluded
FALSE -- Phase data not excluded
FALSE -- Auxillary Chn. data not excluded
Tab delimiters

#CALIBRATION STATE
TRUE -- Waveform Calibration Values APPLIED.


#AUX CALIBRATION VALUES
Val Type	aux-1	

Term	1.0000e+00	
Factor	0.0000e+00	


#WF CALIBRATION VALUES
A = Detector Channel
Val Type	A-AC1	A-AC2	A-AC3	A-AC4	A-AC5	A-AC6	A-AC7	A-AC8	A-AC9	A-AC10	A-AC11	A-AC12	A-AC13	A-AC14	A-AC15	A-AC16	A-DC1	A-DC2	A-DC3	A-DC4	A-DC5	A-DC6	A-DC7	A-DC8	A-DC9	A-DC10	A-DC11	A-DC12	A-DC13	A-DC14	A-DC15	A-DC16	A-Ph1	A-Ph2	A-Ph3	A-Ph4	A-Ph5	A-Ph6	A-Ph7	A-Ph8	A-Ph9	A-Ph10	A-Ph11	A-Ph12	A-Ph13	A-Ph14	A-Ph15	A-Ph16	

Term	0.00000e+00	0.00000e+00	0.00000e+00	0.00000e+00	0.00000e+00	0.00000e+00	0.00000e+00	0.00000e+00	0.00000e+00	0.00000e+00	0.00000e+00	0.00000e+00	0.00000e+00	0.00000e+00	0.00000e+00	0.00000e+00	0.00000e+00	0.00000e+00	0.00000e+00	0.00000e+00	0.00000e+00	0.00000e+00	0.00000e+00	0.00000e+00	0.00000e+00	0.00000e+00	0.00000e+00	0.00000e+00	0.00000e+00	0.00000e+00	0.00000e+00	0.00000e+00	0.00000e+00	0.00000e+00	0.00000e+00	0.00000e+00	0.00000e+00	0.00000e+00	0.00000e+00	0.00000e+00	0.00000e+00	0.00000e+00	0.00000e+00	0.00000e+00	0.00000e+00	0.00000e+00	0.00000e+00	0.00000e+00	
Factor	1.00000e+00	1.00000e+00	1.00000e+00	1.00000e+00	1.00000e+00	1.00000e+00	1.00000e+00	1.00000e+00	1.00000e+00	1.00000e+00	1.00000e+00	1.00000e+00	1.00000e+00	1.00000e+00	1.00000e+00	1.00000e+00	1.00000e+00	1.00000e+00	1.00000e+00	1.00000e+00	1.00000e+00	1.00000e+00	1.00000e+00	1.00000e+00	1.00000e+00	1.00000e+00	1.00000e+00	1.00000e+00	1.00000e+00	1.00000e+00	1.00000e+00	1.00000e+00	X	X	X	X	X	X	X	X	X	X	X	X	X	X	X	X	

B = Detector Channel
Val Type	B-AC1	B-AC2	B-AC3	B-AC4	B-AC5	B-AC6	B-AC7	B-AC8	B-AC9	B-AC10	B-AC11	B-AC12	B-AC13	B-AC14	B-AC15	B-AC16	B-DC1	B-DC2	B-DC3	B-DC4	B-DC5	B-DC6	B-DC7	B-DC8	B-DC9	B-DC10	B-DC11	B-DC12	B-DC13	B-DC14	B-DC15	B-DC16	B-Ph1	B-Ph2	B-Ph3	B-Ph4	B-Ph5	B-Ph6	B-Ph7	B-Ph8	B-Ph9	B-Ph10	B-Ph11	B-Ph12	B-Ph13	B-Ph14	B-Ph15	B-Ph16	

Term	0.00000e+00	0.00000e+00	0.00000e+00	0.00000e+00	0.00000e+00	0.00000e+00	0.00000e+00	0.00000e+00	0.00000e+00	0.00000e+00	0.00000e+00	0.00000e+00	0.00000e+00	0.00000e+00	0.00000e+00	0.00000e+00	0.00000e+00	0.00000e+00	0.00000e+00	0.00000e+00	0.00000e+00	0.00000e+00	0.00000e+00	0.00000e+00	0.00000e+00	0.00000e+00	0.00000e+00	0.00000e+00	0.00000e+00	0.00000e+00	0.00000e+00	0.00000e+00	-1.19857e+02	-1.24507e+02	-1.35452e+02	-1.83472e+02	-6.00384e+01	-4.75453e+01	-1.57982e+02	-1.62015e+02	-6.06145e+01	-8.17819e+01	-1.70621e+02	-1.71027e+02	-1.79027e+02	-1.76789e+02	-5.07464e+01	-1.49691e+02	
Factor	1.74378e-05	1.02985e-04	3.40426e-05	1.56174e-01	9.33459e-07	1.34348e-06	1.70957e-01	5.49417e-02	8.43037e-07	1.23105e-06	9.08538e-02	2.97122e-02	2.77676e-02	9.37205e-03	9.74277e-07	1.31938e-02	1.29289e-06	1.35560e-06	3.76670e-07	7.60921e-02	1.47965e-08	1.48193e-08	7.83401e-02	2.67541e-02	1.47987e-08	1.48410e-08	4.23708e-02	1.39488e-02	1.35316e-02	4.53434e-03	1.47790e-08	6.16309e-03	X	X	X	X	X	X	X	X	X	X	X	X	X	X	X	X	



#DISTANCE SETTINGS
A = Detector Channel
A-1	A-2	A-3	A-4	A-5	A-6	A-7	A-8	A-9	A-10	A-11	A-12	A-13	A-14	A-15	A-16	

2.5000e+00	3.0000e+00	2.5000e+00	3.0000e+00	2.0000e+00	3.0000e+00	1.5000e+00	3.0000e+00	3.0000e+00	3.0000e+00	3.0000e+00	3.0000e+00	3.0000e+00	3.0000e+00	1.5000e+00	3.0000e+00	

B = Detector Channel
B-1	B-2	B-3	B-4	B-5	B-6	B-7	B-8	B-9	B-10	B-11	B-12	B-13	B-14	B-15	B-16	

1.0000e+01	1.0000e+01	1.0000e+01	1.4400e+00	1.0000e+01	1.0000e+01	1.5100e+00	1.9400e+00	1.0000e+01	1.0000e+01	1.9900e+00	2.4900e+00	2.4100e+00	2.9000e+00	1.0000e+01	2.9800e+00	




#DATA BEGINS
time	group	step	mark	flag	A-AC1	A-AC2	A-AC3	A-AC4	A-AC5	A-AC6	A-AC7	A-AC8	A-AC9	A-AC10	A-AC11	A-AC12	A-AC13	A-AC14	A-AC15	A-AC16	A-DC1	A-DC2	A-DC3	A-DC4	A-DC5	A-DC6	A-DC7	A-DC8	A-DC9	A-DC10	A-DC11	A-DC12	A-DC13	A-DC14	A-DC15	A-DC16	A-Ph1	A-Ph2	A-Ph3	A-Ph4	A-Ph5	A-Ph6	A-Ph7	A-Ph8	A-Ph9	A-Ph10	A-Ph11	A-Ph12	A-Ph13	A-Ph14	A-Ph15	A-Ph16	B-AC1	B-AC2	B-AC3	B-AC4	B-AC5	B-AC6	B-AC7	B-AC8	B-AC9	B-AC10	B-AC11	B-AC12	B-AC13	B-AC14	B-AC15	B-AC16	B-DC1	B-DC2	B-DC3	B-DC4	B-DC5	B-DC6	B-DC7	B-DC8	B-DC9	B-DC10	B-DC11	B-DC12	B-DC13	B-DC14	B-DC15	B-DC16	B-Ph1	B-Ph2	B-Ph3	B-Ph4	B-Ph5	B-Ph6	B-Ph7	B-Ph8	B-Ph9	B-Ph10	B-Ph11	B-Ph12	B-Ph13	B-Ph14	B-Ph15	B-Ph16	aux-1	digaux	

36439.215	1	1	0	768	0.15329	0.18151	0.067869	0.2521	0.32615	0.26728	0.036686	0.28434	0.096857	0.27792	0.10094	0.093288	0.23743	0.11477	0.37203	0.2851	-3.6771	-3.8583	-3.4229	-4.3521	-3.4167	-3.6125	-4.4271	-3.3708	-3.9146	-3.9646	-3.6292	-4.2458	-3.725	-3.5938	-4.2375	-3.5354	173.878	74.355	326.971	64.640	62.357	117.291	209.422	322.420	262.055	337.440	176.776	407.211	362.092	140.541	352.743	377.142	0.00049059	0.00057878	0.00027681	1205.6	1.4626e-05	6.6047e-06	1426.1	306.85	5.0935e-06	6.6402e-06	438.87	131.97	75.503	25.721	1.0708e-05	58.017	0.0011736	0.0012058	0.00033399	1166.3	1.3223e-05	1.3161e-05	1371.5	303.6	1.3115e-05	1.3205e-05	434.46	132.25	80.368	27.29	1.3082e-05	57.982	152.876	215.499	364.186	72.980	197.072	309.454	72.650	76.897	191.758	182.328	75.875	81.233	82.168	86.165	139.215	84.839	-8191	255	
36439.309	1	1	0	0	0.21407	0.15708	0.072405	0.14107	0.24423	0.14082	0.068223	0.022174	0.17326	0.26669	0.13112	0.2306	0.19222	0.17008	0.25244	0.10673	-3.6333	-3.9583	-3.4458	-4.3333	-3.7354	-3.5479	-4.4104	-3.5187	-3.8667	-4.1292	-3.6688	-4.2771	-3.8979	-3.4938	-4.2729	-3.6604	390.389	76.769	318.127	66.260	120.258	205.545	300.587	359.350	128.225	283.473	360.968	288.522	256.498	393.208	159.053	327.245	0.00046575	0.00067022	0.00039668	1220	1.5052e-06	1.0456e-05	1437	307.74	2.3695e-06	1.0224e-05	442.9	131.7	76.493	25.626	1.2553e-05	57.579	0.0011778	0.001209	0.00033574	1179.7	1.3331e-05	1.3075e-05	1387.8	305.52	1.3186e-05	1.3255e-05	437.78	132.24	80.661	27.192	1.3101e-05	57.674	170.626	298.905	61.972	72.764	66.084	208.244	72.884	77.044	95.604	256.640	75.823	81.225	81.852	86.065	218.260	84.600	-8191	255	
36439.406	1	1	0	0	0.13898	0.13981	0.059518	0.22827	0.1408	0.13111	0.13711	0.1911	0.27795	0.15649	0.043472	0.34856	0.083051	0.021807	0.18147	0.24227	-3.45	-4.2312	-3.4229	-4.05	-4.0437	-3.4375	-4.3271	-3.7	-3.6208	-4.0021	-3.6021	-4.1229	-3.9688	-3.4896	-4.2438	-3.6917	307.535	100.264	187.436	370.667	325.202	99.698	365.342	359.130	209.359	358.857	416.530	388.627	179.502	152.237	256.610	252.014	0.00041697	0.00074984	0.00053269	1231.3	3.0703e-06	2.6316e-06	1459.8	312.79	7.2178e-06	1.5903e-05	451.51	131.48	77.606	25.447	5.1825e-06	57.842	0.0011916	0.0012157	0.00034129	1196.7	1.3379e-05	1.3402e-05	1409.7	310.31	1.3452e-05	1.3483e-05	444.04	132.93	82.044	27.297	1.3558e-05	58.114	196.052	132.982	89.991	72.905	85.742	218.896	72.676	76.540	273.306	150.732	76.336	81.155	81.769	86.095	194.154	84.859	-8191	255	
36439.504	1	1	0	0	0.14349	0.19225	0.092207	0.027108	0.13781	0.22442	0.14494	0.11329	0.124	0.090804	0.20776	0.20954	0.20697	0.29194	0.037126	0.096796	-3.2646	-4.0125	-3.6021	-4.0396	-4.0229	-3.4833	-4.2771	-3.6396	-3.5083	-4.2	-3.6042	-3.8042	-4.025	-3.4813	-4.1229	-4.0208	163.293	119.727	147.348	404.450	76.987	154.453	216.237	312.573	364.437	116.523	239.263	329.591	76.235	380.866	375.270	341.890	0.00051148	0.00078042	0.00013551	1243.9	3.2257e-06	2.8725e-06	1474.7	314.67	6.0693e-06	6.1773e-06	455.2	134.22	78.31	25.914	4.2726e-06	58.811	0.0012135	0.0012499	0.00035188	1212.9	1.3633e-05	1.3687e-05	1424.1	313.27	1.3714e-05	1.3872e-05	448.88	135.16	82.837	27.85	1.3808e-05	59.076	177.236	224.200	397.464	73.141	177.946	267.962	72.998	76.811	188.670	74.371	76.255	81.134	81.630	85.951	184.570	85.157	-8191	255	
36439.598	1	1	0	0	0.048463	0.18126	0.19387	0.3226	0.021939	0.22979	0.21545	0.10908	0.15507	0.19583	0.064628	0.14779	0.13309	0.078629	0.048757	0.062058	-3.1625	-4.2146	-3.6188	-3.8563	-4.0833	-3.425	-4.3417	-3.9979	-3.6667	-4.2708	-3.7188	-3.7833	-4.0563	-3.4333	-4.1604	-3.9417	64.524	271.752	296.450	385.081	213.712	366.037	392.940	323.434	321.054	342.179	377.322	134.272	293.431	314.295	342.988	335.311	0.00053102	0.0004728	0.00021729	1235.1	5.6297e-06	1.2062e-05	1450	311.66	3.9019e-06	5.5815e-06	446.02	132.9	76.768	25.896	2.9496e-06	58.326	0.0012333	0.0012514	0.00035335	1201.1	1.3642e-05	1.3623e-05	1403.7	308.26	1.359e-05	1.3685e-05	441.98	133.56	81.134	27.515	1.3607e-05	58.423	164.090	113.214	389.142	72.964	232.968	201.156	72.714	76.855	411.777	60.349	76.145	81.318	81.833	85.901	263.514	84.774	-8191	255	
36439.695	1	1	0	0	0.19009	0.030721	0.13568	0.34204	0.1399	0.10959	0.25594	0.23643	0.10277	0.1171	0.29729	0.27243	0.19654	0.22739	0.15295	0.34142	-3.1063	-4.1917	-3.4167	-3.7542	-4.1146	-3.2979	-4.0854	-4.1958	-3.3375	-4.2646	-4.0563	-3.7875	-4.1312	-3.3563	-3.7938	-4.0417	418.406	74.043	197.668	381.528	259.443	61.378	417.692	297.359	312.419	172.829	312.209	354.692	98.328	416.466	78.329	64.365	0.00053406	0.00065586	0.00019341	1223.4	1.3406e-06	1.6207e-05	1448.6	311.07	8.9959e-06	4.6461e-06	444.71	132.88	76.082	25.689	1.8643e-06	58.442	0.0012044	0.0012487	0.0003513	1190.2	1.3599e-05	1.3917e-05	1404.9	308.4	1.3764e-05	1.3967e-05	441.86	133.73	81.558	27.749	1.4072e-05	59.054	190.580	181.181	129.464	72.890	162.795	173.592	72.603	76.659	204.833	299.536	76.541	81.075	82.182	85.575	258.145	84.646	-8191	255	
36439.812	1	1	0	0	0.17209	0.14836	0.1469	0.14428	0.14883	0.16661	0.14381	0.12793	0.060352	0.27224	0.014975	0.21032	0.18577	0.13735	0.053068	0.2277	-3.2438	-4.175	-3.7146	-3.725	-4.1813	-3.6458	-4.0188	-4.3021	-3.2229	-4.0896	-3.775	-3.6396	-4.2354	-3.5021	-3.8688	-4.2458	120.401	70.183	182.674	269.580	176.614	189.036	293.361	182.025	375.215	315.176	332.593	59.452	346.229	416.306	219.892	226.829	0.00066249	0.00082753	0.00018346	1233	4.1743e-06	1.4096e-05	1473.6	313.53	6.3557e-06	1.1387e-05	450.94	134.43	76.935	26.468	9.0733e-06	59.584	0.001248	0.0012868	0.00036005	1201.7	1.405e-05	1.4131e-05	1419.1	311.24	1.426e-05	1.4263e-05	447.65	135.96	82.948	28.422	1.4268e-05	60.167	159.665	193.493	135.723	72.975	281.008	204.295	72.632	77.196	113.367	242.372	76.589	81.222	81.981	86.425	275.418	85.228	-8191	255	
36439.910	1	1	0	0	0.09067	0.11685	0.10632	0.088487	0.23504	0.11597	0.35562	0.11201	0.077828	0.16568	0.10913	0.091981	0.16956	0.22088	0.23564	0.35497	-3.1562	-4.1021	-3.9021	-3.4896	-4.2646	-3.6396	-3.8688	-4.2167	-3.4625	-4.1188	-4.1792	-3.5833	-4.0646	-3.6583	-3.5521	-4.3938	411.458	258.115	110.369	255.874	157.999	182.990	330.066	405.371	232.631	101.524	325.350	143.303	322.227	375.867	214.819	389.345	0.00059972	0.0004268	0.00012876	1249.1	4.7259e-06	1.0137e-05	1480.7	316.35	3.7823e-06	9.5537e-06	455.14	137.49	78.589	26.968	5.4355e-06	61.021	0.0012859	0.0013176	0.00036782	1214.8	1.448e-05	1.4673e-05	1433.1	314.13	1.4599e-05	1.4674e-05	454.09	138.72	84.389	29.047	1.4695e-05	61.393	179.749	418.831	148.811	73.029	275.911	274.512	72.672	76.873	170.192	173.219	76.817	81.354	81.906	86.199	184.924	84.950	-8191	255	
36440.004	1	1	0	0	0.13821	0.015806	0.10058	0.05411	0.12612	0.099606	0.20726	0.13858	0.12399	0.25275	0.12251	0.1242	0.19131	0.11458	0.18856	0.35648	-3.1104	-3.9292	-4.0062	-3.55	-4.1417	-3.7562	-3.7104	-4.2875	-3.4521	-3.8646	-4.2125	-3.4521	-4.2292	-3.7687	-3.5167	-4.2917	320.342	282.120	342.646	410.957	352.852	258.580	413.844	65.164	209.947	129.278	337.688	395.323	83.234	77.816	322.444	412.967	0.00041528	0.00068843	2.6903e-05	1261.5	7.6931e-06	1.2895e-05	1499.7	319.6	1.2138e-05	1.3361e-05	458.31	137.77	79.401	27.018	6.7459e-06	60.88	0.0013255	0.0013659	0.00037597	1232.2	1.5038e-05	1.5098e-05	1452.7	318.83	1.5086e-05	1.5087e-05	458.35	139.95	84.932	29.095	1.4708e-05	61.176	175.606	403.680	384.651	73.107	287.281	301.545	72.765	77.281	237.203	178.793	76.512	81.556	81.900	86.619	279.218	84.839	-8191	255	
36440.102	1	1	0	0	0.24275	0.080878	0.11649	0.12879	0.24257	0.23211	0.12046	0.034675	0.27211	0.05845	0.10246	0.23101	0.19399	0.067838	0.14244	0.27047	-3.3312	-3.6458	-4.0229	-3.7	-4.1062	-3.8271	-3.5917	-4.3812	-3.4167	-3.8	-4.2229	-3.3604	-4.0167	-3.9229	-3.4104	-4.3229	300.236	328.360	149.512	413.362	150.487	209.419	386.096	197.529	132.523	63.979	86.957	272.076	294.586	62.089	268.248	336.019	0.00048514	0.00075875	0.0004799	1252.6	4.4852e-06	1.5882e-05	1472.6	310.56	6.7494e-06	1.2729e-05	443.65	131.53	74.897	25.593	2.0239e-06	57.054	0.0013101	0.0013426	0.0003693	1221.1	1.4397e-05	1.4504e-05	1425.2	309.23	1.4418e-05	1.4343e-05	440.1	132.79	80.749	27.472	1.4094e-05	57.831	185.370	128.821	235.046	72.855	280.796	262.047	72.876	76.820	282.421	133.951	76.950	81.672	82.068	86.333	341.059	84.987	-8191	255	
36440.199	1	1	0	0	0.25299	0.032711	0.24466	0.22811	0.28844	0.091488	0.31702	0.064126	0.1493	0.19314	0.14533	0.11376	0.1378	0.28074	0.21382	0.25059	-3.5083	-3.6125	-4.0021	-3.5187	-4.0292	-4.0833	-3.6188	-4.3271	-3.6542	-3.5687	-4.1833	-3.4708	-3.9125	-4.0271	-3.3542	-4.4083	174.577	173.158	76.605	389.947	356.250	222.595	320.054	86.352	128.680	91.745	337.098	127.124	61.806	73.926	410.443	400.316	0.00038359	0.0013182	0.00020094	1208.7	8.8359e-06	1.8198e-05	1438.9	304.85	8.9419e-06	8.858e-06	437.56	129.82	74.818	25.283	8.3657e-06	57.505	0.0012694	0.0012832	0.00035863	1179.9	1.4142e-05	1.4186e-05	1394.8	303.31	1.4181e-05	1.4107e-05	434.02	131.8	80.281	27.283	1.4181e-05	57.821	191.748	199.911	306.373	72.885	141.032	225.179	72.657	76.993	288.115	171.168	76.499	81.166	81.593	86.571	245.683	84.645	-8191	255	
36440.293	1	1	0	0	0.18879	0.18413	0.089868	0.12872	0.1423	0.18115	0.27044	0.42551	0.24022	0.046679	0.28611	0.17727	0.22838	0.20124	0.29224	0.096787	-3.3583	-3.4583	-4.15	-3.5083	-3.5958	-4.0667	-3.6875	-4.1146	-3.7292	-3.4354	-4.45	-3.4708	-3.7708	-4.1771	-3.2625	-4.1771	129.318	127.109	71.756	274.196	404.817	196.308	365.664	363.263	104.881	399.976	359.203	107.791	253.475	111.284	91.779	352.011	0.00048388	0.00055764	0.00043483	1207.8	8.1733e-06	1.0119e-05	1445.4	305.34	1.3857e-05	8.0398e-06	434.24	129.98	74.349	25.378	1.2422e-05	57.46	0.0012738	0.0013115	0.00036602	1183	1.4302e-05	1.4298e-05	1403	303.76	1.434e-05	1.4308e-05	434.75	131.85	80.272	27.508	1.4435e-05	58.105	159.405	125.871	141.691	73.002	144.198	213.174	72.859	76.951	210.717	195.822	76.451	81.430	81.736	86.757	146.616	84.767	-8191	255	
36440.414	1	1	0	0	0.075888	0.18382	0.22546	0.26484	0.182	0.10878	0.054877	0.043417	0.084855	0.29007	0.21151	0.16905	0.050692	0.14054	0.11257	0.13569	-3.4688	-3.3396	-4.2188	-3.9	-3.5792	-4.1875	-3.6146	-4.1458	-3.8521	-3.6562	-4.2354	-3.6042	-3.5917	-4.1229	-3.5542	-4.0062	145.208	218.215	59.721	361.463	372.928	214.617	87.975	291.538	101.973	371.282	339.502	409.769	212.518	101.051	230.450	68.293	0.00052512	0.00076987	0.00021575	1215.2	5.8071e-06	1.8192e-05	1452.1	304.68	5.2589e-06	1.6925e-05	440.64	132.28	75.75	25.927	1.119e-05	58.56	0.0012822	0.0013113	0.00036412	1188.9	1.4366e-05	1.4486e-05	1409.1	304.72	1.4335e-05	1.4507e-05	438.46	133.48	81.167	27.815	1.4537e-05	58.892	156.488	231.365	211.086	73.150	257.460	213.064	72.837	76.736	166.076	159.496	76.422	81.351	81.690	86.918	113.951	84.556	-8191	255	
36440.508	1	1	0	0	0.041605	0.28186	0.12722	0.38028	0.053106	0.10049	0.37969	0.20956	0.13677	0.2011	0.19479	0.1385	0.10889	0.081291	0.12457	0.1738	-3.6562	-3.3812	-4.1312	-3.8792	-3.6396	-4.2479	-3.5083	-4.0417	-4.0042	-3.5271	-4.3083	-3.9062	-3.5417	-4.1417	-3.4938	-3.8542	329.212	126.134	336.401	366.524	339.413	345.294	369.207	391.403	395.049	105.594	403.505	355.487	71.969	409.520	359.026	376.364	0.00045081	0.00053422	0.00020902	1237.2	4.7831e-06	9.7672e-06	1469	309.54	2.2927e-06	1.1575e-05	443.45	131	76.441	25.769	1.2825e-05	57.798	0.0012786	0.0013349	0.00037272	1205.6	1.4408e-05	1.462e-05	1421.9	308.51	1.4514e-05	1.4636e-05	442.61	133.49	81.881	27.798	1.4447e-05	58.269	168.843	134.962	187.162	73.407	175.767	97.189	72.817	76.750	258.882	157.593	76.631	81.400	81.546	86.494	382.460	84.917	-8191	255	
36440.605	1	1	0	0	0.016065	0.052005	0.24997	0.12064	0.32497	0.31897	0.20201	0.28868	0.26106	0.32333	0.20727	0.32246	0.077782	0.18156	0.085516	0.33936	-3.6958	-3.3	-4.0083	-3.9479	-3.4479	-4.2229	-3.5438	-3.9125	-4.0729	-3.2938	-4.0958	-3.8521	-3.4813	-4.3688	-3.525	-3.7083	266.381	287.877	133.417	416.756	387.948	335.968	366.928	104.259	402.656	366.733	79.792	120.352	99.662	311.137	331.485	364.024	0.00052924	0.00173	0.00015629	1209.5	3.3738e-06	7.9941e-06	1423.5	299.69	8.6782e-06	1.7089e-05	425.57	126.41	73.558	24.904	1.1253e-05	55.307	0.0012678	0.0013219	0.0003659	1178.9	1.4221e-05	1.4394e-05	1381.9	298.91	1.4134e-05	1.4349e-05	425.88	128.52	79.042	26.836	1.4308e-05	56.007	184.628	167.050	253.223	72.907	196.948	273.599	72.965	76.984	217.780	199.315	76.490	81.238	81.373	86.720	151.082	84.808	-8191	255	
36440.699	1	1	0	0	0.045948	0.083173	0.17265	0.22001	0.20256	0.32607	0.18722	0.082484	0.079547	0.086423	0.17484	0.15847	0.14188	0.22006	0.13276	0.24533	-3.7229	-3.3688	-3.9646	-4.1542	-3.2854	-4.3042	-3.825	-3.5854	-4.1917	-3.3708	-3.9104	-3.875	-3.6271	-4.2438	-3.7396	-3.5708	93.654	220.805	296.996	107.891	375.850	355.834	300.187	351.707	297.645	300.481	348.665	348.385	221.067	283.280	126.836	59.995	0.00035863	0.0017028	0.00029135	1189.7	6.9414e-06	3.7828e-06	1412.9	296.75	7.3866e-06	1.4202e-05	428.55	125.81	73.476	24.773	7.0863e-06	55.668	0.0012637	0.0013168	0.00036509	1163.7	1.4327e-05	1.4316e-05	1371.1	297.25	1.4174e-05	1.4468e-05	426.92	128.14	79.208	26.789	1.4265e-05	56.074	134.509	203.444	143.291	72.740	190.089	215.555	72.723	76.815	379.807	413.521	75.940	81.194	81.733	86.143	154.032	84.634	-8191	255	
36440.773	1	1	0	0	0.18256	0.026596	0.15284	0.023788	0.12575	0.11743	0.21598	0.25432	0.09455	0.10056	0.12341	0.16386	0.21499	0.14334	0.11783	0.16904	-3.7917	-3.325	-3.8375	-4.1438	-3.4708	-4.0708	-4.0188	-3.5167	-4.2729	-3.4271	-3.8438	-4.3354	-3.4958	-4.0958	-3.9354	-3.5875	367.975	81.531	275.896	72.098	367.706	284.008	382.199	410.268	381.672	200.770	375.839	147.400	76.379	397.739	252.103	345.331	0.00026866	0.0011323	0.00010182	1201.5	5.6703e-06	3.1995e-06	1422.6	299.93	4.5401e-06	1.6822e-07	427.81	126.54	73.492	24.809	5.2106e-06	55.751	0.0012726	0.001321	0.00036287	1171.7	1.4341e-05	1.441e-05	1377.4	298.53	1.4416e-05	1.4386e-05	427.01	128.63	79.615	26.954	1.4286e-05	56.491	156.257	194.596	141.580	72.860	157.750	317.782	73.060	76.624	183.548	282.066	76.316	81.206	81.747	86.170	294.739	84.939	-8191	255	
36440.895	1	1	0	0	0.15437	0.074228	0.072483	0.22941	0.015976	0.16084	0.27693	0.19739	0.084535	0.08955	0.23804	0.13189	0.17294	0.35383	0.18576	0.17114	-3.8333	-3.4375	-3.7729	-4.2958	-3.3792	-3.9958	-4.1229	-3.6583	-4.0583	-3.6708	-3.6979	-4.2979	-3.3583	-3.9479	-3.8792	-3.5563	100.655	390.799	80.731	351.299	92.795	346.440	382.496	307.627	398.015	383.078	340.807	381.014	64.693	92.129	192.857	416.617	0.00055562	0.00029712	0.00036657	1202.5	2.4147e-06	1.1841e-05	1419.2	301.17	1.0368e-05	1.0386e-05	429.82	128.94	74.25	25.583	4.9568e-06	57.238	0.0012715	0.0013164	0.00036164	1174.9	1.4298e-05	1.4277e-05	1378.7	300.65	1.4286e-05	1.4521e-05	429.73	130.58	80.502	27.362	1.4265e-05	57.638	168.676	170.664	185.748	72.970	141.776	200.178	72.880	76.729	237.612	229.448	76.011	81.641	81.869	86.327	270.813	84.467	-8191	255	
36440.988	1	1	0	0	0.2194	0.14663	0.052156	0.16424	0.11633	0.12096	0.20847	0.18017	0.089705	0.045384	0.1399	0.13231	0.09524	0.20274	0.1374	0.1858	-3.9854	-3.8042	-3.5146	-4.3417	-3.2729	-3.8667	-4.2604	-3.6146	-4.025	-3.9229	-3.6021	-4.2792	-3.4396	-3.8021	-4.0896	-3.5396	145.685	144.246	329.874	203.633	321.864	303.878	337.866	330.898	71.839	400.810	375.549	202.118	308.891	331.494	308.945	321.217	0.00027135	0.00045806	7.9334e-05	1204	1.1235e-05	2.4318e-05	1434.3	306.45	6.3145e-06	2.8049e-06	439.3	130.48	75.377	25.535	3.7163e-06	56.916	0.0012723	0.0013042	0.00036097	1178.7	1.424e-05	1.4341e-05	1388.2	303.76	1.4305e-05	1.4209e-05	436.24	131.95	81.023	27.416	1.4169e-05	57.403	177.680	332.603	71.825	72.975	126.565	128.326	72.745	76.721	294.181	314.964	76.506	81.476	81.876	86.165	223.101	84.996	-8191	255	
36441.086	1	1	0	0	0.21353	0.26459	0.1849	0.064502	0.21567	0.096011	0.3247	0.10058	0.23085	0.23011	0.19024	0.17577	0.17892	0.14753	0.11226	0.042844	-3.6271	-3.8021	-3.5438	-4.2771	-3.5271	-3.7208	-4.1979	-3.4938	-3.9042	-3.9458	-3.6417	-4.2396	-3.7042	-3.7521	-4.2979	-3.4646	172.438	179.806	268.034	59.661	148.157	157.800	374.080	242.225	341.966	131.305	256.328	261.719	327.834	400.667	197.007	208.879	0.00030297	0.0010124	0.00015186	1187.6	2.6462e-06	1.1063e-05	1399.6	295.81	4.8769e-06	8.4763e-06	419.21	124.52	72.853	24.682	6.2714e-06	54.987	0.001267	0.0012897	0.00035658	1162.1	1.4111e-05	1.4089e-05	1358	296.12	1.4059e-05	1.4133e-05	420.7	126.85	78.51	26.551	1.3978e-05	55.445	155.836	172.333	130.899	73.076	254.921	210.718	72.846	77.033	412.444	303.527	76.549	81.096	81.687	85.925	367.998	85.067	-8191	255	
36441.184	1	1	0	0	0.17885	0.31511	0.22204	0.11354	0.14345	0.2144	0.32113	0.26843	0.16718	0.12489	0.08165	0.099879	0.29564	0.24058	0.061989	0.059618	-3.6542	-3.95	-3.3958	-4.1958	-3.5833	-3.7104	-4.5	-3.6146	-3.8875	-4.1354	-3.5125	-4.3917	-3.7729	-3.5896	-4.0396	-3.5792	379.832	201.654	112.116	389.156	286.220	183.319	367.388	382.413	344.320	334.540	384.123	264.469	120.095	337.816	399.257	288.336	0.00048265	0.00092725	0.00018928	1181.6	6.0293e-06	1.3063e-05	1390.9	295.42	6.959e-06	7.8592e-06	423.65	125.35	72.872	24.605	6.6051e-06	54.912	0.0012555	0.0012767	0.00035335	1152	1.3929e-05	1.3917e-05	1347.2	295.08	1.3899e-05	1.4022e-05	422.51	127.11	78.618	26.506	1.3845e-05	55.746	155.250	171.388	179.283	73.119	267.583	293.062	73.098	76.839	302.454	408.585	76.018	81.006	82.193	85.995	144.389	84.897	-8191	255	
36441.305	1	1	0	0	0.1948	0.063162	0.18998	0.21612	0.063871	0.1269	0.22924	0.19044	0.13529	0.12228	0.35472	0.10062	0.14238	0.24241	0.12017	0.089488	-3.45	-3.9854	-3.4854	-4.1667	-3.8875	-3.5625	-4.4708	-3.6708	-3.7354	-4.1292	-3.3208	-4.1875	-4.0083	-3.4375	-4.2188	-3.6688	396.830	260.923	218.248	297.386	337.203	290.530	362.218	311.099	301.003	235.487	352.805	341.117	120.060	391.732	232.089	397.038	0.0004248	0.00017236	0.00039536	1185	4.3199e-06	9.4502e-06	1405	299.07	7.7439e-06	5.903e-06	425.89	126.08	73.589	24.736	4.5432e-06	56.422	0.001237	0.001267	0.00035698	1160.8	1.4015e-05	1.3861e-05	1355.8	297.75	1.3844e-05	1.3946e-05	423.84	127.84	79.072	26.745	1.3861e-05	56.509	159.047	138.376	328.572	73.282	76.148	262.656	72.552	76.725	170.459	269.986	76.028	81.302	81.894	86.013	299.193	85.091	-8191	255	
36441.375	1	1	0	0	0.11504	0.23812	0.11647	0.087019	0.079074	0.20751	0.13783	0.11274	0.071635	0.043309	0.11813	0.051948	0.13539	0.10405	0.12897	0.22601	-3.4729	-4.1667	-3.3708	-4.2521	-4.0542	-3.7104	-4.3979	-3.6833	-3.7917	-4.2708	-3.5792	-4.0417	-4.1146	-3.4938	-4.1542	-3.7062	83.956	296.747	167.824	80.354	389.969	134.122	361.341	322.098	134.648	211.927	231.837	111.018	102.026	353.612	393.232	69.438	0.00045295	0.0010749	0.00028417	1188.7	5.7813e-06	1.1741e-05	1400.7	300.7	3.4416e-06	2.3572e-06	432.88	129.35	74.403	25.944	1.9166e-06	57.733	0.0012246	0.0012644	0.00035741	1160.9	1.386e-05	1.3928e-05	1360.1	298.65	1.3648e-05	1.3905e-05	428.58	130.24	80.006	27.587	1.3958e-05	57.906	153.917	140.918	191.195	73.084	262.107	237.306	72.829	76.905	388.351	244.326	76.358	81.653	81.644	85.966	386.237	85.019	-8191	255	
36441.496	1	1	0	0	0.075813	0.046499	0.051969	0.16218	0.096683	0.22872	0.03491	0.20151	0.16891	0.10805	0.25824	0.10402	0.095477	0.22606	0.041518	0.12541	-3.2313	-4.0646	-3.4104	-3.9833	-4.1229	-3.3083	-4.4021	-3.8458	-3.5083	-4.2312	-3.5333	-3.8542	-4.25	-3.5271	-3.8583	-3.7479	332.938	319.119	78.786	376.390	61.320	108.141	296.856	352.029	360.128	266.940	365.565	325.907	390.738	128.088	140.418	351.357	0.00041058	0.0003098	0.00030467	1190	1.1345e-05	1.1794e-05	1417.6	302.65	3.1974e-06	1.2431e-05	432.96	129.17	75.569	25.509	9.1732e-06	56.97	0.0012236	0.0012716	0.00035627	1166.8	1.3759e-05	1.3982e-05	1372.4	301.39	1.3789e-05	1.4044e-05	432.24	130.95	80.526	27.454	1.3762e-05	57.381	182.513	188.892	116.714	73.045	199.336	274.581	72.767	76.867	202.259	290.077	76.581	81.290	81.775	85.846	238.413	84.826	-8191	255	
36441.590	1	1	0	0	0.15278	0.063698	0.05896	0.13594	0.13825	0.27043	0.16054	0.12119	0.098593	0.25808	0.057394	0.2098	0.051072	0.090846	0.040264	0.313	-2.7917	-4.2042	-3.4729	-3.7562	-4.0813	-3.4375	-4.0917	-3.9688	-3.4062	-4.1292	-3.5521	-3.5625	-4.3271	-3.5354	-3.9521	-4.1062	142.785	108.618	295.001	329.307	125.721	93.634	347.635	343.358	207.724	148.856	278.834	366.385	192.918	131.235	180.488	358.611	0.00054349	0.0007385	0.00023106	1191.4	4.7234e-06	1.0243e-05	1383.8	297.69	9.4302e-06	1.4784e-05	426.53	126.42	72.513	24.445	5.4523e-06	54.861	0.0012235	0.0012515	0.00034877	1156.1	1.3575e-05	1.3542e-05	1345.9	294.52	1.3543e-05	1.3568e-05	421.01	126.86	78.244	26.44	1.3436e-05	55.251	175.517	402.383	255.793	72.788	342.075	124.276	72.875	76.672	287.067	189.725	76.149	80.858	81.543	86.172	342.296	84.906	-8191	255	
36441.684	1	1	0	0	0.044944	0.042693	0.29684	0.11009	0.093646	0.16874	0.25753	0.12096	0.21526	0.20926	0.23005	0.074109	0.16684	0.009437	0.22085	0.049131	-2.8292	-4.1458	-3.5438	-3.6625	-4.15	-3.2521	-3.9604	-4.125	-3.2917	-4.0813	-3.8563	-3.6042	-4.175	-3.5292	-3.8458	-4.0333	122.370	229.117	335.168	361.183	168.777	321.353	406.649	400.255	101.138	346.679	399.993	200.316	334.168	119.982	215.552	168.012	0.00046693	0.0005247	0.00012781	1174.7	6.3516e-06	5.1205e-06	1388	295.14	1.3351e-05	8.8169e-06	423.47	125.82	73.562	24.844	1.7592e-06	55.433	0.0012034	0.0012329	0.00034435	1145	1.3524e-05	1.3614e-05	1339.8	294.18	1.3429e-05	1.3487e-05	420.01	126.63	78.669	26.542	1.3386e-05	55.632	157.967	191.590	176.521	72.884	124.768	275.116	72.785	76.936	215.235	142.860	76.558	81.157	81.959	86.079	161.004	84.928	-8191	255	
36441.781	1	1	0	0	0.012166	0.2377	0.22119	0.036492	0.067801	0.064656	0.22056	0.14063	0.088339	0.18909	0.12062	0.13169	0.24644	0.13204	0.11268	0.099597	-3.0771	-3.9188	-3.8521	-3.6208	-4.2438	-3.5042	-3.8063	-4.1792	-3.4208	-4.2063	-4.0479	-3.5604	-4.2063	-3.3417	-3.6583	-4.2229	377.437	362.594	390.661	404.071	367.317	156.522	378.228	117.860	103.689	216.008	137.565	84.586	76.603	95.260	360.398	134.540	0.0004894	0.00054831	0.00015924	1180.6	2.4349e-06	1.3005e-05	1389.7	298.12	4.4358e-06	1.1724e-05	426.73	128.48	74.169	25.192	1.5416e-05	56.389	0.0011949	0.001229	0.00033985	1149	1.3364e-05	1.3435e-05	1343.2	295.76	1.3493e-05	1.3407e-05	423.19	128.08	78.961	26.921	1.3227e-05	56.719	168.792	83.632	320.420	72.905	99.296	236.403	72.533	77.008	247.941	298.407	76.304	81.174	81.947	86.401	196.741	85.072	-8191	255	
36441.902	1	1	0	0	0.074065	0.16769	0.17045	0.35977	0.09873	0.1393	0.15048	0.30486	0.085994	0.076801	0.32208	0.32008	0.12752	0.1216	0.14961	0.064011	-2.9813	-4.0208	-3.9542	-3.65	-4.3	-3.6	-3.9042	-4.1896	-3.6146	-3.8937	-4.0854	-3.4167	-4.1771	-3.7938	-3.5271	-4.3875	210.308	169.202	165.951	406.500	208.784	78.278	354.138	341.500	154.055	406.714	412.943	340.097	248.202	106.475	156.977	298.448	0.00042675	0.00053759	0.00028001	1189.5	4.4782e-06	8.8975e-06	1396.9	300.49	8.7087e-06	1.8408e-05	429.84	127.86	74.543	25.268	7.7117e-06	57.57	0.0011949	0.001228	0.00034236	1154.6	1.349e-05	1.3525e-05	1350.7	298.03	1.3561e-05	1.3476e-05	425.88	129.33	79.893	27.108	1.3375e-05	57.426	173.771	177.327	409.924	72.887	388.104	190.706	72.862	76.845	142.779	213.201	76.508	81.325	82.358	86.231	220.370	85.243	-8191	255	
36441.996	1	1	0	0	0.20834	0.054013	0.11604	0.24165	0.14396	0.22426	0.28164	0.25629	0.14016	0.097118	0.15798	0.28108	0.15945	0.12901	0.1432	0.18094	-3.0521	-3.9521	-3.9542	-3.5417	-4.0792	-3.6604	-3.6542	-4.3646	-3.55	-3.6562	-4.1354	-3.5104	-4.2063	-3.6583	-3.4562	-4.3583	130.078	244.808	219.499	394.820	305.128	106.120	344.286	377.890	241.679	295.256	362.541	397.855	62.568	260.449	270.693	363.769	0.00045489	0.0012663	0.00016749	1193.5	7.6808e-06	7.6136e-06	1414	304.36	2.2542e-06	9.0086e-06	432.55	129.24	74.804	25.465	7.3723e-06	56.49	0.0012122	0.0012193	0.00034298	1163.8	1.3424e-05	1.3491e-05	1362.3	300.5	1.3563e-05	1.3391e-05	428.38	129.95	79.667	27.045	1.327e-05	56.529	166.858	237.366	411.192	72.791	201.966	225.845	72.541	76.899	184.439	322.160	76.418	81.205	81.639	86.254	367.077	84.923	-8191	255	
36442.094	1	1	0	0	0.17339	0.092404	0.064177	0.19749	0.22174	0.34466	0.16241	0.16563	0.11627	0.19447	0.3011	0.072359	0.022055	0.16085	0.30083	0.18776	-3.0021	-3.6562	-3.9917	-3.425	-3.9375	-3.8833	-3.5354	-4.2562	-3.6063	-3.6521	-4.1792	-3.6354	-3.8542	-3.9875	-3.3958	-4.0875	265.014	383.941	171.649	410.558	340.711	156.771	346.339	311.527	356.668	246.527	354.668	201.185	181.380	174.221	347.760	383.115	0.00024459	0.00033415	0.00015641	1174.7	6.6172e-06	2.983e-06	1381.5	293.89	6.4294e-06	1.3016e-05	423.74	124.22	71.755	24.744	9.7059e-06	55.358	0.0011813	0.0011999	0.00033217	1148.3	1.3112e-05	1.3102e-05	1335.8	292.78	1.3156e-05	1.3046e-05	418.55	125.68	77.017	26.332	1.3045e-05	55.427	206.502	200.787	136.697	72.889	140.085	315.899	72.743	76.815	240.500	227.433	76.648	81.136	81.885	86.071	254.884	84.953	-8191	255	
36442.191	1	1	0	0	0.11003	0.16536	0.17653	0.37396	0.13613	0.1567	0.13465	0.083313	0.11977	0.11928	0.19151	0.098816	0.093364	0.27476	0.089781	0.039347	-3.1021	-3.5021	-3.9104	-3.5479	-3.9062	-3.9979	-3.5375	-4.0667	-3.7083	-3.3542	-4.2521	-3.5187	-3.6896	-4.0188	-3.1917	-4.1312	329.581	390.031	98.283	384.645	268.945	249.969	356.340	334.796	140.657	240.287	101.467	416.995	168.371	96.853	150.605	254.149	0.00037048	0.00067808	0.0002844	1171.6	9.5426e-06	1.3862e-05	1382.3	295.57	6.1169e-06	5.7126e-06	423.42	125.67	73.122	24.803	3.2937e-06	56.376	0.0011582	0.001182	0.00032905	1139.1	1.2954e-05	1.2953e-05	1333.5	292.98	1.3049e-05	1.2975e-05	419.26	126.78	77.672	26.494	1.3181e-05	56.341	173.494	317.012	389.099	72.715	277.133	122.049	72.761	76.991	246.393	123.570	76.070	81.259	82.287	86.196	261.697	84.786	-8191	255	
36442.285	1	1	0	0	0.054015	0.12202	0.075059	0.24468	0.090884	0.19826	0.28211	0.1105	0.25283	0.084011	0.39222	0.20332	0.18238	0.060303	0.047123	0.042626	-3.4125	-3.3854	-4.1	-3.5167	-3.6875	-4.0833	-3.3937	-4.0958	-3.825	-3.55	-4.1979	-3.4771	-3.6292	-4.0583	-3.2938	-3.9417	104.750	243.635	364.230	356.161	106.085	139.976	398.449	266.378	401.939	98.531	325.065	367.912	389.303	214.054	205.004	84.750	0.00036878	0.00098577	0.0002139	1182.5	2.8951e-06	5.5991e-06	1387.7	298.77	2.5785e-06	5.9245e-06	426.25	127.02	74.248	25.296	1.1467e-05	56.973	0.0011697	0.001196	0.00033403	1150.5	1.3101e-05	1.3338e-05	1346.6	295.37	1.3198e-05	1.324e-05	423.21	128.06	78.925	26.951	1.3197e-05	57.029	181.741	176.052	186.777	72.925	220.000	84.218	72.909	77.011	151.801	368.954	76.310	81.118	82.136	86.366	362.184	84.983	-8191	255	
36442.383	1	1	0	0	0.054353	0.1487	0.12287	0.15865	0.2626	0.25317	0.23857	0.015621	0.20113	0.28427	0.13132	0.11388	0.057192	0.18264	0.077933	0.11039	-3.4167	-3.2333	-4.1292	-3.7875	-3.5542	-4.1729	-3.5563	-3.9958	-3.8792	-3.4313	-4.0875	-3.7854	-3.4896	-4.1271	-3.3521	-3.7167	179.962	88.502	340.897	335.268	192.191	210.394	308.121	410.688	131.614	259.922	326.141	412.575	85.912	309.969	320.908	111.834	0.00042359	0.0012233	0.00049286	1187.6	8.2802e-06	6.8245e-06	1395.5	299.96	2.0244e-06	5.9984e-06	433.22	129.58	75.52	25.918	5.3148e-06	58.026	0.0011721	0.0012219	0.00034141	1156.1	1.3304e-05	1.3319e-05	1354.7	297.65	1.3256e-05	1.3367e-05	428.15	130.64	79.895	27.516	1.3468e-05	58.312	160.582	162.829	166.902	72.956	139.033	226.762	72.669	76.934	186.067	230.554	76.357	81.502	81.803	86.154	331.383	84.912	-8191	255	
36442.480	1	1	0	0	0.10486	0.13435	0.090508	0.27892	0.2197	0.020775	0.042299	0.14403	0.20892	0.24407	0.22064	0.050561	0.078191	0.11397	0.068829	0.21849	-3.7375	-3.2521	-4.0271	-3.8771	-3.4354	-4.1792	-3.7438	-3.8646	-4.1271	-3.3396	-4.1208	-3.8771	-3.6333	-4.3021	-3.5625	-3.7396	153.575	263.626	348.544	369.091	380.655	87.546	113.040	256.903	371.721	329.836	387.457	124.935	62.288	372.911	398.387	305.554	0.00038665	0.00037184	0.00021055	1204.2	1.0627e-05	4.108e-06	1417.8	304.33	1.0863e-05	5.7071e-06	436.81	130.4	75.21	26.011	8.62e-06	57.538	0.0011756	0.0012247	0.00034073	1171.1	1.3169e-05	1.3449e-05	1371.3	301.44	1.3275e-05	1.3371e-05	431.47	131.31	79.883	27.349	1.3154e-05	57.517	158.219	279.725	83.300	73.058	202.799	276.908	72.747	76.992	229.999	350.647	76.279	81.524	81.931	86.616	190.409	84.809	-8191	255	
36442.598	1	1	0	0	0.085373	0.1219	0.27273	0.14936	0.066764	0.046091	0.25042	0.38286	0.16128	0.04232	0.2112	0.2308	0.029468	0.12159	0.11744	0.099093	-3.8021	-3.4125	-4.0583	-4.0521	-3.3812	-4.2208	-3.6854	-3.8542	-4.3125	-3.2812	-4.0354	-4.0396	-3.2292	-4.1125	-3.8146	-3.4917	108.646	360.882	117.879	151.130	387.339	169.881	407.245	348.368	334.409	96.540	332.688	365.564	336.784	83.021	168.945	281.826	0.00058133	0.00098097	0.00022382	1197.3	7.914e-06	4.2123e-06	1392.7	298.98	1.0738e-05	2.0244e-06	423.92	127.06	72.86	25.088	4.2957e-06	56.081	0.0011562	0.0011978	0.00033089	1159.1	1.2953e-05	1.2964e-05	1346.2	295.15	1.2969e-05	1.3096e-05	420.44	127.39	77.668	26.619	1.2861e-05	55.979	176.170	94.805	145.329	73.341	185.737	133.111	72.978	76.312	210.792	284.043	76.463	81.706	81.795	85.721	218.219	84.991	-8191	255	
36442.672	1	1	0	0	0.15696	0.26418	0.17201	0.057155	0.060878	0.25767	0.26193	0.35551	0.15662	0.16901	0.066644	0.15536	0.16123	0.11949	0.2405	0.047378	-3.7833	-3.2646	-3.7313	-4.0938	-3.2583	-4.1083	-3.8937	-3.625	-3.9854	-3.5208	-3.8458	-4.2104	-3.4292	-4.2292	-3.7917	-3.5875	337.768	372.599	88.027	85.919	275.273	354.211	397.656	387.835	136.169	353.344	409.029	354.318	341.221	302.070	210.843	69.484	0.0003632	0.00059485	0.00027783	1187.4	8.3676e-06	9.8064e-07	1396	298.28	1.0794e-05	7.104e-06	426.31	127.89	73.92	25.005	6.5558e-06	56.395	0.0011598	0.0011969	0.00032844	1151.3	1.304e-05	1.3027e-05	1345.8	295.88	1.308e-05	1.3009e-05	421.71	128.05	78.466	26.703	1.2867e-05	56.559	161.447	92.655	158.709	73.244	245.127	80.599	72.688	76.744	211.628	268.035	76.093	81.245	81.684	86.089	372.682	84.879	-8191	255	
36442.766	1	1	0	0	0.21012	0.20067	0.15328	0.16524	0.1695	0.25301	0.11864	0.36406	0.12186	0.16602	0.1939	0.18547	0.20453	0.054068	0.075423	0.21402	-3.8083	-3.4646	-3.6708	-4.325	-3.1729	-4.0208	-3.9833	-3.4375	-4.1125	-3.5521	-3.8896	-4.2333	-3.3208	-3.8042	-3.8854	-3.5187	62.193	217.444	176.455	331.293	415.073	271.418	321.627	331.662	185.605	347.280	71.380	353.755	302.751	88.687	109.272	403.578	0.00043645	0.00025283	5.0893e-05	1188.6	7.789e-06	5.3682e-06	1397.1	300.72	2.3273e-06	9.6542e-06	430.81	128.4	74.619	25.379	1.2262e-05	57.457	0.0011442	0.0011891	0.00032784	1154.5	1.2868e-05	1.3002e-05	1352.4	297.42	1.3e-05	1.2997e-05	425.46	129.17	78.734	26.913	1.3003e-05	56.996	170.894	290.789	183.538	73.136	196.262	290.795	72.864	76.711	161.889	301.361	76.035	81.166	81.955	85.875	267.185	84.611	-8191	255	
36442.863	1	1	0	0	0.10619	0.13783	0.19615	0.067965	0.16899	0.05155	0.19281	0.25352	0.077841	0.1094	0.11158	0.14995	0.21318	0.25154	0.30683	0.29873	-3.9729	-3.6583	-3.4542	-4.2708	-3.1708	-3.9667	-4.0813	-3.3229	-4.0208	-3.5729	-3.6083	-4.2167	-3.4417	-3.7021	-3.9	-3.5396	413.380	392.246	385.405	414.978	64.291	157.713	418.330	106.107	210.640	115.056	88.183	411.630	289.209	62.862	206.497	273.150	0.00038881	0.00064796	0.00031599	1201.1	9.0182e-06	4.6412e-06	1411.7	305.11	7.7424e-06	9.2054e-06	433.8	130.6	75.672	25.441	9.0272e-06	57.566	0.001161	0.0011919	0.00032812	1168.7	1.3015e-05	1.287e-05	1363.5	300.6	1.3138e-05	1.3036e-05	429.35	130.58	79.814	27.232	1.3053e-05	57.884	185.853	113.914	108.171	73.101	264.482	221.736	72.704	76.548	219.855	215.027	76.485	81.083	81.404	86.150	326.937	84.802	-8191	255	
36442.984	1	1	0	0	0.1408	0.10071	0.11874	0.20008	0.17983	0.16035	0.252	0.084337	0.026793	0.23061	0.03313	0.22822	0.18678	0.049886	0.26307	0.31938	-3.8542	-3.6896	-3.3146	-4.4812	-3.5854	-3.7979	-4.1562	-3.5312	-3.9771	-3.6125	-3.5958	-4.3667	-3.4479	-3.6896	-4.2604	-3.4583	101.667	335.425	73.480	395.037	241.972	354.688	389.179	382.078	72.572	271.252	196.197	395.213	220.790	202.117	208.976	388.659	0.00050146	0.00057603	0.00029852	1208	6.05e-06	8.1623e-06	1425.2	305.56	1.0983e-05	4.8092e-06	438.28	129.94	74.388	25.532	6.901e-06	57.264	0.0011797	0.0012032	0.00033407	1176.5	1.3298e-05	1.3153e-05	1378.4	302.81	1.3213e-05	1.3159e-05	433.48	131.17	79.53	27.123	1.3015e-05	57.152	169.946	118.156	130.800	73.246	152.073	161.298	72.863	77.150	306.718	219.586	76.157	81.387	81.800	86.696	217.267	84.790	-8191	255	
36443.078	1	1	0	0	0.080987	0.080376	0.058064	0.20743	0.18819	0.3183	0.23078	0.23082	0.19218	0.27294	0.17233	0.078615	0.16186	0.19908	0.15273	0.21835	-3.5375	-3.7729	-3.3521	-4.4062	-3.4958	-3.5646	-4.3313	-3.6708	-3.8917	-4.0354	-3.4958	-4.1979	-3.675	-3.6896	-4.1979	-3.5229	73.043	190.351	162.996	349.429	177.646	148.398	376.479	301.745	395.617	69.639	349.589	120.095	158.836	316.914	224.441	345.536	0.00025018	0.001185	0.00039889	1191.4	4.6341e-06	7.9216e-06	1383.1	295.99	8.0562e-06	1.0368e-05	418.96	125.09	72.043	24.416	1.2675e-06	55.573	0.001164	0.0011891	0.00033353	1153.9	1.3077e-05	1.308e-05	1343.3	293.94	1.311e-05	1.3107e-05	416.88	126.68	77.03	26.232	1.3299e-05	55.856	155.599	94.797	75.923	73.031	138.604	233.055	72.878	77.098	286.606	202.314	76.382	81.112	81.949	86.213	367.052	84.911	-8191	255	
36443.176	1	1	0	0	0.20966	0.037604	0.13759	0.082892	0.2611	0.27768	0.077273	0.15304	0.1431	0.10431	0.12411	0.17922	0.16304	0.27437	0.15942	0.16975	-3.4729	-3.8604	-3.2958	-4.1583	-3.7708	-3.55	-4.3333	-3.5187	-3.8354	-4.0792	-3.3292	-4.2583	-3.7854	-3.65	-4.3313	-3.5458	72.722	328.264	408.243	135.452	318.791	260.399	92.404	377.963	258.628	302.553	80.711	407.594	89.168	277.065	240.904	311.492	0.00048722	0.0016247	0.00027644	1169.5	4.4409e-06	8.4851e-06	1389.7	291.62	6.6801e-06	1.1138e-06	419.93	126.07	71.939	24.738	2.6135e-06	56.395	0.0011814	0.0012297	0.0003441	1139.2	1.3338e-05	1.3501e-05	1340	291.07	1.328e-05	1.3473e-05	418.25	127.01	77.167	26.651	1.3634e-05	56.35	178.459	210.676	63.355	72.953	211.789	183.656	72.564	76.913	187.559	64.752	76.552	81.662	81.619	86.089	245.701	84.878	-8191	255	
36443.270	1	1	0	0	0.26819	0.13256	0.079756	0.10662	0.029212	0.086819	0.20736	0.18168	0.088974	0.086137	0.10417	0.23435	0.15394	0.29609	0.11974	0.10027	-3.2917	-4.0729	-3.3896	-3.9792	-3.8333	-3.4833	-4.3521	-3.5479	-3.5667	-4.0271	-3.4458	-3.9208	-4.0167	-3.5542	-4.0437	-3.7167	302.277	151.801	288.403	389.438	217.072	367.958	349.116	66.278	63.493	384.854	367.779	86.822	69.532	126.246	329.918	85.681	0.00038536	0.0010877	0.00023963	1168.2	1.0208e-05	2.3915e-06	1396.2	291.41	3.8564e-06	1.5395e-05	420.59	125.43	71.842	24.816	2.351e-06	56.459	0.001201	0.0012644	0.00034745	1141	1.3717e-05	1.3779e-05	1346.2	292.13	1.3718e-05	1.383e-05	419.68	127.94	77.596	26.959	1.3965e-05	57.092	169.952	164.547	76.958	72.889	255.547	390.734	72.719	76.744	187.094	151.910	76.064	81.267	81.452	86.213	206.369	84.869	-8191	255	
36443.367	1	1	0	0	0.080878	0.090956	0.053791	0.064558	0.02762	0.14566	0.2716	0.16934	0.23441	0.19048	0.28753	0.13465	0.098107	0.20661	0.31063	0.12663	-3.2687	-4.1521	-3.3375	-4.0375	-3.7562	-3.4062	-4.3875	-3.6562	-3.5854	-4.1687	-3.5042	-4.0542	-4.1062	-3.3063	-4.0646	-3.8667	338.881	191.261	295.447	81.097	295.673	323.009	361.413	412.901	381.820	265.821	379.594	374.264	132.924	365.517	268.483	414.822	0.00026299	0.00044332	0.0002964	1178	1.1348e-05	9.2768e-06	1400.9	295.77	6.1248e-06	1.2761e-06	426.65	128.53	72.676	25.534	5.3188e-06	57.661	0.001223	0.0012786	0.00035657	1150	1.3863e-05	1.406e-05	1357.8	295.07	1.3859e-05	1.4018e-05	424.73	129.84	78.843	27.327	1.3842e-05	57.848	167.298	177.520	402.370	73.045	215.358	179.132	73.074	76.684	219.356	361.795	76.276	81.708	82.237	86.171	137.900	85.103	-8191	255	
36443.465	1	1	0	0	0.087369	0.0057426	0.21662	0.14091	0.15115	0.12116	0.18919	0.3945	0.012874	0.12385	0.035141	0.055117	0.080209	0.12878	0.010927	0.18751	-3.1396	-4.1937	-3.3875	-3.8146	-3.8833	-3.4479	-4.1979	-3.9729	-3.4021	-4.1813	-3.4083	-3.8625	-4.1062	-3.4313	-4.0062	-3.7667	410.252	393.633	111.808	88.242	101.712	114.888	354.100	69.129	224.459	174.276	191.823	395.882	233.518	328.092	270.332	314.943	0.00039536	0.0004821	0.00025499	1199	2.7898e-06	1.6373e-05	1417.5	301.36	8.3826e-07	1.0902e-05	429.99	128.38	73.833	25.29	4.0742e-06	56.866	0.0012475	0.0012854	0.0003554	1166.1	1.3922e-05	1.4212e-05	1376.8	299.64	1.3963e-05	1.4038e-05	430.04	130.07	79.14	27.125	1.3892e-05	57.064	196.610	217.035	238.797	72.932	174.473	206.286	72.881	77.151	98.482	215.949	76.262	81.750	81.626	86.083	250.289	84.824	-8191	255	
36443.586	1	1	0	0	0.26899	0.1655	0.22689	0.11927	0.15113	0.14423	0.12699	0.18762	0.21977	0.055053	0.16545	0.12227	0.1582	0.19135	0.13283	0.12546	-3.1417	-4.1854	-3.5479	-3.7375	-4.1333	-3.3708	-4.0042	-3.85	-3.4313	-4.1792	-3.8292	-3.6167	-4.0854	-3.2292	-3.8958	-4.1813	292.027	393.442	106.201	371.399	148.464	129.636	367.439	406.657	81.637	166.121	403.064	129.522	389.637	327.662	259.602	392.117	0.00022471	0.00077887	0.0001732	1179.6	6.344e-06	6.6661e-06	1400.6	293.51	7.3401e-06	1.2045e-05	419.43	125.83	72.845	24.336	3.6985e-06	55.336	0.0012511	0.0012757	0.00035358	1154.4	1.3948e-05	1.398e-05	1353.1	293.07	1.4025e-05	1.3825e-05	419.7	126.94	77.633	26.502	1.3917e-05	55.966	154.419	65.246	70.443	72.933	295.390	186.385	72.633	76.745	276.928	116.572	76.298	81.664	82.379	86.449	277.892	84.961	-8191	255	
36443.680	1	1	0	0	0.035635	0.2043	0.090277	0.13322	0.13758	0.24421	0.2924	0.27927	0.13927	0.29078	0.28971	0.29205	0.29466	0.26575	0.17226	0.040384	-2.9979	-4.0021	-3.7208	-3.4521	-3.9708	-3.4062	-3.8729	-4	-3.2542	-4.0125	-3.8812	-3.4792	-4.2333	-3.5229	-3.7104	-4.1167	357.650	397.495	298.394	393.571	160.231	188.732	79.862	127.515	284.865	314.587	364.413	319.170	413.980	208.768	82.334	77.066	0.00042415	0.00064175	0.00044686	1191.1	5.0848e-06	1.4848e-05	1401	295.38	2.5433e-06	1.0868e-05	424.51	125.36	72.529	24.359	2.9793e-06	55.25	0.0012597	0.0012945	0.00035933	1159	1.4208e-05	1.4268e-05	1361.8	295.93	1.4193e-05	1.4161e-05	423.67	127.77	78.321	26.5	1.4068e-05	56.145	174.599	114.681	79.103	72.858	297.217	251.907	72.563	77.090	236.293	340.888	76.498	80.888	81.611	86.184	167.011	85.079	-8191	255	
36443.773	1	1	0	0	0.12138	0.12387	0.16515	0.13003	0.17115	0.16044	0.25963	0.19682	0.087218	0.14984	0.070897	0.037379	0.06048	0.13569	0.10457	0.07295	-3.0521	-3.8563	-3.7292	-3.5208	-4.0708	-3.4521	-3.7625	-4.1958	-3.2167	-3.9146	-3.9625	-3.5	-4.1562	-3.5958	-3.525	-4.1792	393.289	221.338	189.351	343.224	213.530	378.798	367.486	313.310	349.263	185.154	264.830	376.477	201.950	286.451	93.897	387.387	0.00048489	0.0010471	0.00023698	1199.8	4.8215e-06	9.8774e-06	1420.6	298.72	1.4012e-05	5.9412e-06	428.33	125.58	72.862	24.954	5.5829e-06	55.998	0.001274	0.0013117	0.00036243	1169.6	1.4313e-05	1.4416e-05	1373.3	298.51	1.4516e-05	1.4474e-05	427.21	128.82	79.082	26.932	1.4562e-05	56.931	169.669	209.803	75.282	72.942	358.198	292.423	72.812	76.629	236.604	267.067	76.472	81.511	81.652	86.872	260.424	84.929	-8191	255	
36443.895	1	1	0	0	0.1234	0.19949	0.19208	0.18328	0.18575	0.31758	0.26255	0.17627	0.23888	0.13524	0.22887	0.26476	0.16189	0.092652	0.11697	0.045325	-2.9813	-3.8979	-3.8354	-3.475	-4.2333	-3.7313	-3.7479	-4.3063	-3.35	-3.7729	-4.0938	-3.15	-4.1	-3.6188	-3.5458	-4.1396	283.455	350.920	289.839	324.330	169.881	168.233	353.833	340.625	84.353	224.614	65.489	381.814	105.238	395.052	126.004	251.464	0.00045934	0.0004317	0.00021211	1200.5	3.5071e-06	6.5561e-06	1422.3	301.86	6.473e-06	3.6644e-06	431.53	127.44	73.433	25.044	5.9429e-06	56.923	0.0013001	0.0013368	0.00037557	1173.7	1.4861e-05	1.4753e-05	1380.7	301.57	1.4889e-05	1.4904e-05	432.56	130.1	80.275	27.255	1.5097e-05	57.843	181.958	87.385	270.347	73.056	170.717	97.831	72.965	76.737	268.792	399.943	76.720	81.266	81.311	86.314	276.426	85.299	-8191	255	
36443.969	1	1	0	0	0.26763	0.28447	0.10882	0.11704	0.084252	0.23899	0.21375	0.19055	0.13881	0.086017	0.14448	0.13837	0.14728	0.26968	0.091756	0.25736	-3.2042	-3.6521	-3.9417	-3.4688	-4.0646	-3.6708	-3.6521	-4.2583	-3.6354	-3.65	-4.1854	-3.5917	-4.0583	-4.0271	-3.3521	-4.1146	195.330	223.659	397.859	90.291	63.270	299.194	351.998	313.378	276.517	367.432	81.030	333.531	404.978	193.206	341.487	393.987	0.00056375	0.0011533	0.00015952	1210.2	1.864e-06	5.6399e-06	1435.4	303.68	8.6075e-06	2.8831e-06	437.94	127.52	73.457	24.873	9.0797e-06	56.189	0.0013333	0.0013568	0.00038528	1186.7	1.4921e-05	1.5011e-05	1397.6	304.61	1.4823e-05	1.4854e-05	436.26	130.53	79.9	27.083	1.4789e-05	56.822	178.335	262.191	61.503	73.198	193.733	158.068	72.682	76.639	124.773	86.311	76.425	81.468	81.337	86.461	273.590	85.352	-8191	255	
36444.062	1	1	0	0	0.049717	0.076654	0.1926	0.34236	0.10125	0.16115	0.11683	0.24166	0.14216	0.099904	0.02753	0.18594	0.19584	0.18735	0.25156	0.092386	-3.1833	-3.65	-4.1417	-3.6104	-4.0396	-3.9208	-3.6104	-4.1979	-3.6292	-3.575	-4.2292	-3.5687	-3.7479	-4.0792	-3.5438	-4.3458	136.780	297.828	222.705	61.844	181.204	144.864	279.229	317.532	351.500	75.754	68.199	300.151	395.653	386.517	86.239	147.239	0.00046575	0.00096649	0.0001218	1188.8	1.5668e-05	1.2793e-05	1390.4	291.1	1.2387e-05	1.5641e-05	416.86	123.61	71.359	23.482	2.9334e-06	53.459	0.0012952	0.0013383	0.00037455	1163.3	1.4535e-05	1.4633e-05	1354.7	293.46	1.4491e-05	1.4555e-05	419.02	125.34	77.161	25.968	1.4533e-05	54.537	149.413	268.459	402.880	72.969	120.650	244.516	72.911	76.776	268.961	218.008	76.470	81.224	81.584	86.278	159.076	84.932	-8191	255	
36444.160	1	1	0	0	0.086221	0.23455	0.049027	0.33757	0.11708	0.17341	0.34824	0.26568	0.14061	0.26013	0.12493	0.15241	0.18447	0.093444	0.35058	0.1745	-3.2458	-3.4729	-4.0354	-3.5417	-3.675	-4.0896	-3.6688	-4.1208	-3.7833	-3.5104	-4.3417	-3.4813	-3.7583	-4.0854	-3.3229	-4.0958	398.908	153.404	293.356	398.553	338.030	379.046	385.802	370.603	241.569	265.470	392.574	295.208	193.784	415.705	198.453	391.651	0.00037828	0.0011115	0.00022313	1164.3	4.7939e-06	3.6132e-06	1378.1	288.76	6.611e-06	1.1922e-05	415.11	121.25	70.126	23.815	9.0965e-06	53.6	0.0012984	0.0013302	0.00036913	1140.3	1.444e-05	1.4666e-05	1339.9	290.06	1.4559e-05	1.4603e-05	417.25	124.57	76.79	26.059	1.4563e-05	54.609	180.991	216.586	127.447	73.216	80.663	250.122	72.780	77.098	264.153	173.306	76.479	81.681	81.208	86.772	284.129	84.739	-8191	255	
36444.281	1	1	0	0	0.19703	0.19703	0.059266	0.23488	0.13542	0.048179	0.21677	0.25195	0.18526	0.1871	0.26811	0.2029	0.32708	0.017439	0.067367	0.1151	-3.4958	-3.3333	-4.0792	-3.6729	-3.6625	-4.2208	-3.5458	-4.1021	-3.9	-3.4813	-4.1958	-3.6188	-3.6104	-4.0958	-3.4833	-3.7396	277.669	369.696	376.099	400.542	353.702	295.197	361.177	375.154	203.060	240.793	379.497	410.715	365.744	86.481	165.775	325.962	0.00034112	0.0011068	0.00030511	1170.5	1.2292e-05	1.3527e-05	1377.8	291.87	8.1313e-06	7.9451e-06	412.86	122.42	70.646	24.011	7.3767e-06	54.464	0.001291	0.0013475	0.00037058	1142.2	1.431e-05	1.4666e-05	1341.2	291.51	1.4553e-05	1.468e-05	417.24	125.18	77.017	26.34	1.4545e-05	55.301	180.531	82.523	198.698	72.955	288.284	384.130	72.770	76.385	242.781	381.260	76.094	81.168	81.355	86.438	280.678	84.685	-8191	255	
36444.375	1	1	0	0	0.21767	0.11187	0.21402	0.14336	0.098135	0.2002	0.27399	0.035157	0.1434	0.33746	0.19613	0.1338	0.092773	0.22402	0.25445	0.092711	-3.5521	-3.3521	-4.0375	-3.8542	-3.5187	-4.2229	-3.5	-4.0354	-3.9875	-3.1396	-4.1583	-3.7208	-3.5312	-4.2625	-3.3792	-3.9	330.077	262.050	268.390	358.136	178.555	191.234	335.924	167.341	408.733	408.710	358.829	406.568	320.524	190.040	153.054	328.821	0.00046934	0.00053351	0.00027475	1166.5	3.7986e-06	1.0628e-05	1373.6	289.97	1.3439e-05	7.8617e-06	417.51	125.23	71.651	25.123	2.5022e-06	56.121	0.0012819	0.0013432	0.00037201	1138.8	1.4764e-05	1.4755e-05	1335.9	291.78	1.4738e-05	1.4736e-05	418.62	127.57	78.099	27.064	1.4674e-05	56.975	177.290	160.916	394.329	73.050	185.840	115.849	72.669	76.892	218.254	248.318	76.845	81.710	82.058	85.947	234.143	85.004	-8191	255	
36444.473	1	1	0	0	0.12623	0.1035	0.031292	0.3046	0.26685	0.063377	0.20684	0.36824	0.031799	0.2762	0.2431	0.14117	0.19285	0.019677	0.24517	0.11903	-3.6063	-3.2083	-3.9979	-3.925	-3.5646	-4.1521	-3.7938	-3.75	-4.0938	-3.2938	-4.0396	-3.9042	-3.4354	-4.1667	-3.575	-3.7771	99.666	140.978	309.827	336.721	378.539	319.194	330.414	343.770	244.195	339.688	329.953	377.814	194.222	418.370	343.475	356.220	0.00056515	0.001219	0.00010197	1161.9	1.1596e-05	2.8695e-06	1375.7	291.82	6.2534e-06	1.3343e-05	416.45	123.67	70.8	24.303	3.5327e-06	54.352	0.0013067	0.0013594	0.00037456	1140.3	1.4741e-05	1.4734e-05	1342.6	292.5	1.468e-05	1.4798e-05	417.98	126.36	77.294	26.57	1.451e-05	55.341	151.166	179.000	152.445	72.912	201.095	322.508	72.619	76.875	209.281	198.946	76.778	81.759	81.503	86.642	369.006	84.771	-8191	255	
36444.543	1	1	0	0	0.10839	0.26571	0.1264	0.28563	0.28232	0.128	0.22714	0.13988	0.27003	0.1806	0.41513	0.038631	0.17215	0.20265	0.015627	0.047076	-3.7021	-3.3125	-3.9	-4.075	-3.3229	-4.1271	-3.8542	-3.8271	-4.3167	-3.4521	-3.9625	-4.0125	-3.4313	-4.1271	-3.7687	-3.4833	266.608	393.436	138.912	410.890	245.997	180.825	372.933	323.135	261.401	149.326	315.596	276.744	151.294	358.028	389.158	113.726	0.00047025	0.00064876	0.00029946	1149.2	6.4604e-06	8.2947e-06	1352.6	287.88	2.1776e-06	2.3844e-06	409.5	121.36	71.235	23.774	1.1311e-05	53.266	0.001274	0.0013232	0.0003624	1123.5	1.4283e-05	1.4216e-05	1316.7	287.72	1.397e-05	1.3938e-05	409.8	123.92	76.36	25.742	1.3825e-05	53.809	180.148	371.141	151.584	72.854	320.479	349.256	72.990	77.110	111.442	140.798	76.026	81.714	81.859	85.978	297.578	85.018	-8191	255	
36444.664	1	1	0	0	0.2414	0.06527	0.079639	0.1255	0.11681	0.035964	0.15327	0.32322	0.13301	0.16254	0.14323	0.35164	0.17889	0.25999	0.21481	0.22477	-3.6937	-3.3479	-3.7167	-4.3229	-3.2708	-3.9729	-3.8104	-3.625	-4.0521	-3.4062	-3.7438	-4	-3.3771	-4.1083	-3.7938	-3.3604	403.622	253.438	153.231	346.337	212.181	143.232	292.531	380.110	351.511	235.136	62.316	323.858	330.044	63.448	178.906	310.520	0.0003356	0.00082199	0.00038278	1157.2	6.7507e-06	1.1145e-05	1368.2	288.62	6.5765e-06	1.3118e-06	410.41	122.01	70.929	23.903	7.6157e-06	53.71	0.0012352	0.0012715	0.00035166	1130.6	1.3911e-05	1.393e-05	1323	289.24	1.3845e-05	1.3891e-05	411.81	123.99	76.721	25.885	1.3758e-05	54.206	155.727	85.583	86.877	73.054	244.658	265.991	72.981	76.347	326.164	235.747	76.385	81.526	81.901	85.774	223.041	84.868	-8191	255	
36444.758	1	1	0	0	0.12866	0.15608	0.22549	0.1941	0.042049	0.15247	0.1165	0.13025	0.13431	0.084886	0.099782	0.087886	0.084635	0.063519	0.031823	0.35288	-3.5771	-3.4833	-3.5667	-4.3021	-3.3833	-3.9167	-4.0625	-3.4417	-4.0542	-3.5792	-3.6562	-4.2438	-3.4417	-3.8833	-3.85	-3.3667	156.711	305.940	108.797	367.967	128.256	132.501	90.291	295.670	131.028	293.884	353.235	174.553	149.152	416.725	375.951	357.028	0.0004262	0.00057118	0.0005343	1145	7.0599e-06	1.4266e-05	1356.2	286.55	1.8401e-06	1.2534e-05	412.15	121.92	71.517	24.151	3.6638e-06	54.329	0.0012431	0.0012771	0.00035459	1124.2	1.3917e-05	1.3956e-05	1315.3	288.38	1.4003e-05	1.4057e-05	412.28	124.4	76.978	26.193	1.41e-05	54.968	169.900	196.261	120.633	73.091	121.269	279.065	72.792	76.784	244.160	241.289	76.107	81.731	81.323	86.238	329.240	84.930	-8191	255	
36444.855	1	1	0	0	0.036321	0.12961	0.17748	0.20985	0.16477	0.03336	0.29991	0.1671	0.17482	0.10763	0.10044	0.20563	0.15416	0.3062	0.18496	0.11406	-3.6854	-3.6063	-3.4562	-4.0687	-3.3458	-3.6875	-4.1562	-3.3917	-4.0021	-3.6958	-3.6042	-4.3021	-3.4104	-3.5833	-4.1625	-3.2125	287.565	374.052	260.832	79.944	365.995	298.211	398.079	217.097	385.394	415.136	347.386	323.328	104.784	334.908	376.164	332.742	0.00025062	0.00092029	0.0002054	1145.9	5.9678e-06	1.0663e-05	1360.1	289.55	8.279e-06	1.2236e-05	413.45	122.99	71.864	24.401	6.8203e-06	55.121	0.0012675	0.0012955	0.00036262	1120.7	1.4117e-05	1.4162e-05	1320.4	289.87	1.4226e-05	1.4273e-05	414.85	125.87	77.766	26.59	1.4292e-05	55.749	212.643	292.569	208.732	73.099	107.158	277.347	72.900	76.797	298.344	161.501	76.185	81.527	81.648	86.017	236.679	84.864	-8191	255	
36444.977	1	1	0	0	0.25097	0.043249	0.055137	0.076437	0.096382	0.12144	0.26399	0.20376	0.0055244	0.12937	0.14064	0.14229	0.32589	0.21531	0.055801	0.12939	-3.5438	-3.5479	-3.3271	-4.3375	-3.3542	-3.6792	-4.225	-3.4542	-3.9396	-3.9104	-3.6312	-4.1458	-3.4833	-3.775	-4.0083	-3.5396	368.865	310.979	197.938	69.983	312.311	384.692	369.819	363.794	238.786	380.335	362.900	297.745	403.765	100.194	304.781	400.072	0.00053975	0.00073123	0.00022373	1151.7	4.6706e-06	2.9367e-06	1364.1	287.42	1.0339e-05	1.5217e-05	413.09	122.29	71.548	24.052	4.0117e-06	53.893	0.0012695	0.0013111	0.00036817	1128.5	1.4402e-05	1.4363e-05	1327.5	289.99	1.4191e-05	1.4284e-05	413.51	125.13	77.247	26.199	1.4259e-05	54.517	167.080	290.682	208.165	72.954	238.579	76.128	72.930	77.249	258.999	263.356	76.360	81.234	82.059	85.904	102.532	84.608	-8191	255	
36445.070	1	1	0	0	0.053029	0.11431	0.25938	0.23105	0.24579	0.25666	0.10542	0.26463	0.12442	0.34517	0.24539	0.18798	0.13074	0.053699	0.091317	0.05415	-3.5354	-3.8729	-3.2479	-4.1458	-3.6188	-3.4188	-4.3146	-3.3333	-3.7646	-4.0667	-3.3521	-4.1917	-3.6813	-3.6458	-4.0813	-3.4854	417.118	73.227	187.000	382.010	373.610	353.534	386.669	374.620	167.559	181.511	409.151	81.122	343.904	220.636	255.865	409.627	0.00044263	0.001165	0.0003283	1132.9	5.8632e-06	9.9683e-06	1329.5	283.3	7.9355e-06	1.0098e-05	404.65	119.36	69.45	23.283	6.6155e-06	52.521	0.0012577	0.0012955	0.00036188	1109.6	1.4117e-05	1.4134e-05	1293.5	283.73	1.3982e-05	1.4179e-05	404.83	121.73	75.506	25.577	1.4237e-05	53.308	156.842	170.914	387.728	72.894	132.394	111.452	73.099	76.535	250.026	384.753	76.602	81.660	81.783	86.004	390.523	84.597	-8191	255	
36445.168	1	1	0	0	0.17965	0.099556	0.02523	0.10217	0.20838	0.064924	0.30965	0.15972	0.1554	0.25494	0.19502	0.29302	0.069546	0.096174	0.13065	0.24137	-3.4313	-3.9562	-3.1583	-4.0875	-3.6458	-3.3917	-4.1375	-3.425	-3.5875	-4.0271	-3.3146	-4.0458	-3.8604	-3.4375	-4.0646	-3.6125	339.749	411.997	230.542	314.404	123.449	259.884	397.818	345.629	225.331	163.788	369.892	408.545	105.432	335.087	83.432	180.038	0.00037911	0.00079307	0.00011638	1126.6	1.1974e-05	1.2678e-05	1322.7	284.45	2.7159e-06	1.1763e-05	401.37	120.12	69.866	23.661	8.8509e-06	52.737	0.0012526	0.0013042	0.00036466	1104	1.4221e-05	1.4359e-05	1292.3	284.17	1.4221e-05	1.4338e-05	405.2	122.17	75.954	25.884	1.4111e-05	53.744	164.986	69.920	107.732	72.782	257.390	228.856	72.778	76.688	179.289	194.173	76.314	81.298	82.089	85.898	242.460	84.803	-8191	255	
36445.266	1	1	0	0	0.13656	0.2077	0.0087811	0.2716	0.058342	0.25751	0.18671	0.28745	0.35553	0.014874	0.21504	0.0026671	0.26384	0.30021	0.18655	0.27099	-3.3	-3.9521	-3.2896	-3.975	-3.9167	-3.325	-4.2021	-3.6542	-3.4813	-4.2292	-3.4188	-4.0208	-4.0292	-3.4729	-4.0813	-3.7188	171.830	128.368	73.471	312.259	343.991	83.930	343.195	120.880	228.775	121.094	78.161	325.436	114.942	288.674	117.546	410.086	0.00030763	0.00072659	0.00023834	1128.5	1.0526e-05	1.2624e-05	1329.5	284.68	5.4331e-06	1.0286e-05	408.82	120.68	70.206	24.28	8.3215e-06	54.226	0.0012508	0.0012908	0.00036208	1105.9	1.4036e-05	1.4094e-05	1288.2	283.71	1.3929e-05	1.4132e-05	407.1	123.16	76.345	26.181	1.4096e-05	54.86	149.301	203.191	370.960	72.942	247.424	317.526	72.954	76.891	323.841	164.389	76.805	81.192	81.431	86.082	158.182	84.573	-8191	255	
36445.359	1	1	0	0	0.17469	0.14794	0.16462	0.20941	0.046954	0.11542	0.26403	0.29764	0.20559	0.18723	0.21485	0.17526	0.21361	0.287	0.16336	0.10038	-3.0729	-4.1958	-3.2604	-3.9542	-3.9917	-3.2667	-4.125	-3.8771	-3.4938	-4.1396	-3.55	-3.7167	-3.9583	-3.2854	-3.9854	-3.7583	200.918	190.107	380.822	62.516	319.766	188.754	377.025	378.896	188.198	125.626	215.599	242.608	258.401	106.644	206.026	136.077	0.00051423	0.00066179	7.1044e-05	1131.7	2.2852e-06	6.991e-06	1334.7	287.55	8.1505e-06	8.1671e-06	410.73	122.7	71.389	24.573	2.5591e-06	55.068	0.0012489	0.0012951	0.00035687	1108.8	1.4175e-05	1.4089e-05	1296.1	286.21	1.4152e-05	1.413e-05	411.49	125.23	77.53	26.562	1.4026e-05	55.759	174.755	152.858	233.012	72.816	172.171	240.141	72.714	76.959	222.421	192.706	76.335	81.426	81.924	85.710	130.680	85.093	-8191	255	
36445.457	1	1	0	0	0.18752	0.068667	0.073489	0.24627	0.091403	0.092072	0.41949	0.15928	0.15675	0.067256	0.20501	0.1407	0.22336	0.064392	0.13844	0.1842	-3.15	-4.0979	-3.6437	-3.7375	-3.9979	-3.275	-4.1229	-3.825	-3.5354	-4.175	-3.6146	-3.6229	-4.0833	-3.3583	-3.8063	-3.9771	200.078	152.288	362.005	388.398	218.073	125.497	355.076	347.197	398.584	383.649	403.716	108.936	85.938	269.048	87.449	76.791	0.00052416	0.00083783	0.00033745	1145.8	8.462e-06	4.8127e-06	1348.1	290.22	6.6385e-06	1.1618e-05	411.97	122.47	70.709	23.818	3.2072e-06	53.26	0.0012583	0.001289	0.00035859	1120.3	1.4138e-05	1.418e-05	1309.7	289.43	1.4082e-05	1.3987e-05	411.2	124.29	76.881	26.051	1.3761e-05	54.003	167.730	183.886	142.418	72.856	75.399	185.639	73.024	77.077	273.095	321.338	76.685	81.476	81.360	85.904	322.076	85.107	-8191	255	
36445.574	1	1	0	0	0.19628	0.15748	0.14844	0.15505	0.11876	0.11182	0.4105	0.14211	0.24073	0.12148	0.099302	0.1367	0.1748	0.087124	0.10956	0.18514	-2.9396	-4.1917	-3.4896	-3.5833	-4.1583	-3.5479	-4.0083	-4.1417	-3.3208	-4.0062	-3.7667	-3.4729	-4.2229	-3.5708	-3.7521	-4.1146	269.611	121.375	157.819	288.775	321.447	344.834	358.966	78.805	144.216	370.817	72.217	378.806	276.198	106.027	409.264	317.414	0.00053533	0.00052705	0.00029167	1124.8	1.4746e-06	1.0964e-05	1317.8	282.4	2.7082e-06	7.4744e-06	402.7	118.89	69.415	23.363	5.0577e-06	52.568	0.0012331	0.0012634	0.00035227	1100.5	1.3886e-05	1.3832e-05	1281.3	282.51	1.3819e-05	1.3679e-05	402.59	121.11	75.165	25.464	1.3574e-05	53.269	166.111	140.741	169.595	72.732	227.986	325.270	72.893	76.937	128.300	164.736	76.606	81.145	81.607	86.216	323.774	84.997	-8191	255	
36445.672	1	1	0	0	0.12395	0.26686	0.13663	0.056948	0.20397	0.10743	0.066881	0.095137	0.087573	0.11401	0.17038	0.34	0.16406	0.13115	0.1615	0.22673	-3.1021	-4.0042	-3.8042	-3.6271	-4.1896	-3.3042	-3.8146	-4.2708	-3.2917	-3.7792	-3.9708	-3.4646	-4.2833	-3.425	-3.4958	-4.1646	393.180	382.572	127.220	242.452	251.068	206.760	61.216	177.174	413.715	92.172	136.074	341.424	386.924	66.815	210.878	340.741	0.00049967	0.00029759	0.00023469	1122.4	5.5163e-06	5.7418e-06	1320.6	282.44	1.0564e-05	1.3031e-05	405.45	120.34	70.549	23.836	1.0682e-05	53.272	0.0012194	0.0012524	0.00034871	1099.2	1.3682e-05	1.3636e-05	1281.2	283.47	1.386e-05	1.3771e-05	404.69	122.01	75.749	25.76	1.3701e-05	53.909	166.486	128.593	311.163	72.958	227.094	202.455	72.718	76.754	418.432	78.404	76.356	81.037	81.397	85.661	279.606	84.926	-8191	255	
36445.766	1	1	0	0	0.095654	0.16191	0.2179	0.25843	0.059158	0.18512	0.24504	0.25313	0.090711	0.24405	0.19785	0.16323	0.16192	0.13869	0.063432	0.31505	-2.8417	-3.9104	-3.8417	-3.5458	-3.9792	-3.7	-3.6542	-4.1542	-3.2625	-3.7333	-3.8354	-3.5708	-4.2229	-3.5833	-3.5042	-4.0479	171.724	418.312	215.696	270.941	332.425	403.096	377.603	329.477	67.554	293.435	376.213	326.917	350.066	374.633	179.388	387.475	0.00030486	0.00076903	0.00023057	1128.5	6.3362e-06	2.8492e-06	1323.6	285.83	4.9048e-06	1.2977e-06	404.97	120.38	69.855	23.604	7.9897e-06	53.619	0.0012233	0.0012569	0.00035387	1104.1	1.38e-05	1.3723e-05	1289	285.01	1.3764e-05	1.3816e-05	407.52	122.89	76.125	25.761	1.3911e-05	54.316	175.567	130.224	156.241	73.105	127.199	287.138	72.730	76.966	215.643	264.745	77.007	81.376	81.866	86.337	214.089	84.835	-8191	255	
36445.840	1	1	0	0	0.23536	0.22869	0.040461	0.23602	0.25325	0.26338	0.56749	0.076209	0.10024	0.070562	0.31004	0.16358	0.092021	0.033955	0.19037	0.034123	-3.1937	-3.7375	-3.9375	-3.4708	-4.0083	-3.8479	-3.5396	-4.0542	-3.4271	-3.7	-4.0437	-3.5479	-4	-3.6792	-3.1688	-4.2188	149.596	250.010	80.727	351.877	145.184	384.775	338.984	354.578	343.513	110.351	263.726	411.195	371.499	360.604	197.933	270.607	0.0004064	0.00092562	0.00021924	1134.1	8.2809e-06	1.725e-05	1338.5	287.44	6.3727e-06	5.3953e-06	410.98	122.58	71.407	24.22	8.6642e-06	54.767	0.0012322	0.0012797	0.00035623	1112.4	1.3919e-05	1.398e-05	1299.9	287.34	1.3837e-05	1.4007e-05	411.75	124.37	76.958	26.216	1.3875e-05	55.055	182.649	190.434	167.630	72.616	166.294	214.138	72.752	76.882	332.158	232.768	76.239	80.795	81.913	86.203	303.160	85.170	-8191	255	
36445.961	1	1	0	0	0.16323	0.1476	0.208	0.18738	0.10529	0.085221	0.10895	0.15801	0.13697	0.086006	0.15182	0.17834	0.3121	0.10726	0.13455	0.040164	-3.0583	-3.6354	-3.9458	-3.3917	-3.9271	-3.8792	-3.5583	-4.0646	-3.5438	-3.6417	-4.2396	-3.3729	-3.9562	-3.9542	-3.3521	-4.1396	251.940	87.145	232.588	59.083	144.263	89.607	277.611	334.313	336.794	389.758	220.585	380.734	371.132	399.963	82.249	85.122	0.00062111	0.0010502	0.00031355	1151.3	4.9297e-06	7.1307e-06	1352.2	289.35	1.253e-05	1.0648e-05	410.18	121.25	70.746	23.841	2.1442e-06	53.469	0.0012324	0.0012752	0.00035777	1125.9	1.3762e-05	1.3724e-05	1312.4	290.18	1.3771e-05	1.375e-05	410.53	123.45	76.248	25.842	1.3577e-05	53.965	164.055	125.345	117.638	72.757	154.465	224.186	72.743	76.615	314.643	369.333	76.842	81.131	81.582	86.808	134.364	85.018	-8191	255	
36446.055	1	1	0	0	0.39604	0.20521	0.13176	0.26763	0.22781	0.22962	0.2656	0.1988	0.04257	0.25518	0.015247	0.13431	0.19201	0.18945	0.026671	0.062512	-3.2625	-3.6354	-4.0354	-3.6146	-3.8812	-3.8167	-3.5917	-4.0833	-3.7146	-3.4917	-4.2479	-3.6146	-3.9854	-3.9708	-3.3458	-4.1646	392.949	348.519	356.012	389.560	234.028	110.507	328.183	288.342	214.520	106.662	332.725	393.470	399.663	416.712	120.638	223.117	0.00058071	0.0013812	0.00039132	1131.9	6.2098e-06	1.3751e-05	1321.7	284.57	2.3516e-06	4.2819e-06	403.31	120.28	70.246	23.451	6.5785e-06	52.875	0.0012012	0.0012324	0.0003439	1104.2	1.3312e-05	1.3508e-05	1282.2	283.9	1.345e-05	1.3637e-05	402.53	121.21	75.245	25.497	1.3387e-05	53.367	186.810	208.685	120.216	72.856	325.572	207.138	72.716	76.721	196.353	188.129	76.242	81.095	81.764	86.188	193.863	84.888	-8191	255	
36446.152	1	1	0	0	0.10486	0.09169	0.19208	0.13146	0.10792	0.2962	0.15113	0.32512	0.070701	0.049001	0.18441	0.11408	0.12751	0.13255	0.19229	0.028657	-3.3646	-3.5312	-3.9875	-3.5583	-3.65	-3.9875	-3.5229	-4.1	-3.8396	-3.3875	-4.25	-3.6437	-3.7354	-4.0917	-3.3438	-4.025	185.526	62.031	251.521	369.137	415.037	152.835	326.420	359.871	267.846	225.691	287.820	91.248	406.680	386.847	206.669	357.141	0.00039459	0.0011605	0.00029768	1127.2	6.9237e-06	3.8608e-06	1319.5	284.73	5.0646e-06	9.1859e-06	409.35	119.31	69.569	23.765	6.6652e-06	53.442	0.0012033	0.0012377	0.00034456	1100.5	1.3444e-05	1.3529e-05	1284	284.2	1.3554e-05	1.3561e-05	405.49	121.79	75.65	25.704	1.348e-05	53.88	194.552	330.368	186.962	72.920	282.229	99.888	72.906	76.774	258.165	402.880	76.390	81.482	81.501	86.036	192.975	84.969	-8191	255	
36446.246	1	1	0	0	0.042607	0.2046	0.1329	0.19864	0.064657	0.16401	0.26965	0.099733	0.139	0.10565	0.11879	0.27422	0.15359	0.14201	0.11673	0.076468	-3.5438	-3.4062	-4.3625	-3.8771	-3.3833	-3.9375	-3.4167	-3.8792	-3.9167	-3.4313	-4.0125	-3.7729	-3.5312	-4.2	-3.4	-4.0833	113.866	101.102	308.397	64.745	78.750	176.907	399.953	365.576	149.762	220.343	241.913	411.477	80.043	418.301	145.940	205.523	0.00056184	0.00092538	0.00021277	1137.1	2.4297e-06	8.8985e-06	1336	286.39	1.6282e-06	7.1135e-06	410.67	121.67	70.443	24.259	4.4113e-06	54.701	0.0012001	0.001242	0.00034139	1108.3	1.3485e-05	1.3471e-05	1293.4	285.41	1.3636e-05	1.3587e-05	407.8	123.38	76.165	26.018	1.3425e-05	54.788	175.323	310.670	156.984	72.686	174.197	276.391	73.203	76.579	133.507	255.492	76.417	81.136	82.247	85.338	134.880	84.879	-8191	255	
36446.344	1	1	0	0	0.043763	0.14599	0.20792	0.33379	0.067459	0.19565	0.306	0.24646	0.038768	0.14658	0.023517	0.16308	0.044501	0.11584	0.03118	0.12043	-3.6708	-3.3125	-3.8542	-3.9042	-3.5542	-4.1292	-3.4396	-3.9333	-4.0479	-3.2958	-4.1375	-3.8458	-3.6229	-4.1792	-3.5312	-3.7229	206.672	400.067	320.733	365.299	324.747	320.911	347.648	385.559	238.445	370.156	382.064	59.378	382.714	226.599	77.759	339.688	0.00038066	0.00016786	7.3857e-05	1150.8	7.623e-06	7.875e-06	1345.5	290.5	2.6265e-06	1.8142e-05	415.93	123.76	72.425	24.49	6.9166e-06	55.101	0.0012138	0.0012417	0.00034036	1120.9	1.3485e-05	1.3536e-05	1306.1	289.21	1.3549e-05	1.3601e-05	414.01	125.47	77.689	26.453	1.361e-05	55.622	169.614	407.348	410.459	72.945	174.479	391.433	72.573	76.764	266.283	261.659	76.555	81.777	81.538	86.201	146.771	85.158	-8191	255	
36446.441	1	1	0	0	0.14015	0.067961	0.092208	0.2384	0.075122	0.068015	0.28832	0.2545	0.033382	0.17352	0.14023	0.14021	0.094496	0.10154	0.15797	0.16776	-3.7125	-3.2417	-3.9188	-4.0125	-3.325	-4.1042	-3.9458	-3.5854	-4.1146	-3.4521	-4.0083	-3.8792	-3.4479	-4.2875	-3.6542	-3.7479	308.963	68.985	192.947	383.923	261.064	179.356	332.746	403.821	134.084	243.487	210.178	381.657	397.060	403.178	301.983	284.868	0.00039279	0.0011794	0.0002337	1163.3	2.7681e-06	2.1118e-06	1356.7	291.86	1.1377e-05	5.3004e-06	412.59	121.97	71.56	24.121	3.5784e-06	53.957	0.0012168	0.001253	0.000349	1131.2	1.3621e-05	1.3647e-05	1316.9	290.89	1.3574e-05	1.348e-05	411.13	124.06	76.575	25.872	1.3398e-05	54.178	149.512	90.135	384.115	73.011	247.617	184.156	72.876	76.829	367.960	123.037	76.227	81.595	81.204	86.485	402.897	84.671	-8191	255	
36446.535	1	1	0	0	0.059246	0.038882	0.12	0.20995	0.1541	0.19164	0.25727	0.18771	0.063007	0.12562	0.22412	0.14104	0.1202	0.059456	0.24479	0.12314	-3.8812	-3.1562	-3.7729	-4.0375	-3.1854	-4.1188	-3.8792	-3.6021	-4.05	-3.3479	-3.9917	-4.1125	-3.3917	-4.0979	-3.7875	-3.5146	329.909	93.346	291.845	377.847	418.822	206.380	365.208	404.578	212.909	143.286	375.603	270.518	330.961	111.169	320.759	314.193	0.00059712	0.00061645	0.00029025	1132.4	1.1802e-05	6.406e-06	1328.2	286.17	1.0549e-05	5.6701e-06	404.86	121.74	70.383	23.809	1.3352e-06	53.287	0.0011777	0.0012215	0.00033557	1106.8	1.3279e-05	1.3111e-05	1285.8	284.19	1.3157e-05	1.3175e-05	403.85	122.28	75.157	25.489	1.3241e-05	53.728	166.224	114.682	184.420	73.157	205.783	305.008	73.019	76.881	177.058	231.948	76.336	81.451	82.302	85.900	186.371	84.603	-8191	255	
36446.656	1	1	0	0	0.1586	0.019339	0.23511	0.30623	0.1236	0.25043	0.19803	0.1222	0.23581	0.092384	0.13407	0.14977	0.13925	0.21104	0.25125	0.43851	-3.9333	-3.3333	-3.5938	-4.2188	-3.5292	-4.0042	-3.9917	-3.5062	-4.3125	-3.5125	-3.8542	-4.15	-3.4083	-3.9521	-3.8646	-3.4833	363.267	378.670	235.305	408.969	379.648	105.933	370.096	268.361	283.960	389.682	338.368	356.602	117.904	367.746	346.563	355.867	0.00045653	0.00074223	0.00020837	1130.9	1.1891e-05	9.3903e-06	1323.1	287.3	1.4045e-06	1.7478e-05	403.62	122.02	70.461	24.395	2.0905e-06	54.686	0.0011888	0.0012201	0.00034297	1102.7	1.3464e-05	1.3333e-05	1284.1	284.73	1.3247e-05	1.3339e-05	404.09	123.04	75.796	26.031	1.3232e-05	54.937	189.208	269.510	177.228	72.827	156.091	215.754	73.056	76.725	327.728	236.202	76.602	81.471	81.765	85.933	78.438	84.961	-8191	255	
36446.754	1	1	0	0	0.016603	0.14683	0.024434	0.18583	0.31803	0.058739	0.1329	0.22936	0.29144	0.28748	0.14252	0.2112	0.13238	0.17301	0.16682	0.21423	-3.8208	-3.4917	-3.3625	-4.1542	-3.2583	-3.875	-4.1625	-3.4667	-4.1292	-3.775	-3.5896	-4.2417	-3.3833	-3.8208	-4.0729	-3.4167	229.103	254.557	66.122	303.819	200.724	170.662	61.264	380.069	364.192	239.941	76.487	124.098	322.337	348.047	307.135	296.224	0.00038653	0.00096281	0.00025643	1129.8	1.2326e-05	9.1259e-06	1333.1	286.44	3.6978e-06	1.3304e-05	408.38	123.85	71.782	24.916	2.0508e-06	56.351	0.0011759	0.0012136	0.00033475	1100.8	1.3095e-05	1.3047e-05	1290.5	285.59	1.3052e-05	1.3169e-05	408.74	125.64	76.692	26.653	1.3249e-05	56.288	176.662	369.648	156.861	73.085	300.131	344.913	73.129	76.597	156.320	194.732	77.079	81.581	81.750	85.741	65.558	84.732	-8191	255	
36446.848	1	1	0	0	0.078352	0.19172	0.19392	0.11679	0.1859	0.17156	0.19904	0.18582	0.18754	0.35685	0.17843	0.13001	0.0749	0.088	0.076493	0.17701	-3.7208	-3.6979	-3.3187	-4.2896	-3.4708	-3.7125	-4.3688	-3.4458	-3.9542	-3.8	-3.5125	-4.1917	-3.3812	-3.7792	-3.925	-3.6	379.597	331.708	262.178	406.798	414.971	341.785	359.348	223.600	185.304	402.890	403.188	59.916	142.568	177.841	349.514	393.205	0.00043819	0.0003467	0.00032098	1143.3	6.4314e-06	1.322e-05	1349.3	292.2	3.9037e-06	1.1918e-05	413.24	124.99	72.034	24.916	6.1633e-06	56.338	0.0011606	0.0012073	0.00033652	1116	1.3208e-05	1.3297e-05	1309.1	289.46	1.3146e-05	1.3493e-05	413.09	126.79	77.394	26.703	1.3319e-05	56.241	166.896	237.323	197.931	72.999	204.104	167.167	72.922	76.696	399.531	100.631	76.561	81.737	81.612	86.662	237.053	84.618	-8191	255	
36446.945	1	1	0	0	0.098226	0.20044	0.11328	0.060454	0.29535	0.32553	0.30981	0.0012909	0.30739	0.11296	0.071089	0.26001	0.11176	0.059157	0.077995	0.10812	-3.6937	-3.8271	-3.1958	-4.2438	-3.5646	-3.5625	-4.3083	-3.4958	-3.8208	-3.8812	-3.6896	-4.2417	-3.65	-3.6188	-4.0333	-3.5229	299.309	191.354	225.169	417.528	211.378	177.985	349.928	180.000	385.084	234.454	272.605	410.323	223.862	381.282	386.868	138.807	0.00043366	0.00089324	0.0002268	1164.5	1.0422e-05	1.0024e-05	1368	290.01	2.2642e-06	1.8648e-06	411.99	122.38	70.818	24.134	8.1098e-06	54.448	0.0011906	0.0012363	0.00034266	1132.3	1.3464e-05	1.3478e-05	1322.2	290.27	1.3196e-05	1.3404e-05	409.81	123.76	75.942	25.904	1.3212e-05	54.513	150.154	178.008	209.907	72.671	176.397	383.847	72.992	76.998	225.117	412.611	76.574	81.612	82.085	85.870	232.121	84.829	-8191	255	
36447.066	1	1	0	0	0.072036	0.040626	0.13805	0.3566	0.094032	0.20967	0.3447	0.2709	0.19973	0.036885	0.13651	0.25756	0.066586	0.19081	0.21116	0.16465	-3.5021	-4.0292	-3.2979	-4.25	-3.55	-3.7354	-4.3271	-3.5438	-3.8625	-4.0771	-3.4604	-4.1271	-3.8417	-3.4083	-4.2021	-3.6979	66.609	300.539	206.838	337.276	225.526	143.349	395.793	355.488	416.363	134.423	378.900	412.887	322.550	80.082	373.459	399.724	0.0004164	1.7236e-05	0.00012314	1127.1	9.9759e-06	5.9628e-06	1333.6	283.42	4.7483e-06	6.3703e-06	404.9	120.14	70.275	23.767	1.2471e-05	54.021	0.0011599	0.0011987	0.00033263	1102.8	1.3093e-05	1.3043e-05	1287.7	282.7	1.3003e-05	1.3238e-05	402.67	121.98	75.225	25.682	1.2973e-05	54.187	150.181	256.356	264.528	72.846	210.414	183.451	73.071	76.644	389.585	206.166	76.012	81.373	81.884	86.481	140.184	84.762	-8191	255	
36447.137	1	1	0	0	0.13646	0.19859	0.050855	0.12271	0.21859	0.060995	0.27367	0.046955	0.15909	0.30769	0.27053	0.28628	0.072809	0.1544	0.15289	0.28391	-3.4146	-4.2375	-3.2062	-4.1292	-3.9083	-3.5083	-4.3125	-3.7479	-3.6521	-4.1208	-3.5125	-4.2208	-4.0104	-3.4208	-3.9875	-3.6854	142.546	121.711	268.386	141.176	271.687	122.419	357.434	243.406	196.915	67.873	403.824	65.346	368.437	139.081	351.677	390.415	0.00038889	0.00095448	7.1557e-05	1130	8.5687e-06	6.2565e-06	1323.9	285.39	6.5438e-06	1.6421e-05	403.66	121.7	70.946	24.047	2.7384e-06	54.078	0.0011735	0.0012076	0.0003351	1100.5	1.3219e-05	1.341e-05	1284	283.74	1.3189e-05	1.3344e-05	403.28	122.63	75.738	25.797	1.3235e-05	54.169	173.911	183.899	362.664	72.814	140.216	397.315	73.073	76.748	237.479	191.737	76.531	81.166	81.582	85.957	228.472	85.161	-8191	255	
36447.258	1	1	0	0	0.087225	0.14916	0.044564	0.078222	0.21611	0.20167	0.17371	0.24795	0.016532	0.22445	0.11815	0.1456	0.26124	0.14906	0.12052	0.34787	-3.2104	-4.15	-3.3688	-4.1354	-4.0729	-3.4313	-4.2812	-3.8479	-3.675	-4.2292	-3.6625	-3.8479	-3.9771	-3.4021	-4.125	-3.9271	309.718	258.701	404.782	74.046	255.048	72.665	358.849	75.710	327.602	189.459	120.281	60.950	97.504	131.935	68.989	354.560	0.00035488	0.00086521	0.00018065	1126.6	7.0175e-06	5.5261e-06	1320.3	285	6.9689e-06	1.099e-05	409.1	122	70.655	24.138	9.6969e-06	54.382	0.0011817	0.0012318	0.0003376	1100.5	1.3423e-05	1.3339e-05	1285.9	284.64	1.3325e-05	1.3381e-05	406.14	123.13	76.043	25.993	1.3174e-05	54.805	174.238	223.381	144.741	72.872	298.299	253.725	72.932	76.701	230.052	202.463	76.603	81.597	82.028	85.824	199.195	85.023	-8191	255	
36447.352	1	1	0	0	0.32818	0.18967	0.017154	0.13547	0.21028	0.19057	0.26878	0.4046	0.083339	0.2078	0.32612	0.31925	0.056103	0.31029	0.10059	0.16165	-3.1542	-4.025	-3.5167	-3.8063	-4.175	-3.3792	-4.2292	-3.9417	-3.3438	-3.9333	-3.6792	-3.7854	-4.0021	-3.35	-4.075	-4.0021	89.770	359.118	85.369	128.396	140.103	211.736	324.661	72.384	259.999	154.576	93.491	278.775	108.979	328.786	319.784	297.688	0.00044717	0.00097439	0.00033688	1140.3	1.0026e-05	1.0394e-05	1345.3	288.32	6.1524e-06	7.4543e-06	411.49	123.64	72.177	24.515	1.2302e-06	55.62	0.0011895	0.0012122	0.00033733	1111.5	1.3425e-05	1.3335e-05	1300.9	287.44	1.3441e-05	1.3351e-05	410.69	125.3	77.207	26.382	1.3488e-05	55.952	175.708	131.771	79.775	72.978	319.533	208.575	72.759	76.756	280.053	126.704	76.400	81.030	81.794	85.554	173.386	85.067	-8191	255	
36447.449	1	1	0	0	0.32116	0.072128	0.15131	0.13016	0.17462	0.1291	0.20618	0.12713	0.14737	0.34531	0.22501	0.14444	0.1113	0.09491	0.1855	0.1054	-2.9583	-4.1479	-3.675	-3.7542	-4.0833	-3.4104	-4.2792	-4.1875	-3.45	-4.2542	-3.8458	-3.7667	-4.0458	-3.4771	-3.725	-4.0979	303.113	298.657	156.381	320.598	193.489	164.410	413.138	61.622	74.036	321.050	407.754	176.248	141.880	65.116	274.389	363.423	0.00035606	0.00052739	0.00038332	1155.5	8.0247e-06	8.4038e-06	1358.1	289.74	6.3547e-06	1.4864e-06	410.31	121.79	70.769	23.733	3.8009e-07	53.622	0.0012184	0.0012413	0.00034925	1126.3	1.375e-05	1.3639e-05	1316.8	289.65	1.3624e-05	1.3569e-05	410.13	123.58	76.187	25.688	1.3508e-05	53.841	140.453	153.652	139.228	73.261	269.502	234.790	72.717	76.627	239.381	222.975	76.481	81.068	81.676	85.900	235.769	85.225	-8191	255	
36447.543	1	1	0	0	0.19471	0.22952	0.1263	0.16361	0.24521	0.20147	0.21173	0.11263	0.16676	0.14218	0.1881	0.24949	0.010901	0.11048	0.062116	0.10787	-2.9979	-4.0938	-3.7021	-3.5187	-4.2146	-3.3167	-3.8979	-4.2438	-3.3542	-4.1792	-4.0375	-3.5396	-4.2771	-3.6292	-3.8063	-4.2625	235.215	86.497	356.444	71.296	110.531	286.596	324.287	370.881	387.277	117.365	370.351	63.488	166.532	115.339	211.330	75.933	0.00038261	0.00081788	0.00019134	1135.6	7.5585e-06	5.1199e-06	1339.9	284.83	9.8498e-06	6.2939e-06	403.86	119.02	69.921	23.354	8.4912e-06	52.724	0.0012076	0.0012303	0.00034662	1111.5	1.3366e-05	1.3524e-05	1294	285.05	1.3565e-05	1.3498e-05	404.6	120.99	75.034	25.252	1.3593e-05	53.268	153.911	117.611	100.770	72.731	269.941	103.615	72.694	77.013	208.719	263.877	76.618	81.153	81.927	86.268	191.008	85.171	-8191	255	
36447.664	1	1	0	0	0.18879	0.096182	0.33987	0.2139	0.097334	0.13684	0.12265	0.15882	0.14148	0.16868	0.29299	0.10582	0.22915	0.18413	0.13099	0.11844	-2.9854	-4.0792	-3.7542	-3.4667	-4.1042	-3.6167	-3.7083	-4.2479	-3.2812	-3.9792	-3.9667	-3.4667	-4.2979	-3.575	-3.4146	-4.2729	63.346	326.334	368.006	384.047	239.208	283.676	411.517	395.550	267.087	236.001	392.444	88.180	100.663	378.508	317.182	354.247	0.00035832	0.00070076	0.00010932	1148.6	5.0517e-06	3.3346e-06	1350.1	289.28	3.7543e-06	1.2719e-05	407.3	120.61	70.184	23.294	3.707e-06	52.695	0.0012043	0.0012384	0.0003489	1118	1.3732e-05	1.3805e-05	1309	288.52	1.3868e-05	1.4017e-05	409.53	122.19	76.091	25.477	1.4082e-05	53.504	165.713	198.038	284.169	72.831	192.254	178.336	72.662	76.570	177.316	205.855	76.611	81.230	80.976	86.282	143.596	84.902	-8191	255	
36447.734	1	1	0	0	0.061009	0.10222	0.21254	0.16137	0.10024	0.12231	0.30774	0.29129	0.22449	0.27112	0.15395	0.14622	0.077747	0.10245	0.050942	0.15831	-2.9938	-3.8375	-4.05	-3.6	-4.0917	-3.7708	-3.5646	-4.2229	-3.4437	-3.8792	-4.05	-3.6083	-4.3375	-3.6354	-3.5375	-4.2188	124.834	340.843	281.058	343.605	267.730	61.036	337.057	371.597	66.306	188.139	365.709	201.736	391.105	325.098	346.417	363.908	0.00052812	0.0012445	6.7905e-05	1151.4	8.6526e-06	1.421e-05	1354.7	290.32	8.9469e-06	1.4554e-05	414.51	121.28	70.646	23.724	1.2585e-05	53.875	0.0012374	0.0012876	0.00035986	1125.4	1.4e-05	1.4202e-05	1319.2	289.75	1.4157e-05	1.4312e-05	413.76	123.95	76.431	25.964	1.4449e-05	54.532	174.843	186.743	146.176	72.892	202.015	229.384	73.176	76.797	284.429	186.942	76.926	81.067	81.641	86.316	266.292	85.071	-8191	255	
36447.832	1	1	0	0	0.078842	0.089882	0.044138	0.2251	0.092766	0.24605	0.080662	0.17597	0.31274	0.11521	0.055516	0.17674	0.31382	0.18734	0.13552	0.16857	-3.1292	-3.8167	-4.0479	-3.4667	-4.1625	-3.9292	-3.7062	-4.2667	-3.5042	-3.6083	-4.0625	-3.3729	-3.8625	-4.0042	-3.5458	-4.2312	415.553	78.935	377.612	91.537	302.001	67.175	341.469	95.927	252.243	377.665	71.643	90.435	190.517	401.029	208.492	128.490	0.00026329	0.0013689	0.00038478	1161.4	7.9145e-06	8.1632e-06	1372	293.68	9.9005e-06	1.2878e-05	418.23	124.44	71.95	24.215	6.539e-06	54.555	0.0012775	0.0013135	0.00036882	1136.8	1.4385e-05	1.4399e-05	1334.8	293.37	1.4394e-05	1.4609e-05	420.37	126.43	78.357	26.522	1.4647e-05	55.635	162.891	158.355	184.639	73.128	274.796	115.345	72.654	76.715	198.228	238.932	76.389	81.594	81.469	86.173	214.182	85.032	-8191	255	
36447.930	1	1	0	0	0.13433	0.18663	0.14193	0.35909	0.085727	0.070768	0.17017	0.3657	0.080242	0.23535	0.18012	0.23965	0.079107	0.096534	0.27126	0.081158	-3.1042	-3.5812	-4.1396	-3.5625	-3.9313	-3.9646	-3.7271	-4.3313	-3.6396	-3.4604	-4.4187	-3.3896	-3.85	-4.0813	-3.1104	-4.2021	125.146	275.879	409.976	370.292	346.866	106.216	394.678	375.917	155.593	392.335	307.171	117.512	355.067	378.810	157.404	339.679	0.00047485	0.00082602	0.00026832	1177	8.5903e-07	7.3274e-06	1372.2	293.89	6.2192e-06	1.8612e-05	413.98	120.2	69.917	23.152	6.2706e-06	51.738	0.001298	0.0013467	0.00037444	1152.9	1.4656e-05	1.4752e-05	1343.4	293.96	1.4676e-05	1.4565e-05	415.33	123.1	76.114	25.419	1.4477e-05	52.714	171.817	193.905	105.511	72.971	253.546	179.836	73.179	76.660	366.123	119.030	76.401	81.757	81.963	86.223	337.804	84.662	-8191	255	
36448.023	1	1	0	0	0.17679	0.18347	0.14488	0.063882	0.27311	0.13441	0.26007	0.44074	0.077875	0.17322	0.10365	0.11253	0.20582	0.10541	0.27072	0.16381	-3.2729	-3.4208	-4.0437	-3.4354	-3.7604	-4.0188	-3.6167	-4.0813	-3.7875	-3.5938	-4.1521	-3.5083	-3.6271	-4.0625	-3.2625	-4.1271	136.635	179.266	327.319	67.081	108.139	307.697	360.506	374.647	150.273	418.458	104.202	385.682	373.142	59.098	126.508	410.786	0.00048806	0.00052961	0.00039134	1143.3	5.8183e-06	3.6231e-06	1335.6	285.24	7.773e-06	6.2944e-06	401.67	116.56	68.233	22.349	1.2861e-05	50.386	0.0013062	0.0013485	0.00036862	1122.3	1.4668e-05	1.4681e-05	1305.4	285.93	1.4594e-05	1.4622e-05	403.4	119.35	74.378	24.735	1.4279e-05	51.502	152.025	147.964	124.557	72.760	137.211	99.149	72.816	76.938	209.401	207.233	75.877	81.249	81.409	86.099	254.172	84.665	-8191	255	
36448.145	1	1	0	0	0.1778	0.030794	0.11158	0.30055	0.32696	0.15562	0.17791	0.14619	0.18354	0.24118	0.10587	0.10344	0.38615	0.090021	0.13238	0.03157	-3.5438	-3.2146	-4.0854	-3.7	-3.5229	-4.0479	-3.5771	-3.8979	-3.9167	-3.4354	-4.175	-3.7812	-3.5292	-4.2104	-3.3729	-4.0104	121.282	250.327	270.266	66.032	346.830	318.942	358.589	359.911	232.776	160.336	221.636	403.464	319.690	106.080	396.862	156.353	0.00046103	0.00075014	9.2883e-05	1132.9	3.4066e-06	1.3135e-05	1319.4	281.8	5.1926e-06	3.2101e-06	397.52	115.93	68.148	22.628	1.9355e-06	50.72	0.001295	0.0013159	0.00036403	1109.2	1.4397e-05	1.4517e-05	1295.8	283.58	1.4787e-05	1.4771e-05	402.27	119.72	74.656	25.012	1.4717e-05	52.239	173.576	74.924	176.634	72.848	235.064	273.832	72.879	76.582	286.438	207.171	76.243	81.345	81.877	86.004	375.383	84.961	-8191	255	
36448.242	1	1	0	0	0.18471	0.10411	0.12411	0.28573	0.19874	0.22256	0.3534	0.29586	0.14962	0.14606	0.10161	0.050218	0.13593	0.034541	0.030806	0.12557	-3.6979	-3.3	-4.0958	-3.6479	-3.4104	-4.1813	-3.5542	-3.9125	-3.975	-3.3896	-4.1583	-3.7625	-3.45	-4.1188	-3.4708	-3.8	76.921	190.890	116.361	405.801	398.745	108.186	412.825	370.942	202.477	144.901	314.192	414.916	253.012	345.044	150.959	417.726	0.00031059	0.00078208	0.00012708	1120	2.7781e-06	8.1199e-06	1335.5	281.86	2.0518e-06	1.334e-05	404.15	116.59	67.658	22.568	5.9473e-06	50.918	0.0013227	0.0013491	0.00037377	1106.4	1.4967e-05	1.4794e-05	1302.3	283.69	1.4938e-05	1.4993e-05	405.53	120.33	74.638	25.106	1.5116e-05	52.49	163.403	94.564	74.747	72.752	187.791	334.668	72.595	76.921	316.154	318.892	76.331	81.516	81.772	86.096	202.061	84.771	-8191	255	
36448.336	1	1	0	0	0.21076	0.1082	0.23306	0.22968	0.092583	0.036784	0.07824	0.088197	0.34535	0.16492	0.19852	0.11004	0.2278	0.016788	0.096614	0.033956	-3.7208	-3.3396	-4.0021	-4.1312	-3.4688	-4.1396	-3.7271	-3.6917	-3.9771	-3.4313	-4.15	-3.9042	-3.2875	-4.1458	-3.5083	-3.6646	414.151	233.731	302.264	406.872	272.162	92.219	334.013	241.403	366.777	371.363	94.224	395.615	277.182	335.281	240.325	389.090	0.00044865	0.00087679	0.00021571	1127	5.6237e-06	4.6131e-06	1336.8	282.71	5.8925e-06	4.9043e-06	406.05	118.97	69.165	23.334	2.9515e-06	52.883	0.0013374	0.0013761	0.00038032	1108.2	1.509e-05	1.4833e-05	1303.1	284.97	1.4861e-05	1.4792e-05	407.57	122.16	75.713	25.669	1.4501e-05	53.9	181.679	369.341	116.795	72.949	387.070	143.654	72.667	76.631	294.096	85.129	76.751	81.310	81.324	86.143	188.919	84.436	-8191	255	
36448.434	1	1	0	0	0.32006	0.1606	0.21979	0.090351	0.18455	0.0923	0.30873	0.1908	0.17535	0.051412	0.14764	0.17253	0.25018	0.16565	0.30117	0.16509	-3.8521	-3.3729	-3.9729	-4.1646	-3.2896	-4.2771	-3.8063	-3.5521	-4.15	-3.3812	-4.0875	-4.1208	-3.4271	-4.1958	-3.7083	-3.5792	413.769	134.657	101.262	398.925	391.993	137.668	329.161	303.464	177.170	278.064	354.650	289.733	385.260	91.309	257.206	388.629	0.00052707	0.00075814	0.00047473	1133.4	8.5933e-06	1.7663e-05	1335.5	284.03	5.0766e-06	4.9917e-06	401.77	117.78	68.012	22.998	1.0126e-05	51.188	0.0012923	0.00133	0.00037052	1112.5	1.4408e-05	1.43e-05	1302.6	284.47	1.4164e-05	1.4227e-05	403	120.73	74.162	25.09	1.3837e-05	52.062	171.383	283.391	77.309	73.090	229.834	255.871	72.855	76.986	223.169	241.835	76.298	81.467	81.790	86.042	229.643	84.674	-8191	255	
36448.531	1	1	0	0	0.11335	0.3072	0.10593	0.12784	0.17681	0.1203	0.29623	0.15927	0.19788	0.11255	0.17394	0.21652	0.086761	0.045289	0.12599	0.19469	-3.9	-3.4792	-3.8104	-4.2375	-3.4729	-4.0042	-3.9021	-3.5854	-4.2458	-3.4479	-3.8708	-4.2312	-3.4146	-3.9667	-4.0021	-3.6188	86.314	241.288	329.401	355.570	315.995	323.127	383.267	341.656	326.987	394.460	256.641	299.320	126.126	214.421	390.954	361.250	0.00045944	0.0010341	0.00013385	1116.4	3.9489e-06	1.1288e-05	1331.5	280.8	4.1419e-06	1.2654e-05	399.61	114.92	68.089	22.465	4.7896e-06	50.308	0.001224	0.0012686	0.00035426	1096.2	1.3812e-05	1.3789e-05	1290.4	281.75	1.3707e-05	1.3747e-05	398.93	118.02	73.342	24.511	1.3646e-05	51.226	154.351	405.732	107.564	73.137	370.581	167.757	73.048	76.706	145.120	222.751	75.928	81.591	81.352	86.224	181.419	84.800	-8191	255	
36448.625	1	1	0	0	0.23179	0.11658	0.26388	0.17803	0.10373	0.21734	0.21551	0.23564	0.054606	0.044538	0.068726	0.17864	0.20946	0.098391	0.20296	0.18384	-3.9813	-3.5896	-3.5083	-4.1813	-3.2625	-4.0521	-3.9313	-3.6083	-4.1854	-3.5625	-3.7667	-4.1833	-3.5146	-3.8708	-3.8563	-3.4833	252.015	178.080	333.576	79.955	266.213	345.247	68.947	301.550	367.793	376.178	249.483	165.615	354.425	82.637	262.264	298.291	0.00038766	0.00054493	0.0002193	1124.8	2.2563e-06	9.0923e-06	1332.5	282.33	2.9149e-07	2.0245e-05	402.49	116.53	67.985	22.689	1.0208e-05	50.435	0.0011997	0.0012605	0.00034862	1101.4	1.3585e-05	1.3535e-05	1292	282.96	1.3437e-05	1.351e-05	401.88	118.68	73.6	24.584	1.3464e-05	51.216	167.022	208.386	120.900	72.606	184.576	361.152	72.881	76.823	182.482	166.995	76.305	81.029	81.734	86.153	303.104	84.893	-8191	255	
36448.746	1	1	0	0	0.13087	0.10725	0.018956	0.21182	0.21191	0.32277	0.15026	0.36567	0.13906	0.066902	0.044346	0.075906	0.026489	0.076986	0.15488	0.13442	-3.7438	-3.6125	-3.5833	-4.1937	-3.3833	-4.0396	-4.1687	-3.5583	-4.1708	-3.8396	-3.7292	-4.2667	-3.4958	-3.8812	-4.0646	-3.3292	356.513	83.832	146.582	389.077	161.187	270.763	402.165	372.135	375.360	390.941	395.407	313.744	99.311	283.808	138.734	59.487	0.00028814	0.00062716	9.4345e-05	1130.8	5.8178e-06	1.0267e-05	1338.8	286.11	4.887e-06	1.7084e-05	406.17	118.57	68.687	22.845	7.7408e-06	51.292	0.0011913	0.0012443	0.00034209	1105.4	1.3271e-05	1.3265e-05	1298.8	285.1	1.3172e-05	1.3301e-05	404.82	119.87	74.094	24.819	1.3216e-05	51.888	163.523	310.402	206.171	72.661	207.938	124.155	72.647	76.693	202.031	194.821	76.535	81.741	81.474	86.143	297.879	84.798	-8191	255	
36448.840	1	1	0	0	0.075052	0.14833	0.1704	0.19964	0.098999	0.23081	0.18594	0.23292	0.26431	0.15255	0.20713	0.35603	0.077759	0.095296	0.093606	0.10697	-3.6625	-3.8104	-3.4229	-4.35	-3.6312	-3.7354	-4.2833	-3.3646	-3.9875	-3.8667	-3.4875	-4.3521	-3.4813	-3.7479	-4.2729	-3.4833	90.259	339.979	133.886	365.025	214.527	232.535	353.401	71.296	166.418	74.402	305.837	363.897	297.151	84.030	130.272	276.073	0.0003702	0.00054963	0.00034936	1153.4	6.9615e-06	5.4645e-06	1353	292.03	8.1797e-06	5.6507e-06	411.2	119.73	69.671	22.733	1.0294e-05	51.312	0.0011799	0.001216	0.00033856	1121.4	1.3333e-05	1.3462e-05	1315.5	289.68	1.3256e-05	1.3441e-05	409.98	121.21	75.191	24.822	1.3344e-05	51.862	182.038	98.346	140.359	72.685	326.204	140.488	72.907	76.761	137.198	363.966	76.303	81.439	82.055	86.094	293.456	85.085	-8191	255	
36448.938	1	1	0	0	0.12832	0.26619	0.017894	0.25718	0.17187	0.21191	0.074055	0.11625	0.11802	0.04893	0.0625	0.14785	0.372	0.074865	0.17719	0.22753	-3.6354	-3.8833	-3.2812	-4.3167	-3.7104	-3.6146	-4.4458	-3.5271	-3.6958	-3.975	-3.4667	-4.2458	-3.8396	-3.5792	-4.1667	-3.45	374.057	245.271	98.825	389.698	189.469	209.943	404.189	350.443	234.853	321.308	247.384	408.575	384.662	98.698	121.237	362.160	0.00044006	0.00088095	5.0306e-05	1159.8	6.8411e-06	6.3982e-06	1361.8	290.99	3.1237e-06	6.7885e-06	408.36	115.9	68.203	21.894	8.1228e-06	49.327	0.0011766	0.0012256	0.0003372	1129.8	1.3297e-05	1.3411e-05	1318.7	290.05	1.3378e-05	1.3312e-05	406.88	118.52	73.479	24.078	1.3161e-05	50.028	165.971	317.178	304.803	72.714	159.887	198.932	72.599	76.644	383.054	83.258	75.838	81.386	81.197	86.477	361.001	85.297	-8191	255	
36449.031	1	1	0	0	0.30998	0.11914	0.23851	0.20946	0.12159	0.198	0.19574	0.069982	0.11611	0.11952	0.17992	0.16741	0.079333	0.15405	0.14227	0.22125	-3.4896	-4.0792	-3.3479	-4.0687	-3.7812	-3.5542	-4.2021	-3.7333	-3.5542	-3.9938	-3.4458	-4.1167	-3.8896	-3.3937	-4.2646	-3.5979	341.600	368.984	265.762	401.072	296.733	375.487	256.507	119.791	114.992	220.849	390.488	344.693	130.931	326.408	348.573	180.548	0.00028954	0.00026974	0.00025183	1132.5	9.1563e-06	2.3918e-06	1327.2	282.85	8.0679e-06	1.4766e-05	400.37	114.06	66.896	22.091	2.1518e-06	49.748	0.00117	0.0012161	0.00033492	1104.4	1.3266e-05	1.3293e-05	1282.7	282.47	1.3149e-05	1.3217e-05	397.79	116.44	72.672	24.008	1.3132e-05	50.252	164.085	298.141	229.689	72.946	147.770	248.830	72.949	76.891	232.026	325.835	76.348	81.610	81.763	86.469	252.105	85.021	-8191	255	
#DATA ENDS
