BOXY.EXE: ISS Imagent and Oximeter Data Acquisition Program Version 0.80
Ascii Record File

#ACQ INFORMATION
2  Detector Channels 
16  External MUX Channels 
1  Auxiliary Channels 
5000  Waveform (CCF) Frequency (Hz)
1  Waveforms Skipped 
30  Waveforms Averaged 
1  Cycles Averaged 
16  Acquisitions per Waveform 
10.0806  Updata Rate (Hz) 

#FILE INFORMATION
TRUE -- External MUX Channel results are PARSED.
FALSE -- AC DC and Phase are NOT grouped.
TRUE -- Companion Program Settings File CREATED.
FALSE -- AC data not excluded
FALSE -- DC data not excluded
FALSE -- Phase data not excluded
FALSE -- Auxillary Chn. data not excluded
Tab delimiters

#CALIBRATION STATE
TRUE -- Waveform Calibration Values APPLIED.


#AUX CALIBRATION VALUES
Val Type	aux-1	

Term	1.0000e+00	
Factor	0.0000e+00	


#WF CALIBRATION VALUES
A = Detector Channel
Val Type	A-AC1	A-AC2	A-AC3	A-AC4	A-AC5	A-AC6	A-AC7	A-AC8	A-AC9	A-AC10	A-AC11	A-AC12	A-AC13	A-AC14	A-AC15	A-AC16	A-DC1	A-DC2	A-DC3	A-DC4	A-DC5	A-DC6	A-DC7	A-DC8	A-DC9	A-DC10	A-DC11	A-DC12	A-DC13	A-DC14	A-DC15	A-DC16	A-Ph1	A-Ph2	A-Ph3	A-Ph4	A-Ph5	A-Ph6	A-Ph7	A-Ph8	A-Ph9	A-Ph10	A-Ph11	A-Ph12	A-Ph13	A-Ph14	A-Ph15	A-Ph16	

Term	0.00000e+00	0.00000e+00	0.00000e+00	0.00000e+00	0.00000e+00	0.00000e+00	0.00000e+00	0.00000e+00	0.00000e+00	0.00000e+00	0.00000e+00	0.00000e+00	0.00000e+00	0.00000e+00	0.00000e+00	0.00000e+00	0.00000e+00	0.00000e+00	0.00000e+00	0.00000e+00	0.00000e+00	0.00000e+00	0.00000e+00	0.00000e+00	0.00000e+00	0.00000e+00	0.00000e+00	0.00000e+00	0.00000e+00	0.00000e+00	0.00000e+00	0.00000e+00	0.00000e+00	0.00000e+00	0.00000e+00	0.00000e+00	0.00000e+00	0.00000e+00	0.00000e+00	0.00000e+00	0.00000e+00	0.00000e+00	0.00000e+00	0.00000e+00	0.00000e+00	0.00000e+00	0.00000e+00	0.00000e+00	
Factor	1.00000e+00	1.00000e+00	1.00000e+00	1.00000e+00	1.00000e+00	1.00000e+00	1.00000e+00	1.00000e+00	1.00000e+00	1.00000e+00	1.00000e+00	1.00000e+00	1.00000e+00	1.00000e+00	1.00000e+00	1.00000e+00	1.00000e+00	1.00000e+00	1.00000e+00	1.00000e+00	1.00000e+00	1.00000e+00	1.00000e+00	1.00000e+00	1.00000e+00	1.00000e+00	1.00000e+00	1.00000e+00	1.00000e+00	1.00000e+00	1.00000e+00	1.00000e+00	X	X	X	X	X	X	X	X	X	X	X	X	X	X	X	X	

B = Detector Channel
Val Type	B-AC1	B-AC2	B-AC3	B-AC4	B-AC5	B-AC6	B-AC7	B-AC8	B-AC9	B-AC10	B-AC11	B-AC12	B-AC13	B-AC14	B-AC15	B-AC16	B-DC1	B-DC2	B-DC3	B-DC4	B-DC5	B-DC6	B-DC7	B-DC8	B-DC9	B-DC10	B-DC11	B-DC12	B-DC13	B-DC14	B-DC15	B-DC16	B-Ph1	B-Ph2	B-Ph3	B-Ph4	B-Ph5	B-Ph6	B-Ph7	B-Ph8	B-Ph9	B-Ph10	B-Ph11	B-Ph12	B-Ph13	B-Ph14	B-Ph15	B-Ph16	

Term	0.00000e+00	0.00000e+00	0.00000e+00	0.00000e+00	0.00000e+00	0.00000e+00	0.00000e+00	0.00000e+00	0.00000e+00	0.00000e+00	0.00000e+00	0.00000e+00	0.00000e+00	0.00000e+00	0.00000e+00	0.00000e+00	0.00000e+00	0.00000e+00	0.00000e+00	0.00000e+00	0.00000e+00	0.00000e+00	0.00000e+00	0.00000e+00	0.00000e+00	0.00000e+00	0.00000e+00	0.00000e+00	0.00000e+00	0.00000e+00	0.00000e+00	0.00000e+00	2.30140e+01	-1.20181e+02	-1.19907e+02	-1.83653e+02	-6.30298e+01	-5.18358e+01	-1.58195e+02	-1.62015e+02	-5.19289e+01	-7.20987e+01	-1.70726e+02	-1.70915e+02	-1.78976e+02	-1.76655e+02	-6.37239e+01	-1.49757e+02	
Factor	5.08546e-05	1.47758e-04	3.78023e-05	1.55087e-01	1.88521e-06	1.77159e-06	1.71671e-01	5.62650e-02	2.22537e-06	1.53002e-06	9.34834e-02	3.14727e-02	2.91465e-02	9.72571e-03	2.02248e-06	1.39640e-02	4.02956e-06	4.41231e-06	1.22925e-06	7.62458e-02	4.73918e-08	4.85632e-08	7.91440e-02	2.76715e-02	4.75700e-08	4.85441e-08	4.45230e-02	1.49399e-02	1.44346e-02	4.81122e-03	4.80407e-08	6.69290e-03	X	X	X	X	X	X	X	X	X	X	X	X	X	X	X	X	



#DISTANCE SETTINGS
A = Detector Channel
A-1	A-2	A-3	A-4	A-5	A-6	A-7	A-8	A-9	A-10	A-11	A-12	A-13	A-14	A-15	A-16	

2.5000e+00	3.0000e+00	2.5000e+00	3.0000e+00	2.0000e+00	3.0000e+00	1.5000e+00	3.0000e+00	3.0000e+00	3.0000e+00	3.0000e+00	3.0000e+00	3.0000e+00	3.0000e+00	1.5000e+00	3.0000e+00	

B = Detector Channel
B-1	B-2	B-3	B-4	B-5	B-6	B-7	B-8	B-9	B-10	B-11	B-12	B-13	B-14	B-15	B-16	

1.0000e+01	1.0000e+01	1.0000e+01	1.4400e+00	1.0000e+01	1.0000e+01	1.5100e+00	1.9400e+00	1.0000e+01	1.0000e+01	1.9900e+00	2.4900e+00	2.4100e+00	2.9000e+00	1.0000e+01	2.9800e+00	




#DATA BEGINS
time	group	step	mark	flag	A-AC1	A-AC2	A-AC3	A-AC4	A-AC5	A-AC6	A-AC7	A-AC8	A-AC9	A-AC10	A-AC11	A-AC12	A-AC13	A-AC14	A-AC15	A-AC16	A-DC1	A-DC2	A-DC3	A-DC4	A-DC5	A-DC6	A-DC7	A-DC8	A-DC9	A-DC10	A-DC11	A-DC12	A-DC13	A-DC14	A-DC15	A-DC16	A-Ph1	A-Ph2	A-Ph3	A-Ph4	A-Ph5	A-Ph6	A-Ph7	A-Ph8	A-Ph9	A-Ph10	A-Ph11	A-Ph12	A-Ph13	A-Ph14	A-Ph15	A-Ph16	B-AC1	B-AC2	B-AC3	B-AC4	B-AC5	B-AC6	B-AC7	B-AC8	B-AC9	B-AC10	B-AC11	B-AC12	B-AC13	B-AC14	B-AC15	B-AC16	B-DC1	B-DC2	B-DC3	B-DC4	B-DC5	B-DC6	B-DC7	B-DC8	B-DC9	B-DC10	B-DC11	B-DC12	B-DC13	B-DC14	B-DC15	B-DC16	B-Ph1	B-Ph2	B-Ph3	B-Ph4	B-Ph5	B-Ph6	B-Ph7	B-Ph8	B-Ph9	B-Ph10	B-Ph11	B-Ph12	B-Ph13	B-Ph14	B-Ph15	B-Ph16	aux-1	digaux	

29879.109	1	1	0	256	0.076864	0.02323	0.27865	0.11221	0.055792	0.15968	0.24185	0.36241	0.12613	0.04879	0.21114	0.12524	0.10086	0.083148	0.29803	0.058581	-4.3708	-4.6687	-4.0563	-5.1896	-4.2729	-4.2771	-4.9542	-4.0083	-4.6792	-4.7292	-4.1354	-4.9	-4.425	-4.2375	-4.9187	-4.1229	87.623	360.450	102.165	195.350	338.171	325.246	334.310	284.739	341.048	306.428	380.388	355.678	156.749	166.190	230.052	222.242	0.00094837	0.00014646	0.00021368	1026.1	1.1667e-05	4.3834e-06	959.41	312.52	9.9772e-06	5.5602e-06	348.54	110.86	93.448	36.934	7.8935e-06	48.775	0.0012157	0.0012867	0.00035332	935.23	1.3674e-05	1.3971e-05	874.36	285.87	1.3686e-05	1.3661e-05	323.5	102.41	86.832	34.458	1.3746e-05	45.736	315.350	390.918	143.093	85.140	170.267	119.674	84.347	90.177	164.175	305.335	87.916	92.933	94.651	99.447	157.313	96.477	-8191	255	
29879.229	1	1	0	0	0.10169	0.2018	0.21012	0.034237	0.058959	0.048256	0.36361	0.30604	0.14659	0.070868	0.22878	0.15362	0.12617	0.080211	0.17625	0.095795	-4.3896	-4.8021	-4.0875	-5.0604	-4.4333	-4.2688	-5.1687	-4.1458	-4.5375	-4.7729	-4.0667	-5.0062	-4.5792	-4.4062	-4.9458	-4.2375	311.339	194.067	322.500	396.205	147.745	76.487	97.548	95.416	91.564	422.504	397.363	161.230	77.850	337.286	303.780	320.035	0.001381	0.00065945	5.0826e-05	1019.3	5.7163e-06	4.6708e-06	953.71	311.27	1.2689e-05	4.8253e-06	347.93	110.71	94.245	37.1	5.0879e-06	49.327	0.0012007	0.0012449	0.00034753	934.7	1.3585e-05	1.3834e-05	872.15	285.57	1.363e-05	1.3757e-05	324.53	102.52	87.025	34.569	1.3797e-05	46.069	308.277	127.289	325.702	85.528	163.802	199.137	84.510	90.313	180.883	291.133	88.379	93.323	94.882	99.555	255.965	96.606	-8191	255	
29879.301	1	1	0	0	0.086147	0.10593	0.059979	0.22656	0.26272	0.108	0.082675	0.14624	0.036935	0.25094	0.053725	0.20278	0.18818	0.42314	0.11408	0.018888	-4.2937	-4.9271	-4.0958	-4.9042	-4.6896	-4.225	-5.15	-4.2479	-4.4417	-5.0104	-4.0396	-4.7438	-4.6729	-4.1771	-4.9	-4.4021	142.557	164.956	300.727	404.674	405.865	367.678	402.565	371.890	407.782	403.321	381.880	361.163	161.112	431.475	371.659	223.878	0.0011803	0.00087231	0.00011969	1023.8	1.2299e-05	6.5955e-06	967.72	312.37	8.87e-06	7.0121e-06	353.59	111.83	94.028	37.448	7.3397e-06	49.928	0.0012105	0.0012547	0.00035415	934.92	1.3766e-05	1.3968e-05	880.74	287.02	1.3649e-05	1.3726e-05	327.71	103.59	87.558	34.984	1.3574e-05	46.977	303.597	224.452	226.978	85.145	211.287	350.785	84.444	90.438	275.176	204.371	88.501	93.167	95.226	99.214	180.476	96.411	-8191	255	
29879.396	1	1	0	0	0.21744	0.20663	0.2457	0.0523	0.27579	0.09649	0.34693	0.28631	0.11091	0.14088	0.12299	0.17854	0.20612	0.069127	0.083238	0.08783	-4.1083	-4.8604	-3.9875	-4.8625	-4.5208	-4.2333	-5.0229	-4.2729	-4.2562	-4.9396	-4.0521	-4.8021	-4.9958	-4.1417	-4.9875	-4.4604	109.589	165.081	147.094	250.646	407.339	131.660	340.843	402.624	101.942	293.857	307.158	108.605	427.638	174.990	239.718	400.267	0.00096719	0.0011446	0.00012628	1029.6	9.7027e-06	4.1511e-06	982.62	313.28	6.9525e-06	1.9289e-06	355.37	111.64	93.062	36.709	7.9758e-06	49.268	0.0011903	0.0012536	0.0003467	943.21	1.3344e-05	1.361e-05	893.97	288.77	1.3506e-05	1.3564e-05	328.67	103.41	86.988	34.488	1.3297e-05	45.881	310.586	162.649	105.685	85.287	201.388	377.578	84.502	90.257	235.656	298.523	88.353	93.032	95.183	99.944	247.192	96.308	-8191	255	
29879.518	1	1	0	0	0.085256	0.077043	0.20934	0.21804	0.090664	0.086559	0.054828	0.1695	0.11074	0.19907	0.13486	0.083604	0.16797	0.062321	0.16286	0.1454	-3.925	-5.0271	-3.9458	-4.7229	-4.6667	-4.0479	-4.9792	-4.6229	-4.0417	-4.8292	-4.2146	-4.4437	-4.9896	-4.0771	-4.7583	-4.725	288.549	329.827	287.238	417.245	388.809	339.588	335.056	399.203	124.894	375.316	414.894	406.474	396.545	364.388	370.842	321.990	0.00095699	0.00092946	0.00016495	1025.5	6.9731e-06	1.4217e-05	951.62	309.74	1.1836e-05	4.9236e-06	348.82	108.41	92.508	36.479	4.1742e-06	48.163	0.0011708	0.0012224	0.00033651	933.56	1.2951e-05	1.3429e-05	870.22	283.55	1.3114e-05	1.3175e-05	321.97	100.5	85.686	33.947	1.299e-05	44.902	306.089	230.467	156.754	85.383	261.261	234.824	84.501	90.203	276.664	217.180	88.313	93.098	94.705	99.984	226.755	96.577	-8191	255	
29879.613	1	1	0	0	0.14024	0.13629	0.21268	0.13992	0.16011	0.17681	0.32267	0.32885	0.083818	0.16278	0.097264	0.14447	0.11844	0.058502	0.086531	0.39086	-3.7458	-4.9333	-4.2646	-4.5479	-4.8958	-3.9667	-4.9104	-4.6333	-4.0062	-4.9437	-4.3854	-4.3313	-5.0604	-4.1708	-4.5625	-4.7333	171.573	132.911	202.530	134.051	302.141	262.105	384.283	398.427	265.373	340.072	393.197	118.099	206.028	130.286	176.128	383.903	0.0011719	0.00034578	0.00017737	1012.3	1.1305e-05	4.7802e-06	958.65	309.97	6.7606e-06	3.4706e-06	350.9	109.67	92.484	36.602	2.8658e-06	48.205	0.0011341	0.001175	0.00032988	923.37	1.2528e-05	1.2857e-05	868.17	282.88	1.2532e-05	1.2622e-05	322.62	101.19	86.055	34.082	1.2439e-05	44.997	315.254	339.496	277.119	85.402	253.450	247.467	84.812	90.306	255.788	273.824	88.668	92.937	94.737	99.772	230.051	96.490	-8191	255	
29879.711	1	1	0	0	0.060162	0.14374	0.088287	0.14528	0.14896	0.23564	0.20346	0.081738	0.096259	0.23164	0.16221	0.021817	0.13363	0.20789	0.029833	0.23717	-3.6937	-4.8875	-4.3792	-4.3333	-4.7792	-4.1542	-4.8521	-4.8604	-3.9729	-5.0021	-4.4917	-4.2812	-5.0917	-4.3042	-4.5396	-4.8583	138.591	395.850	327.538	78.313	125.855	415.642	284.275	148.665	367.351	327.772	415.757	103.170	343.936	399.781	216.442	88.974	0.00080345	0.00053618	0.00010833	1021.7	1.761e-05	5.301e-06	964.3	310.35	7.5831e-06	1.0697e-05	352.63	110.81	93.708	37.19	1.0331e-05	49.699	0.0011006	0.001152	0.00032322	928.24	1.2288e-05	1.2774e-05	878.94	284.65	1.2267e-05	1.2789e-05	325.63	102.34	86.612	34.464	1.2616e-05	45.91	303.795	168.711	101.606	85.165	284.566	226.455	84.748	90.316	332.489	216.088	88.350	92.939	94.865	99.742	143.958	96.764	-8191	255	
29879.807	1	1	0	0	0.095412	0.15115	0.20499	0.17725	0.20909	0.19974	0.093411	0.19703	0.15209	0.103	0.16861	0.24405	0.12199	0.11796	0.107	0.021953	-3.6229	-4.8375	-4.3646	-4.3854	-4.9812	-3.9188	-4.7208	-5.0479	-3.9833	-4.7667	-4.6729	-4.0458	-4.9958	-4.2063	-4.4479	-4.8792	302.526	172.607	135.032	101.933	219.725	430.220	134.425	297.035	317.795	183.062	389.294	285.335	292.425	301.503	148.090	203.361	0.00090198	0.0013547	0.00019486	1032.2	7.1825e-06	6.3472e-06	977.42	315.42	1.7401e-05	9.4127e-06	355.48	112.45	94.346	37.611	6.812e-06	50.952	0.0011159	0.001165	0.00032635	939.73	1.2555e-05	1.2922e-05	889.42	288.64	1.2707e-05	1.2926e-05	329.71	103.71	87.674	35.135	1.3027e-05	47.362	324.029	177.141	221.716	85.556	227.558	325.682	84.770	89.952	282.410	81.117	88.435	93.261	95.214	99.778	175.812	96.343	-8191	255	
29879.902	1	1	0	0	0.17025	0.17646	0.24958	0.071492	0.09857	0.038865	0.14881	0.31524	0.15198	0.20171	0.11911	0.038653	0.18028	0.16609	0.12746	0.23951	-3.6104	-4.6813	-4.6375	-4.3083	-5.1646	-4.2708	-4.675	-4.9458	-3.9354	-4.6104	-4.6854	-3.9875	-5.0312	-4.3875	-4.2333	-4.9437	78.261	257.361	126.245	236.021	127.664	206.916	315.304	362.122	188.549	193.692	423.198	348.668	359.205	80.824	330.255	369.638	0.0011242	0.00048713	0.00015467	1041.5	9.3471e-06	5.5006e-06	987.67	318.16	7.0207e-06	7.7762e-06	361.61	114.09	95.002	38.175	5.5609e-06	50.957	0.0011681	0.0012138	0.00032942	949.52	1.2838e-05	1.3052e-05	900.26	290.32	1.263e-05	1.2851e-05	332.92	105.01	88.368	35.494	1.2945e-05	47.387	324.482	164.041	153.229	85.220	230.632	250.685	84.118	90.193	164.238	245.253	88.803	93.222	94.689	99.656	373.657	96.379	-8191	255	
29879.998	1	1	0	0	0.032582	0.11095	0.087265	0.31815	0.18085	0.18923	0.16651	0.24456	0.23162	0.074041	0.23907	0.15135	0.23595	0.19219	0.069586	0.19996	-3.6542	-4.4688	-4.8187	-4.1104	-4.8958	-4.2021	-4.4563	-5.0542	-4.075	-4.6167	-4.9146	-4.1104	-4.875	-4.5542	-4.1312	-5.0833	151.161	372.512	129.928	380.270	360.819	94.699	129.964	323.180	265.818	175.198	420.446	380.103	409.127	320.905	266.769	404.059	0.0009134	0.00075137	0.00020513	1020.3	3.5861e-06	1.3491e-06	965.14	312.13	6.5926e-06	8.2961e-06	348.18	109.62	91.663	35.947	1.0072e-05	47.738	0.0011382	0.0011804	0.00032916	929.65	1.2459e-05	1.2993e-05	874.03	284.59	1.2596e-05	1.2844e-05	321.18	100.76	85.143	33.688	1.283e-05	44.436	320.834	239.068	150.988	85.479	126.404	346.859	84.862	90.513	312.731	157.341	88.161	92.836	94.856	99.932	182.936	96.848	-8191	255	
29880.117	1	1	0	0	0.17514	0.084962	0.21081	0.19227	0.18626	0.10633	0.13251	0.27214	0.059838	0.050466	0.13707	0.3362	0.10085	0.195	0.076222	0.10971	-3.8917	-4.5604	-4.8646	-4.3771	-4.65	-4.5521	-4.2375	-4.8896	-4.1125	-4.3729	-4.9208	-4.1562	-4.65	-4.6083	-4.1458	-4.9521	392.961	238.915	387.093	423.605	242.942	163.909	343.356	90.328	418.337	174.395	369.366	389.604	339.919	87.474	300.529	183.373	0.00085155	0.0002139	0.00029987	1003.3	1.3789e-06	8.4404e-06	939.14	305.78	5.5069e-06	8.0271e-06	344.07	107.61	91.323	36.284	8.0204e-06	47.979	0.0011157	0.0011655	0.00032142	913.59	1.245e-05	1.2811e-05	857.46	280.19	1.2573e-05	1.2812e-05	317.89	99.318	84.633	33.66	1.2611e-05	44.573	319.883	395.604	183.166	85.578	351.470	284.476	84.689	90.087	89.101	409.715	88.556	92.868	95.136	99.787	180.725	96.266	-8191	255	
29880.213	1	1	0	0	0.094794	0.083305	0.23333	0.30892	0.070824	0.16396	0.091817	0.085916	0.2684	0.20151	0.044243	0.081726	0.10831	0.18614	0.083117	0.15895	-4.0354	-4.2542	-4.8729	-4.1479	-4.7667	-4.6937	-4.1083	-4.9854	-4.4146	-4.35	-5.0437	-4.1729	-4.6	-4.9333	-4.2083	-5.0729	359.761	256.307	336.333	430.721	380.896	112.937	139.365	310.807	381.574	234.412	155.410	287.484	390.278	87.923	113.858	100.602	0.00097565	0.00047089	4.861e-05	1010.9	7.111e-06	1.2272e-05	948.12	307.93	7.7695e-06	5.0993e-06	347.62	108.68	93.199	36.808	4.5932e-06	49.476	0.0011304	0.0011554	0.00032108	916.62	1.2753e-05	1.2704e-05	863.34	281.77	1.2935e-05	1.298e-05	321.6	100.98	86.061	34.418	1.2957e-05	46.012	315.569	208.144	255.405	85.554	281.669	303.341	84.819	90.124	245.947	268.403	88.490	93.053	94.917	99.700	256.195	96.013	-8191	255	
29880.311	1	1	0	0	0.05259	0.24771	0.11707	0.30026	0.043691	0.2355	0.22986	0.28245	0.15755	0.14524	0.21511	0.0091582	0.094706	0.07822	0.21865	0.18173	-4.0979	-4.1188	-4.8625	-4.075	-4.4354	-4.9521	-4.2729	-4.9021	-4.475	-4.1312	-5.1604	-4.0813	-4.3875	-4.8417	-3.9958	-4.7792	108.135	343.028	80.873	419.696	123.725	416.962	358.762	321.349	158.353	403.311	286.839	374.816	431.731	271.783	179.292	396.498	0.0011916	0.0010817	0.00013235	1006.3	5.7568e-06	7.7908e-06	962.74	310.6	1.2656e-05	1.1878e-05	350.77	110.38	92.435	37.398	5.7442e-06	50.117	0.0011444	0.0012035	0.00033146	922.24	1.2912e-05	1.3103e-05	874.37	284.02	1.3038e-05	1.3274e-05	324.9	102.36	86.587	34.9	1.3318e-05	46.496	321.353	249.294	154.529	85.542	394.870	259.878	84.513	90.234	300.788	255.848	87.893	93.133	95.144	99.912	72.344	96.417	-8191	255	
29880.406	1	1	0	0	0.088765	0.18008	0.097909	0.23867	0.15095	0.17551	0.1678	0.11884	0.070318	0.11884	0.14688	0.19864	0.067744	0.25628	0.11469	0.11935	-4.0563	-4.0208	-4.9667	-4.3896	-4.3708	-4.8271	-4.1792	-4.9792	-4.6083	-4.0354	-5.0771	-4.3146	-4.3458	-4.9812	-4.1062	-4.8417	114.209	75.300	322.648	370.369	293.554	374.102	260.015	387.588	375.264	141.849	222.118	420.672	347.945	329.123	205.110	110.129	0.0011189	0.00085723	0.00018725	1018.4	1.001e-05	5.0433e-06	955.2	307.88	7.5474e-06	5.1024e-06	344.46	107.88	90.598	35.845	1.5254e-05	47.382	0.0011939	0.0012219	0.00034849	928.16	1.3186e-05	1.3337e-05	872.6	282.42	1.3079e-05	1.3215e-05	319.44	100.08	84.561	33.511	1.3082e-05	44.061	323.193	192.340	249.839	85.659	300.980	93.526	84.825	90.078	243.783	193.093	88.218	93.069	94.610	99.677	242.721	96.319	-8191	255	
29880.525	1	1	0	0	0.18552	0.075348	0.13757	0.22759	0.2355	0.088398	0.26101	0.15789	0.072267	0.072957	0.081638	0.10209	0.14704	0.34038	0.074434	0.082697	-4.4563	-4.1229	-5.0563	-4.4	-4.3375	-5.0312	-4.2708	-4.725	-4.8229	-4.0417	-4.9896	-4.4958	-4.2458	-4.9542	-4.0479	-4.5813	139.139	415.714	88.429	398.091	208.170	262.079	401.440	412.639	304.248	329.149	137.058	299.964	379.337	78.017	174.762	270.161	0.0011441	0.00024723	0.00012276	993.4	1.2817e-05	6.8227e-06	936.01	303.62	1.288e-05	7.8865e-06	338.94	106.93	89.908	35.639	5.8446e-06	47.02	0.0011463	0.0012001	0.00032878	907.39	1.288e-05	1.3132e-05	853.84	276.78	1.2742e-05	1.2973e-05	313.61	98.579	83.982	33.307	1.2829e-05	43.908	307.697	404.089	118.246	85.330	245.982	190.491	84.342	89.936	218.417	228.994	88.595	92.961	94.778	99.859	173.486	96.397	-8191	255	
29880.598	1	1	0	0	0.18424	0.24265	0.34003	0.24819	0.14249	0.20957	0.17298	0.12515	0.25531	0.29868	0.21662	0.17535	0.20588	0.17303	0.073969	0.14868	-4.6	-4.1042	-4.8063	-4.4208	-4.0479	-4.9958	-4.1062	-4.5729	-4.825	-4.0333	-4.9313	-4.5167	-4.1792	-5.0792	-4.0687	-4.3979	217.645	87.759	372.999	114.375	120.511	261.892	375.133	320.823	223.157	235.634	190.768	379.211	394.000	186.247	428.714	124.993	0.0011545	0.00067972	0.00020575	987.34	1.4268e-05	2.4817e-06	933.98	303.36	1.3513e-05	7.3e-06	346.36	107.14	90.332	35.842	1.2531e-05	47.65	0.0011303	0.0011775	0.00032728	904.56	1.2656e-05	1.2818e-05	854.63	276.86	1.2812e-05	1.2707e-05	317.83	99.084	84.219	33.524	1.3018e-05	44.282	314.576	100.151	132.147	85.424	255.444	355.506	84.400	90.091	228.103	317.105	88.334	92.872	94.507	99.471	211.956	96.520	-8191	255	
29880.693	1	1	0	0	0.19337	0.1471	0.21567	0.13967	0.084815	0.15982	0.18227	0.08284	0.20404	0.23195	0.014977	0.1361	0.18363	0.073253	0.18237	0.13951	-4.7292	-3.8187	-4.775	-4.7667	-3.925	-5.125	-4.3438	-4.3604	-5.0146	-4.0167	-4.7104	-4.8063	-3.9917	-4.9583	-4.2063	-4.325	410.929	384.418	132.082	427.456	296.293	263.440	311.721	305.448	402.061	380.930	125.693	350.743	357.503	384.805	160.684	376.675	0.0010343	0.00088244	0.00020944	993.52	7.3882e-06	6.6905e-06	947.74	303.05	1.1661e-05	4.1218e-06	343.86	108.1	91.651	36.156	7.4898e-06	47.943	0.0011373	0.0012093	0.00033482	912.38	1.2988e-05	1.3141e-05	864.76	278.44	1.2944e-05	1.3464e-05	319.35	100.22	84.989	33.758	1.3058e-05	44.97	304.320	185.712	415.841	85.124	265.758	240.510	84.712	89.923	272.980	153.966	88.185	93.243	94.744	99.674	279.980	96.165	-8191	255	
29880.789	1	1	0	0	0.19063	0.23497	0.1371	0.24962	0.082556	0.14806	0.16291	0.28049	0.027586	0.14517	0.20601	0.18284	0.10611	0.069516	0.20636	0.12183	-4.6771	-4.0083	-4.7125	-4.8167	-3.8021	-5.0062	-4.5104	-4.3458	-4.9896	-4.0625	-4.6646	-4.9958	-4.0583	-4.9625	-4.5563	-4.2438	397.592	209.791	98.317	372.988	262.021	85.485	82.243	72.320	233.169	279.444	349.495	425.872	415.763	163.707	225.062	307.887	0.0012256	0.001296	0.00015322	1018.1	4.1119e-06	1.1711e-05	968.68	309.62	9.3172e-06	1.0362e-05	352.8	110.95	91.907	36.431	1.3439e-05	48.369	0.0011293	0.0011853	0.00033178	926.99	1.2952e-05	1.3235e-05	884	282.89	1.3125e-05	1.3163e-05	326.13	101.84	85.676	34.001	1.3371e-05	45.424	321.749	160.401	81.673	85.734	165.273	344.355	84.961	89.972	206.572	225.355	88.231	93.311	94.206	99.804	199.351	96.776	-8191	255	
29880.908	1	1	0	0	0.11474	0.051419	0.28435	0.19912	0.23393	0.18017	0.26987	0.12859	0.29572	0.077964	0.081268	0.308	0.17169	0.13212	0.069627	0.21023	-4.6333	-4.1625	-4.4729	-5.0083	-4.0625	-4.8792	-4.6625	-4.4437	-4.9313	-4.0979	-4.5312	-4.9396	-4.0896	-4.8375	-4.5333	-4.1646	81.772	120.706	267.556	412.164	333.840	375.355	304.179	290.226	413.777	417.292	251.434	329.576	123.105	369.919	112.206	86.383	0.0010499	0.00071968	0.00022058	1022.7	8.0991e-06	9.4123e-06	970.87	306.17	2.2343e-05	4.9387e-06	350.15	108.08	90.846	35.652	6.6291e-06	46.714	0.001159	0.0012159	0.00033275	933.95	1.2644e-05	1.3079e-05	884.67	282.04	1.2825e-05	1.3013e-05	321.72	100.08	84.301	33.08	1.2395e-05	43.438	326.941	158.181	218.111	85.379	241.721	261.165	84.722	90.149	268.484	109.428	88.022	93.347	94.852	99.632	219.025	96.273	-8191	255	
29881.006	1	1	0	0	0.040538	0.14211	0.25364	0.15056	0.1696	0.33631	0.30474	0.11593	0.14639	0.21982	0.16841	0.18488	0.14807	0.2808	0.055162	0.21647	-4.6083	-4.2354	-4.3938	-5.1188	-3.9958	-4.8938	-4.7729	-4.1375	-4.9437	-4.4062	-4.3438	-5.0813	-4.0729	-4.6687	-4.8208	-4.0146	409.056	370.497	80.217	357.375	319.863	233.192	393.365	162.293	402.854	238.633	314.374	390.428	77.356	389.284	357.253	413.371	0.0010951	0.0003838	8.5434e-05	998.13	6.2008e-06	7.2785e-06	934.01	299.67	1.096e-05	4.9069e-06	335.11	104.49	89.146	34.607	1.4712e-05	45.332	0.0010598	0.0011207	0.00030791	909.63	1.1891e-05	1.2186e-05	854.56	274.2	1.1761e-05	1.2137e-05	310.63	96.095	82.479	32.212	1.1915e-05	42.163	316.354	96.572	275.328	85.492	135.850	255.811	84.761	90.139	303.514	215.719	88.009	93.115	95.131	99.178	204.853	96.239	-8191	255	
29881.102	1	1	0	0	0.17132	0.16585	0.10329	0.18359	0.18875	0.16408	0.029932	0.17736	0.099995	0.24481	0.11244	0.16711	0.13374	0.10094	0.10091	0.27672	-4.7333	-4.3063	-4.3375	-5.1438	-4.1875	-4.5917	-4.8646	-3.9917	-4.8021	-4.5458	-4.2792	-5.0604	-4.2542	-4.4938	-4.9479	-4.1312	257.606	232.796	399.145	375.316	356.464	358.443	362.915	130.164	374.960	362.414	417.135	403.243	107.864	348.897	261.748	102.193	0.0011411	0.00046606	0.00014405	988.97	4.4953e-06	2.9045e-06	937.34	301.6	2.4072e-06	2.9273e-07	340.99	106.09	89.951	35.228	7.5088e-06	46.197	0.0010524	0.0011164	0.00031061	902.7	1.196e-05	1.23e-05	853.86	275.09	1.1973e-05	1.2101e-05	314.23	97.649	83.212	32.842	1.1882e-05	43.279	320.463	89.713	166.396	85.278	305.482	225.964	84.675	90.107	254.612	229.091	88.349	93.379	94.804	98.920	249.959	96.274	-8191	255	
29881.197	1	1	0	0	0.090282	0.15109	0.08819	0.51755	0.26533	0.15142	0.23371	0.21052	0.14763	0.30967	0.092258	0.15537	0.30202	0.25096	0.2131	0.14846	-4.5708	-4.625	-4.1708	-5.0521	-4.1813	-4.425	-4.9938	-3.9625	-4.7	-4.6479	-3.9292	-4.9875	-4.2438	-4.2688	-4.8812	-3.9938	334.685	310.057	379.591	376.856	175.678	222.181	355.714	394.820	153.039	162.614	304.963	316.473	423.674	417.977	107.987	263.912	0.0011487	0.00020092	0.00016349	997.84	1.2768e-05	5.5596e-06	945.92	303.44	9.9735e-06	3.3378e-06	346.83	107.4	90.248	35.172	1.6596e-05	46.367	0.0010675	0.0010939	0.00030228	909.78	1.1994e-05	1.1924e-05	865.13	276.86	1.1544e-05	1.1954e-05	318.04	98.705	83.654	32.882	1.1642e-05	43.277	313.951	128.581	108.978	85.384	199.215	358.710	84.943	89.920	191.603	198.843	88.048	93.145	94.510	99.459	232.422	96.394	-8191	255	
29881.295	1	1	0	0	0.12109	0.10271	0.26077	0.25631	0.15848	0.1225	0.087246	0.23088	0.12653	0.13629	0.21639	0.13877	0.14365	0.21305	0.247	0.20381	-4.2812	-4.7271	-4.175	-5.05	-4.2792	-4.1604	-5.0813	-4.0625	-4.7292	-4.8708	-4.1104	-5.0312	-4.3854	-4.2688	-4.8479	-4.2021	331.270	107.199	108.757	97.874	341.376	146.046	79.487	72.506	312.807	149.938	339.559	380.923	398.019	407.194	92.100	394.715	0.0010223	0.00077865	0.00013117	1015.3	1.1166e-05	1.1304e-05	965.59	307.98	8.8046e-06	2.758e-06	350.39	108.62	91.251	35.458	1.2768e-05	47.722	0.0010459	0.0010808	0.00030157	922.5	1.1863e-05	1.2008e-05	878.28	280.26	1.1864e-05	1.1679e-05	322.14	100.23	84.572	33.258	1.1952e-05	44.32	300.541	95.469	190.695	85.578	236.774	284.229	84.570	90.124	134.329	284.353	88.457	92.857	94.424	99.299	252.666	96.433	-8191	255	
29881.391	1	1	0	0	0.17557	0.1683	0.08437	0.099598	0.048844	0.15943	0.061894	0.22122	0.11532	0.33649	0.13405	0.087562	0.10882	0.22343	0.078837	0.2648	-4.2167	-4.6958	-4.1438	-4.95	-4.4708	-4.1833	-5.2771	-4.1958	-4.4313	-4.9542	-4.1312	-4.9979	-4.6062	-4.2146	-4.8667	-4.3271	315.361	389.000	245.295	360.406	219.985	389.811	357.372	334.684	382.097	118.048	228.278	165.789	428.377	110.789	303.077	408.937	0.0011071	0.00036249	0.0002669	1021	7.3668e-06	6.9655e-06	968.61	305.96	1.0278e-05	6.4997e-06	347.97	108.11	91.008	35.02	6.4491e-06	46.187	0.0010477	0.0010601	0.00029902	929.38	1.143e-05	1.1479e-05	880.84	279.89	1.1301e-05	1.1557e-05	320.46	98.798	83.784	32.771	1.1468e-05	42.952	314.877	113.926	184.258	85.364	228.055	212.027	84.627	90.074	276.798	261.667	88.441	92.930	95.057	99.303	264.070	96.396	-8191	255	
29881.486	1	1	0	0	0.14931	0.14249	0.17584	0.35566	0.16796	0.25218	0.22269	0.17936	0.077296	0.10307	0.15634	0.049251	0.20983	0.17864	0.093877	0.19821	-4.0604	-5.0813	-4.0833	-4.9688	-4.5854	-4.125	-5.2333	-4.3562	-4.2937	-4.8979	-4.1729	-4.7958	-4.6104	-4.0354	-5.0333	-4.4	134.304	403.566	245.053	350.125	196.501	306.554	347.187	410.308	202.372	326.886	321.305	330.357	328.863	264.675	252.464	363.827	0.001072	0.00099587	0.00020388	1001.4	6.8865e-06	5.9606e-06	936.96	301.85	1.1166e-05	5.4154e-06	338.49	104.73	89.536	35.056	3.5246e-06	45.643	0.0010131	0.0010712	0.00028771	909.13	1.1476e-05	1.1505e-05	853.2	275.18	1.142e-05	1.1383e-05	313.23	96.96	82.754	32.59	1.139e-05	42.62	319.562	210.157	247.184	85.326	241.269	227.147	84.784	90.181	230.462	224.101	87.933	92.870	94.603	99.424	376.289	96.521	-8191	255	
29881.607	1	1	0	0	0.25203	0.23876	0.049447	0.10367	0.19362	0.04015	0.11719	0.12595	0.18858	0.14168	0.087764	0.14331	0.11293	0.083785	0.19769	0.066745	-4.0667	-4.9208	-4.0938	-4.8458	-4.725	-4.0146	-4.9708	-4.5708	-4.1021	-5.0417	-4.1687	-4.7729	-4.7146	-4.0125	-4.8708	-4.7521	250.753	173.910	127.906	427.015	409.237	184.485	344.456	375.176	379.845	344.472	422.125	317.616	340.781	167.148	400.740	351.895	0.00058517	0.0019222	0.00017213	994.29	3.8252e-06	8.7701e-06	939.2	301.21	1.3483e-05	6.2883e-06	340.34	106.1	89.746	35.052	1.6097e-05	46.066	0.0010049	0.0010135	0.00029115	904.01	1.1265e-05	1.1471e-05	854.59	275.76	1.1394e-05	1.1417e-05	313.29	97.575	83.09	32.662	1.1485e-05	42.983	320.406	186.701	182.694	85.565	211.135	234.154	84.672	90.130	280.186	210.296	88.135	93.156	94.845	99.610	212.263	96.216	-8191	255	
29881.703	1	1	0	0	0.096744	0.21484	0.20218	0.10499	0.015505	0.17474	0.17799	0.044744	0.10098	0.223	0.077305	0.14044	0.10307	0.251	0.076422	0.13581	-3.8958	-4.9396	-4.2583	-4.6271	-4.9521	-4.0271	-5.1708	-4.7646	-4.225	-5.0167	-4.3604	-4.5938	-4.8812	-4.275	-4.7604	-4.6896	333.917	334.275	168.010	274.947	393.563	146.823	359.873	405.879	390.698	199.512	126.395	404.796	207.770	381.627	195.658	104.372	0.00085554	0.00029782	0.00022197	1001.9	1.2009e-05	9.8189e-06	953.85	306.57	5.5356e-06	5.0458e-06	345.6	108.8	91.423	35.856	1.0657e-05	47.839	0.0010395	0.0010735	0.0002954	909.95	1.1653e-05	1.1845e-05	868.58	279.1	1.166e-05	1.1815e-05	319.19	99.991	84.386	33.55	1.1843e-05	44.417	314.481	238.538	229.536	85.245	287.283	191.870	84.632	90.123	262.061	211.305	88.184	93.501	94.631	99.518	218.111	96.238	-8191	255	
29881.799	1	1	0	0	0.18883	0.27573	0.10037	0.077961	0.1606	0.05751	0.1657	0.082949	0.14264	0.095037	0.2573	0.43453	0.10809	0.19746	0.22124	0.090563	-3.8521	-4.9833	-4.2146	-4.5854	-4.9979	-4.1583	-5.0375	-4.8313	-4.1833	-5.0604	-4.4271	-4.3583	-4.9771	-4.1583	-4.6312	-4.875	280.726	405.579	427.595	353.585	316.387	143.156	390.965	424.941	166.865	271.411	87.592	80.789	401.541	392.796	81.552	129.104	0.0011219	0.00026682	0.00025798	1007.7	5.0358e-06	1.1584e-05	970.3	307.65	1.2879e-05	3.2887e-06	352.14	108.52	92.116	36.103	8.01e-06	48.381	0.0010815	0.0010933	0.00031138	919.93	1.2039e-05	1.23e-05	880.78	281.48	1.1969e-05	1.2078e-05	324.74	100.43	85.249	33.68	1.1986e-05	44.88	303.961	274.006	378.332	85.301	217.127	242.674	84.603	90.239	215.979	385.985	87.943	92.929	94.910	99.807	260.200	96.655	-8191	255	
29881.895	1	1	0	0	0.073179	0.018895	0.10149	0.20126	0.12035	0.030496	0.033877	0.36321	0.024258	0.10599	0.17304	0.18296	0.084108	0.12533	0.23481	0.30391	-3.7875	-5.0062	-4.2604	-4.4187	-4.9187	-3.9938	-4.7833	-4.9583	-3.9854	-4.8438	-4.5208	-4.1625	-5.0646	-4.2667	-4.3938	-4.8729	75.959	296.728	205.566	366.409	321.236	348.455	289.764	389.757	358.411	311.795	360.569	116.761	88.206	389.160	271.703	369.569	0.0013763	0.00083344	0.00021696	1009.5	1.1092e-05	3.0858e-06	956.18	303.79	1.3037e-05	9.2805e-07	343.64	107.03	89.396	35.126	1.8349e-05	45.651	0.0010776	0.001099	0.00030637	920.29	1.1858e-05	1.2123e-05	869.54	277.98	1.1805e-05	1.2175e-05	316.96	98.242	83.23	32.763	1.1751e-05	42.677	316.945	415.944	124.164	85.304	264.306	393.474	84.630	90.281	282.712	149.329	88.258	93.251	95.039	99.414	228.184	96.394	-8191	255	
29881.990	1	1	0	0	0.13221	0.18549	0.069891	0.21447	0.094027	0.19674	0.051707	0.30796	0.18638	0.061964	0.060439	0.25711	0.044075	0.21118	0.067274	0.073205	-3.8292	-4.8167	-4.625	-4.2625	-5.0104	-4.15	-4.6188	-5.1937	-3.9354	-4.7417	-4.4958	-3.9958	-5.1937	-4.2792	-4.3396	-4.9812	243.444	239.895	141.060	342.659	425.217	243.302	323.024	369.095	387.912	249.294	176.063	239.034	269.298	80.827	136.665	190.952	0.00099156	0.00046865	7.637e-05	988.44	6.0519e-06	1.318e-05	936.64	300.59	8.4606e-06	4.1963e-06	337.9	104.77	89.201	35.259	1.5207e-05	45.999	0.0010455	0.0010736	0.0002972	901.3	1.1814e-05	1.1871e-05	852.26	274.7	1.1691e-05	1.1944e-05	311.54	96.919	82.778	32.719	1.1842e-05	42.673	327.024	215.284	198.585	85.277	242.896	235.079	84.576	90.284	238.796	359.531	88.000	93.335	94.711	99.387	169.850	96.518	-8191	255	
29882.086	1	1	0	0	0.11209	0.11094	0.12345	0.28849	0.044066	0.062629	0.13035	0.17451	0.23344	0.056401	0.11445	0.33045	0.13216	0.28006	0.21048	0.077273	-3.7771	-4.6562	-4.6937	-4.1708	-4.9542	-4.2417	-4.4062	-4.9375	-4.0146	-4.6104	-4.8979	-3.9979	-4.8396	-4.3688	-4.1937	-5.1792	297.925	72.416	207.856	395.329	101.597	80.412	326.562	397.338	351.734	431.962	418.482	387.710	271.540	91.111	266.468	382.398	0.0011835	0.00056657	0.0002272	984.58	1.0431e-06	8.4006e-06	931.47	302.92	2.1796e-05	7.4291e-06	340.18	106.23	90.663	35.626	1.4812e-05	46.491	0.0010615	0.0010932	0.00030273	899.71	1.1556e-05	1.1924e-05	854.28	276.03	1.1769e-05	1.1789e-05	314.25	97.64	83.528	33.015	1.1848e-05	43.048	309.090	226.015	89.775	85.504	217.928	199.447	84.946	90.259	235.945	87.133	88.381	92.571	94.507	99.596	225.406	96.416	-8191	255	
29882.205	1	1	0	0	0.061166	0.14629	0.048035	0.12653	0.036423	0.10261	0.21221	0.13455	0.072518	0.17127	0.16285	0.12492	0.13521	0.1708	0.22917	0.28227	-3.6958	-4.4396	-4.7729	-4.1104	-4.8333	-4.3479	-4.4146	-5.0979	-4.0833	-4.5375	-4.9646	-4.1229	-4.8917	-4.5792	-4.0479	-5.1354	118.769	198.277	324.986	353.902	85.001	420.888	367.250	403.039	220.175	427.656	384.658	381.744	152.849	387.869	298.548	313.624	0.0011185	0.0005282	1.9685e-05	993.24	7.689e-06	2.8758e-06	941.6	302.99	4.1488e-06	8.7331e-06	343.68	105.98	90.413	35.531	1.3905e-05	47.179	0.0010373	0.0010662	0.00029984	904.67	1.1416e-05	1.1795e-05	858.74	276.09	1.1791e-05	1.1682e-05	315.87	98.166	83.897	33.05	1.1871e-05	43.782	315.638	95.991	224.822	85.628	258.443	84.972	84.487	90.425	94.425	247.328	88.203	93.047	94.511	99.846	198.571	96.242	-8191	255	
29882.303	1	1	0	0	0.13862	0.031027	0.14144	0.23438	0.11573	0.18855	0.23109	0.034932	0.28347	0.21308	0.15083	0.082504	0.15652	0.11171	0.16029	0.12105	-3.8708	-4.2667	-4.9292	-4.0167	-4.7354	-4.5312	-4.2083	-4.9542	-3.9562	-4.2167	-4.8167	-3.9313	-4.7542	-4.4771	-3.9562	-4.9042	108.599	337.958	243.762	92.076	105.384	294.379	105.108	140.990	204.019	322.308	322.166	298.676	403.349	137.785	268.091	342.893	0.00082078	0.00027758	0.00029426	1007.7	1.2055e-06	4.32e-06	958.46	307.99	9.4219e-06	5.7528e-06	355.97	111.57	92.706	37.104	3.1953e-06	49.121	0.001058	0.0010884	0.00030386	915.52	1.181e-05	1.2292e-05	875.97	281.79	1.1988e-05	1.2186e-05	326.37	102.25	86.261	34.669	1.2018e-05	45.744	323.671	373.420	181.084	85.226	96.829	292.859	84.639	90.511	296.722	271.013	88.567	93.255	95.172	99.475	326.718	96.560	-8191	255	
29882.398	1	1	0	0	0.10937	0.17765	0.099731	0.13069	0.17009	0.058603	0.13205	0.15568	0.16458	0.048889	0.052548	0.053724	0.053811	0.14807	0.18944	0.16059	-3.8708	-4.2104	-4.8646	-4.2063	-4.5104	-4.7937	-4.1562	-5.0938	-4.3458	-4.2792	-4.8875	-4.1667	-4.6021	-4.8438	-3.9896	-4.7792	360.866	140.085	104.419	429.040	403.923	177.984	80.981	413.031	145.522	188.434	373.558	423.711	211.196	330.634	317.566	349.294	0.0011704	0.00020272	6.7647e-05	1021.5	1.4724e-05	5.0194e-06	970.09	308.73	1.0372e-05	3.1464e-06	346.21	109.84	91.641	36.57	1.3219e-05	47.568	0.001042	0.0010642	0.00029624	927.35	1.1661e-05	1.1847e-05	879.09	282.2	1.1803e-05	1.1815e-05	320.74	100.87	85.166	34.104	1.1827e-05	44.349	318.331	203.297	420.696	85.422	267.541	158.765	84.645	90.195	244.380	346.539	88.590	93.330	94.988	99.753	279.223	96.559	-8191	255	
29882.471	1	1	0	0	0.23336	0.0077358	0.22613	0.075048	0.17282	0.061876	0.31754	0.092851	0.25256	0.10661	0.12619	0.17294	0.24828	0.32015	0.026359	0.31467	-4.1375	-4.125	-4.9062	-4.1375	-4.5667	-4.8063	-4.0583	-4.9104	-4.4917	-4.1604	-5.0875	-4.075	-4.2833	-4.7667	-3.8937	-4.8792	120.191	402.777	73.238	170.495	243.802	72.689	314.319	89.427	151.197	347.797	417.635	335.662	423.426	404.030	302.388	377.104	0.0010466	0.00066322	0.00021551	1000.6	6.6924e-06	8.6942e-06	939.48	304.9	1.3097e-05	7.792e-06	341.76	107.18	90.626	35.75	6.213e-06	46.068	0.0010565	0.0010814	0.00030129	910.04	1.1659e-05	1.181e-05	856.91	278.29	1.1453e-05	1.1695e-05	316.3	98.504	83.632	33.168	1.1722e-05	43.162	318.731	190.941	178.701	85.436	280.391	201.917	84.758	90.264	239.413	238.028	88.217	93.100	94.829	99.624	269.181	96.142	-8191	255	
29882.566	1	1	0	0	0.092322	0.088927	0.073296	0.31296	0.28099	0.17038	0.16693	0.25375	0.22565	0.088515	0.4019	0.22626	0.26259	0.16188	0.022151	0.04001	-4.2583	-3.8917	-4.8896	-4.3562	-4.2333	-5.0687	-4.0854	-4.7792	-4.7646	-3.9458	-4.8479	-4.3104	-4.2125	-4.9812	-3.9542	-4.7271	102.279	240.335	408.532	410.762	284.620	106.703	245.454	351.118	127.196	356.650	430.575	130.446	363.627	386.416	401.908	370.719	0.0011434	0.00053374	0.00022402	994.85	1.1019e-05	6.0608e-06	949.15	305.47	4.1263e-06	6.7815e-06	344.89	108.26	90.941	35.759	4.7654e-06	47.041	0.0010563	0.0010778	0.0002998	906.31	1.1403e-05	1.1705e-05	865.25	277.72	1.1499e-05	1.1688e-05	318.73	99.592	84.051	33.277	1.1819e-05	43.485	323.862	164.126	175.261	85.454	222.821	157.952	84.946	90.182	311.777	218.443	87.810	92.655	94.482	99.497	108.345	96.356	-8191	255	
29882.688	1	1	0	0	0.18663	0.062721	0.098581	0.20132	0.092923	0.030863	0.087545	0.086924	0.18625	0.044257	0.038423	0.11517	0.25805	0.1989	0.17381	0.092176	-4.2958	-4.0375	-4.9021	-4.525	-4.1854	-5.0021	-4.3063	-4.5333	-4.6167	-3.9021	-4.8771	-4.4292	-4.2562	-4.9958	-4.1708	-4.3833	393.959	83.105	112.341	79.405	322.456	225.677	357.154	361.929	396.092	419.749	298.755	410.296	415.547	377.022	100.453	348.852	0.0009461	0.00017679	0.00013664	1004.2	8.505e-06	3.7608e-06	970.93	307.18	1.1769e-05	6.0763e-06	351.6	107.9	91.583	35.673	3.3284e-06	47.418	0.0010268	0.0010835	0.00029893	915.97	1.1709e-05	1.1742e-05	877.66	279.65	1.1542e-05	1.1698e-05	322.9	99.788	84.38	33.282	1.1482e-05	43.867	312.341	216.371	188.884	85.059	306.395	156.212	84.650	90.231	222.524	291.963	88.207	92.760	94.876	100.003	174.382	96.499	-8191	255	
29882.783	1	1	0	0	0.13446	0.1196	0.17403	0.19026	0.18163	0.13603	0.15047	0.2842	0.089514	0.1861	0.074072	0.077306	0.10174	0.099866	0.11277	0.22021	-4.35	-3.9396	-4.8417	-4.4917	-4.1042	-4.9292	-4.3396	-4.5875	-4.8229	-3.9458	-4.9	-4.6417	-4.0938	-4.9521	-4.1083	-4.3562	226.167	340.502	294.653	405.994	306.971	388.247	419.297	389.443	91.199	176.126	228.766	427.463	185.171	149.167	94.015	326.208	0.0011408	0.00052485	0.00018957	1025.7	5.1975e-06	7.4112e-06	986.89	311.12	5.1807e-06	7.5956e-06	360.21	111.78	93.875	36.854	1.022e-05	48.867	0.0010436	0.00107	0.0002969	930.34	1.1805e-05	1.1779e-05	897.45	284.75	1.141e-05	1.1834e-05	331.14	102.89	86.654	34.221	1.1498e-05	45.302	308.545	171.662	233.971	85.384	214.937	128.273	84.464	89.920	143.850	226.135	88.547	93.513	95.067	99.733	260.447	96.525	-8191	255	
29882.879	1	1	0	0	0.37754	0.054139	0.024111	0.19382	0.092288	0.12885	0.1317	0.16221	0.044323	0.2449	0.15818	0.073864	0.13013	0.097396	0.08448	0.20995	-4.4313	-3.9646	-4.5396	-4.8125	-4.2354	-4.9583	-4.4458	-4.1979	-4.7292	-3.9313	-4.7708	-4.65	-4.1354	-4.8771	-4.2833	-4.325	111.583	253.961	203.836	324.992	109.733	193.405	105.542	357.554	349.545	83.679	429.186	274.544	403.790	170.442	237.807	362.211	0.0011846	0.00076323	0.00018967	1026.8	6.5673e-06	1.0582e-05	981.1	311.11	1.444e-05	6.2597e-06	355.07	109.85	91.349	36.053	6.4825e-06	46.98	0.0010245	0.0010645	0.00029202	935.77	1.1359e-05	1.1709e-05	894.78	283.65	1.1366e-05	1.1466e-05	326.37	100.87	84.915	33.462	1.1264e-05	43.689	324.669	154.898	185.333	85.721	166.891	231.867	84.691	90.089	268.211	238.690	88.673	93.145	94.429	99.106	159.844	96.329	-8191	255	
29883.000	1	1	0	0	0.27546	0.13798	0.049185	0.13054	0.21362	0.15875	0.25842	0.32569	0.16123	0.040874	0.14691	0.12774	0.13083	0.3165	0.2132	0.18895	-4.6937	-3.9729	-4.5021	-4.9542	-3.9271	-4.9021	-4.6458	-4.2688	-5.1167	-4.0833	-4.5437	-4.7688	-4.0833	-4.9313	-4.4479	-4.0458	368.913	331.684	169.105	338.606	256.179	80.199	313.385	420.192	428.241	86.550	366.531	207.401	405.357	109.516	164.059	398.337	0.0011105	0.00049293	0.00013122	997.32	1.0004e-05	5.7097e-06	952.15	302.98	1.5138e-05	1.0675e-05	343.96	106.49	90.049	34.652	1.257e-05	45.709	0.0009992	0.0010278	0.00028632	908.58	1.0949e-05	1.1003e-05	863.07	275.93	1.1e-05	1.1121e-05	315.87	97.659	83.019	32.427	1.1087e-05	42.282	313.231	153.766	212.492	85.298	180.609	247.697	84.990	90.369	227.116	190.765	88.418	92.854	95.135	99.199	222.230	96.306	-8191	255	
29883.072	1	1	0	0	0.16695	0.062735	0.21574	0.063498	0.11748	0.28554	0.26749	0.2669	0.28713	0.07558	0.16409	0.16854	0.41202	0.35745	0.05717	0.23663	-4.7333	-4.0833	-4.3396	-5.0292	-3.9521	-4.8479	-4.7438	-4.075	-4.9125	-4.1562	-4.3792	-4.8896	-4.0375	-4.7583	-4.6229	-4.0437	182.736	187.238	380.511	353.464	331.461	120.788	387.745	357.414	250.989	360.737	401.361	85.407	403.491	84.754	117.041	265.389	0.0011924	0.00079766	8.7302e-05	994.2	9.4341e-06	1.1469e-05	950.94	303.53	1.1852e-05	7.582e-06	343.52	105.96	90.674	34.824	1.5239e-05	46.018	0.00097622	0.0010132	0.00028128	905.69	1.0888e-05	1.1027e-05	865.98	275.72	1.0774e-05	1.1234e-05	316.36	97.576	83.216	32.331	1.0971e-05	42.549	315.399	204.162	408.933	85.342	314.496	235.052	84.684	89.945	278.896	245.159	88.169	92.983	94.674	99.614	194.518	96.539	-8191	255	
29883.168	1	1	0	0	0.088751	0.19017	0.063443	0.26812	0.19668	0.085355	0.10001	0.26287	0.13074	0.11702	0.14611	0.19657	0.056293	0.12504	0.16505	0.31884	-4.6229	-4.325	-4.2333	-4.9896	-3.8958	-4.8063	-4.8125	-4.0813	-4.8729	-4.3271	-4.2333	-5.1479	-4.0792	-4.4437	-4.775	-4.2438	395.938	87.790	178.277	376.028	397.811	357.934	103.852	370.840	200.795	384.370	268.133	369.472	94.158	192.112	213.639	379.924	0.00105	0.00060766	0.00019239	1007.9	1.1605e-06	1.005e-05	970.38	306.12	1.5841e-05	4.1184e-06	350.3	109.8	91.884	35.958	1.0766e-05	47.635	0.00098147	0.0010039	0.00028343	916.54	1.1085e-05	1.1356e-05	880.62	279.68	1.1261e-05	1.144e-05	323.21	100.53	84.64	33.452	1.1443e-05	44.341	328.279	180.543	169.010	85.349	315.795	258.183	84.407	89.953	221.761	115.569	87.910	93.088	94.926	99.808	266.414	96.587	-8191	255	
29883.287	1	1	0	0	0.10257	0.1094	0.17367	0.37169	0.063761	0.13071	0.16615	0.21097	0.12637	0.24649	0.16743	0.19253	0.23262	0.13002	0.11274	0.24097	-4.4208	-4.5792	-4.1354	-5.0417	-4.0604	-4.3729	-4.8583	-3.9667	-4.875	-4.4812	-4.1375	-5.0729	-4.1104	-4.5188	-4.7792	-4.0125	80.854	209.391	91.261	416.295	105.528	343.196	371.945	105.895	282.199	108.444	429.266	116.778	183.892	399.994	326.920	298.464	0.0012571	0.00012709	0.00025272	1022.5	5.8245e-06	9.2922e-07	983.35	310.77	2.2931e-05	7.7183e-06	360.95	110.9	92.894	36.599	5.3616e-06	48.281	0.0010013	0.0010439	0.00029815	931.55	1.146e-05	1.1711e-05	895.67	284.56	1.1488e-05	1.1731e-05	330.21	102.34	85.881	34.038	1.1729e-05	44.85	313.069	232.859	194.781	85.313	253.695	176.433	84.843	89.968	226.355	189.229	87.571	92.476	94.937	99.745	159.997	96.729	-8191	255	
29883.383	1	1	0	0	0.10945	0.036337	0.044452	0.085396	0.054885	0.1207	0.14448	0.24577	0.098399	0.24111	0.19359	0.10565	0.29039	0.2879	0.19449	0.097945	-4.5667	-4.6021	-3.9271	-5.1	-4.1042	-4.3146	-5.0396	-4.2125	-4.8104	-4.6354	-4.0146	-4.8604	-4.3042	-4.2375	-4.9812	-4.1542	78.272	287.520	427.312	418.960	425.910	415.500	383.651	391.313	72.191	77.236	78.836	320.643	359.398	386.282	296.894	325.618	0.0010701	0.00057613	0.00015755	1009.4	8.7303e-06	3.3558e-06	966.07	306.87	5.0068e-06	8.1536e-06	346.9	107.46	90.659	35.473	1.576e-05	47.069	0.0010223	0.0010612	0.00029832	921.26	1.1474e-05	1.1945e-05	877.29	279.59	1.1652e-05	1.1906e-05	318.48	99.242	83.678	33.142	1.179e-05	43.289	314.403	168.283	157.207	85.438	268.287	317.960	84.876	89.979	256.126	213.943	88.298	93.157	94.855	99.602	129.929	96.365	-8191	255	
29883.479	1	1	0	0	0.15294	0.15712	0.10683	0.29939	0.11419	0.23403	0.21807	0.044893	0.18375	0.14646	0.14987	0.098563	0.26646	0.17772	0.12473	0.23779	-4.2854	-4.7417	-3.9542	-4.9	-4.2792	-4.3479	-5.0312	-4.1167	-4.5167	-4.6438	-4.1562	-4.9396	-4.4375	-4.1792	-4.8708	-4.0125	364.325	360.127	142.053	410.444	118.077	287.817	364.595	309.603	93.328	109.967	371.997	271.487	79.772	257.430	153.412	347.309	0.001055	0.00079935	0.00011978	990.33	9.5496e-06	1.1112e-05	939.22	301.09	9.2411e-06	2.489e-06	341.02	106.09	89.466	34.769	5.341e-06	46.065	0.001058	0.0010719	0.00030042	899.93	1.1585e-05	1.1546e-05	856.42	274.87	1.1667e-05	1.1706e-05	313.63	97.7	82.804	32.55	1.1574e-05	42.729	321.819	103.396	93.248	85.580	229.018	293.822	84.377	89.729	311.393	212.143	88.454	93.742	95.076	99.290	280.972	96.702	-8191	255	
29883.600	1	1	0	0	0.10807	0.096915	0.033364	0.13768	0.11879	0.14104	0.209	0.15834	0.19592	0.090653	0.20951	0.074432	0.072797	0.45647	0.016094	0.21697	-4.2646	-4.9812	-4.0646	-5.0062	-4.4958	-4.1521	-5.0229	-3.9979	-4.4958	-4.8271	-4.0542	-4.9271	-4.6333	-4.1979	-4.9667	-4.4208	382.009	134.819	144.795	398.579	311.982	233.378	291.153	380.482	332.715	399.565	399.221	105.883	327.843	356.543	288.747	361.020	0.00096168	0.00041478	0.0001035	986.99	1.4535e-05	7.2393e-06	949.4	300.16	1.0924e-05	1.9052e-06	343.01	106.08	89.085	35.085	9.9096e-06	45.921	0.0010352	0.0010602	0.00029713	899.61	1.1698e-05	1.1788e-05	862.2	274.2	1.1434e-05	1.147e-05	315.44	97.829	82.706	32.473	1.1791e-05	42.726	314.560	400.092	137.204	85.465	203.637	172.775	84.622	89.882	219.649	296.802	88.462	93.188	95.115	99.626	200.574	96.878	-8191	255	
29883.695	1	1	0	0	0.14159	0.049611	0.10665	0.27047	0.060408	0.18566	0.32177	0.14927	0.20053	0.088007	0.1101	0.20847	0.14911	0.12191	0.18938	0.15522	-3.9708	-5.0125	-4.0333	-4.7833	-4.5542	-4.1771	-5.1188	-4.4083	-4.2042	-4.9708	-4.0521	-4.8063	-4.7271	-4.1979	-5.0083	-4.4688	410.160	412.071	331.601	405.534	156.207	260.210	80.084	384.123	205.116	384.902	407.461	321.597	382.161	330.554	298.907	420.395	0.0010777	0.00039836	0.00032095	998.6	3.3729e-06	5.4569e-06	958.47	302.02	7.4696e-06	2.9173e-06	344.95	107.92	91.052	35.698	7.6792e-06	47.357	0.0010278	0.0010831	0.0003073	907.73	1.1435e-05	1.1973e-05	870.71	276.74	1.1651e-05	1.1711e-05	318.04	99.168	83.898	33.029	1.1787e-05	43.983	317.000	110.778	187.926	85.361	181.751	293.781	84.536	90.038	273.006	354.200	88.436	92.846	95.023	99.725	232.561	96.677	-8191	255	
29883.768	1	1	0	0	0.24812	0.28576	0.18301	0.18447	0.10993	0.065966	0.13354	0.24206	0.11304	0.16124	0.22394	0.018938	0.13674	0.087603	0.15567	0.31251	-3.7917	-5.0437	-3.9604	-4.5396	-4.7312	-4.0083	-5.1125	-4.4125	-4.1396	-4.9667	-4.1542	-4.5458	-5.0813	-4.0042	-4.9021	-4.5417	231.869	116.267	356.472	328.338	302.065	312.694	277.649	428.875	302.330	355.985	417.043	350.944	355.233	254.143	120.575	390.293	0.00098144	0.0011878	0.00033778	1007.4	8.103e-06	4.2173e-06	977.19	307.98	6.1006e-06	2.7629e-06	355.66	111.06	91.796	36.508	1.1684e-05	48.067	0.0010539	0.0010949	0.00030324	919.23	1.1821e-05	1.2031e-05	889.3	281.38	1.1793e-05	1.1907e-05	326.8	101.56	85.094	33.789	1.2085e-05	44.547	324.695	150.337	170.751	85.676	225.854	150.809	84.560	90.226	243.221	187.231	88.500	92.878	94.681	99.461	206.357	96.698	-8191	255	
29883.863	1	1	0	0	0.23285	0.17098	0.32905	0.19992	0.13685	0.11586	0.23128	0.28008	0.049629	0.1165	0.060915	0.17451	0.15559	0.090105	0.099246	0.15522	-3.9604	-4.9375	-4.1813	-4.7125	-4.8292	-4.0083	-4.8104	-4.7104	-4.0104	-5.0354	-4.2875	-4.4979	-4.9271	-4.0354	-4.7604	-4.8187	229.410	193.075	246.948	405.989	163.753	309.270	338.381	360.075	367.007	369.922	322.258	390.544	401.548	328.877	338.770	352.313	0.0010852	0.00077657	6.3118e-05	1006.5	7.9492e-06	4.0634e-06	962.27	302.81	1.9255e-05	5.4506e-06	344.26	106.01	89.286	34.363	2.6289e-06	45.402	0.0010764	0.001068	0.00030316	916.3	1.1665e-05	1.1869e-05	872.82	276.74	1.172e-05	1.1698e-05	316.57	97.679	82.463	32.24	1.1447e-05	42.175	306.651	91.596	235.080	85.490	127.713	253.356	84.523	90.240	225.173	194.329	88.167	93.198	94.963	99.707	158.564	96.485	-8191	255	
29883.982	1	1	0	0	0.15378	0.13283	0.05624	0.19483	0.047003	0.1784	0.13829	0.10458	0.10532	0.23958	0.2072	0.041134	0.19461	0.25178	0.0050931	0.092748	-3.775	-4.9021	-4.2667	-4.3771	-4.9708	-4.1646	-4.7896	-4.7104	-3.9729	-4.975	-4.5729	-4.2104	-4.9688	-4.1458	-4.6167	-4.8854	353.693	222.696	224.322	89.622	254.720	420.398	379.870	236.898	136.217	356.078	383.981	364.819	357.111	116.572	96.734	339.318	0.0013217	0.00028838	0.0004002	982.67	9.2458e-06	1.99e-06	944.64	296.55	1.1444e-05	1.0282e-05	338.83	104.57	87.782	33.934	9.5979e-06	43.93	0.0010376	0.0010504	0.00029717	896.48	1.1526e-05	1.1703e-05	853.46	271.58	1.1412e-05	1.1686e-05	310.83	95.822	81.241	31.39	1.1454e-05	41.186	333.786	301.096	197.696	85.138	258.859	287.304	84.720	90.132	240.588	263.874	88.587	92.984	94.491	99.390	236.563	96.487	-8191	255	
29884.078	1	1	0	0	0.24324	0.20898	0.083655	0.32808	0.0094807	0.098827	0.10311	0.076808	0.25602	0.046798	0.078952	0.25991	0.19036	0.16261	0.14932	0.1299	-3.7146	-4.9792	-4.4625	-4.4062	-4.9229	-4.1875	-4.8313	-4.8583	-3.95	-4.8125	-4.625	-4.2271	-5.1125	-4.1583	-4.4104	-5.0062	149.416	78.788	332.447	345.351	400.597	267.051	81.577	372.806	375.493	428.687	86.718	417.875	364.866	396.923	238.613	338.224	0.0011078	0.00077163	0.00012505	982.34	1.4997e-05	9.1766e-06	940.16	297.77	1.6541e-05	5.9684e-06	341.4	104.63	88.126	34.302	4.8494e-06	45.537	0.0010388	0.0010855	0.00030172	895.71	1.1513e-05	1.1469e-05	857.78	271.84	1.1402e-05	1.1886e-05	313.47	96.6	81.877	31.944	1.178e-05	42.007	311.762	172.182	171.548	85.002	229.487	242.625	84.952	90.140	213.062	107.925	88.635	92.765	94.710	99.625	189.236	96.712	-8191	255	
29884.176	1	1	0	0	0.10555	0.13277	0.093813	0.18863	0.34426	0.23827	0.073139	0.32394	0.0715	0.0407	0.29965	0.2128	0.16006	0.36468	0.13335	0.22444	-3.6604	-4.7167	-4.4833	-4.2229	-4.8979	-4.1937	-4.5646	-4.9958	-3.9229	-4.7833	-4.5125	-4.1604	-5.1	-4.3292	-4.2229	-4.9563	107.394	169.544	409.471	331.922	213.431	91.407	351.421	338.490	210.637	199.598	383.213	277.212	311.412	347.771	196.604	339.171	0.0010689	0.00050763	0.00032964	979.01	1.0647e-05	6.1187e-06	952.84	298.53	9.4989e-06	1.074e-05	342.27	106.02	89.695	34.8	2.5845e-06	45.94	0.0010456	0.0010841	0.00030161	899.09	1.1548e-05	1.2022e-05	863.28	273.63	1.2025e-05	1.1908e-05	315.94	98.008	82.783	32.493	1.1977e-05	42.995	332.736	127.521	154.083	85.405	187.455	291.397	84.425	89.894	118.072	193.210	88.306	93.131	94.347	99.684	276.818	96.807	-8191	255	
29884.271	1	1	0	0	0.015657	0.039983	0.16901	0.20371	0.17567	0.18252	0.30255	0.10662	0.11439	0.13062	0.25337	0.14126	0.044	0.18797	0.25883	0.21935	-3.8229	-4.6312	-4.8167	-4.1438	-4.9021	-4.3063	-4.2854	-5.0417	-4.0042	-4.4313	-4.7979	-4.2771	-5.1042	-4.3729	-4.1521	-4.9812	349.711	413.680	423.710	417.497	225.843	367.960	309.964	375.128	322.460	400.903	362.104	171.035	302.169	415.294	300.619	228.964	0.0012191	0.00082421	0.00032874	995.66	6.4099e-06	9.0876e-06	961.06	304.76	1.1968e-05	6.4358e-06	348.13	106.14	88.871	34.484	7.2643e-06	45.066	0.0010593	0.0011093	0.00030503	909.26	1.2019e-05	1.2209e-05	876.79	277.19	1.2119e-05	1.2086e-05	319.31	98.016	82.661	32.134	1.2003e-05	42.074	311.336	105.321	160.891	85.463	421.784	233.374	84.070	90.025	95.501	182.947	88.108	93.065	94.895	99.850	386.233	96.292	-8191	255	
29884.367	1	1	0	0	0.20711	0.069011	0.081723	0.3968	0.062479	0.17011	0.18678	0.18961	0.10418	0.04723	0.17495	0.21726	0.17248	0.13128	0.015158	0.08188	-3.7958	-4.6125	-4.8187	-4.0417	-4.7083	-4.3875	-4.2229	-5.0854	-4.125	-4.4958	-4.8938	-3.9771	-5.1042	-4.5521	-4.1813	-5.0938	146.129	428.453	390.428	397.470	188.831	175.000	314.464	328.671	338.079	119.435	371.088	186.088	375.540	369.373	166.840	322.146	0.0009985	0.0008613	4.1142e-05	987.75	1.1952e-05	2.9547e-06	939.97	294.11	1.9825e-05	3.9952e-06	336.71	102.16	86.973	33.163	1.586e-05	43.315	0.0010564	0.001088	0.00029925	899.37	1.1537e-05	1.1775e-05	854.58	269.94	1.1576e-05	1.1707e-05	309.48	94.721	80.331	30.905	1.1542e-05	40.323	323.857	110.534	155.493	85.474	181.361	241.437	84.557	90.188	256.217	289.067	88.510	92.715	94.574	99.250	160.669	96.792	-8191	255	
29884.463	1	1	0	0	0.28615	0.041849	0.26949	0.16165	0.1788	0.16382	0.25322	0.32997	0.1569	0.22994	0.13169	0.1183	0.15629	0.036957	0.13142	0.18797	-3.9333	-4.2479	-4.8896	-4.1312	-4.8208	-4.65	-4.1667	-5.1083	-4.1271	-4.2896	-5.0729	-4.1562	-4.7333	-4.725	-4.0396	-5.0875	134.654	377.825	311.815	430.283	348.206	221.300	406.049	359.445	262.889	247.846	420.038	415.739	142.574	84.859	308.275	425.931	0.00094117	0.00099835	8.8322e-05	968.6	1.0327e-05	3.7281e-06	928.22	293.72	5.7791e-06	8.7676e-07	333.2	102.61	86.61	33.349	5.9712e-06	43.327	0.0010114	0.0010501	0.00028765	880.79	1.1345e-05	1.1548e-05	843.62	267.2	1.1388e-05	1.1414e-05	306.93	94.172	80.097	30.982	1.159e-05	40.418	316.373	119.589	317.642	85.264	192.537	277.409	84.692	89.918	119.716	210.174	88.375	92.442	94.704	99.541	249.012	96.339	-8191	255	
29884.559	1	1	0	0	0.14291	0.15427	0.24961	0.33058	0.053376	0.019516	0.17497	0.041801	0.15583	0.20932	0.18274	0.16556	0.26385	0.20985	0.22515	0.22044	-4.0437	-4.1646	-5.0708	-4.1542	-4.6354	-4.7417	-4.275	-4.9792	-4.3917	-4.1229	-5.1333	-4.1333	-4.5146	-4.7854	-3.8479	-4.8167	116.940	378.126	258.655	377.959	332.814	358.455	392.078	157.174	133.502	92.266	347.613	384.807	361.445	342.240	186.428	407.281	0.00098312	0.0012515	0.00019346	973.71	7.2585e-06	6.8609e-06	929.77	295.49	7.2527e-06	2.6348e-06	337.33	103.56	86.826	33.28	5.1334e-06	43.945	0.0010236	0.0010696	0.00029056	888.25	1.1486e-05	1.1403e-05	849.55	269.04	1.1318e-05	1.1632e-05	310.1	95.298	80.316	31.148	1.1605e-05	41.009	321.048	200.418	89.234	85.479	195.179	75.882	84.396	89.570	231.405	318.170	88.150	92.873	94.891	100.100	381.837	96.381	-8191	255	
29884.680	1	1	0	0	0.14024	0.11652	0.21561	0.26085	0.23162	0.10721	0.17395	0.072449	0.18707	0.1602	0.039264	0.049019	0.056923	0.13601	0.12286	0.2091	-4.0062	-4.1604	-5.1042	-4.1979	-4.3562	-4.7333	-4.0958	-4.8917	-4.5062	-4.1208	-5.0583	-4.175	-4.3583	-4.9979	-3.8458	-4.8375	361.347	372.472	420.626	395.520	209.785	155.518	292.664	197.507	324.220	303.775	181.283	255.833	93.218	370.708	181.366	303.604	0.00092962	0.00025471	0.00028897	981.77	1.1222e-05	1.3011e-05	946.88	298.51	4.2497e-06	6.9395e-06	344.41	105.8	89.69	34.847	1.6723e-05	46.566	0.0010291	0.0010626	0.00029621	894.01	1.1499e-05	1.1829e-05	861.45	272.74	1.1588e-05	1.1584e-05	316.34	97.838	82.737	32.424	1.1784e-05	43.026	304.127	196.691	157.346	85.377	229.572	207.824	84.749	90.019	97.879	190.476	88.468	92.783	94.196	99.870	202.268	96.692	-8191	255	
29884.775	1	1	0	0	0.14736	0.21319	0.049167	0.17766	0.31061	0.14358	0.075325	0.2844	0.22553	0.064705	0.2399	0.21906	0.09169	0.14399	0.10514	0.13487	-4.3167	-4.1729	-4.9187	-4.3625	-4.3438	-4.9292	-4.1667	-4.7771	-4.6813	-3.9229	-5.0062	-4.2917	-4.2354	-5.0521	-4.1229	-4.5333	324.756	186.503	293.206	396.633	173.252	255.874	182.154	334.271	182.640	321.609	357.933	88.839	278.321	399.607	414.061	87.125	0.00091402	0.0005841	0.00014827	997.15	1.2462e-05	9.0331e-06	964.6	303.35	6.3402e-06	1.4724e-06	346.73	106	88.992	34.561	1.7156e-06	45.425	0.0010438	0.0010748	0.00030108	908.47	1.1818e-05	1.1916e-05	876.73	277.02	1.1709e-05	1.1838e-05	319.32	97.978	82.563	32.249	1.1571e-05	42.337	312.437	150.205	223.003	85.464	246.608	224.924	84.459	90.216	322.029	104.698	88.547	92.973	94.413	99.694	239.411	96.175	-8191	255	
29884.871	1	1	0	0	0.060148	0.059377	0.22205	0.2611	0.15166	0.193	0.32447	0.13276	0.16906	0.11611	0.15905	0.15844	0.13008	0.18944	0.082343	0.23376	-4.5729	-3.9958	-4.8521	-4.6542	-4.2833	-5.0021	-4.1271	-4.6458	-4.8208	-4.0458	-4.9521	-4.5687	-4.2333	-5.0646	-4.1292	-4.55	224.248	416.677	108.202	400.880	281.586	339.078	385.855	76.495	194.368	100.914	219.931	392.536	73.532	324.127	418.964	365.530	0.00088129	0.00012268	0.00014895	980.31	1.4328e-05	7.9091e-06	935.47	297.39	1.4657e-05	9.9975e-06	337.99	103.91	87.625	34.348	6.2553e-06	45.118	0.0010302	0.0010734	0.00029455	895.53	1.136e-05	1.1629e-05	852.82	271.73	1.1418e-05	1.1345e-05	311.69	95.892	81.112	31.825	1.1102e-05	41.736	322.874	175.548	156.550	85.271	231.131	182.330	84.688	90.134	223.159	135.026	88.344	92.945	93.965	99.352	254.989	96.751	-8191	255	
29884.969	1	1	0	0	0.059121	0.20835	0.19451	0.037962	0.10805	0.16199	0.27693	0.21275	0.011349	0.061408	0.19514	0.11529	0.1154	0.13716	0.063177	0.067007	-4.6479	-3.9854	-4.8354	-4.5896	-4.1312	-5.0292	-4.3187	-4.4021	-4.8979	-4.0062	-4.8833	-4.5687	-3.8167	-5.0125	-4.2271	-4.4917	269.927	393.083	426.154	99.478	147.044	98.027	80.001	413.993	285.935	241.759	422.754	275.188	315.279	415.914	347.143	258.784	0.0013174	0.00043394	0.00010357	977.38	6.6852e-06	4.2553e-06	934.55	296.59	1.0337e-05	6.1021e-06	336.65	104.8	88.268	34.076	5.5283e-06	45.253	0.00098794	0.0010264	0.00028021	889.48	1.1132e-05	1.124e-05	849.95	270.84	1.096e-05	1.1334e-05	310.75	95.911	81.355	31.795	1.0985e-05	41.688	312.448	162.569	182.325	85.388	267.962	292.850	84.825	90.274	182.302	249.446	88.338	92.954	94.992	99.121	213.498	96.286	-8191	255	
29885.062	1	1	0	0	0.0036171	0.17993	0.19219	0.25057	0.076184	0.14643	0.1796	0.14198	0.1327	0.2385	0.13716	0.086061	0.13778	0.1271	0.078118	0.12723	-4.6312	-3.9542	-4.6062	-4.7896	-3.9521	-4.925	-4.4854	-4.2854	-4.8479	-4.0167	-4.6708	-4.8438	-4.1687	-4.8479	-4.3083	-4.2292	109.798	255.115	311.047	380.777	206.257	105.310	351.156	360.855	288.408	145.488	75.970	84.523	151.057	368.676	237.938	427.840	0.0011766	0.0007105	0.00013513	983.54	9.4555e-06	2.8617e-06	943.66	298.98	1.5956e-05	6.0738e-06	342.66	106.93	89.003	35.11	4.338e-07	46.699	0.000974	0.0010278	0.00028479	893.6	1.1032e-05	1.1259e-05	856.78	272.82	1.1002e-05	1.116e-05	315.68	98.538	83.059	32.775	1.1137e-05	43.247	318.924	89.122	265.889	85.361	192.914	179.174	84.440	89.927	242.587	237.292	88.121	93.395	94.612	99.857	306.660	96.557	-8191	255	
29885.158	1	1	0	0	0.3342	0.090896	0.16189	0.1962	0.14174	0.034593	0.027518	0.1458	0.22769	0.15174	0.06763	0.19798	0.082365	0.10531	0.15153	0.10348	-4.6083	-4.1167	-4.5396	-4.9667	-3.9396	-4.8958	-4.6292	-4.2667	-4.8729	-4.2208	-4.5104	-4.7188	-3.9667	-4.8812	-4.5854	-4.3	327.842	346.642	380.228	123.018	350.225	155.707	401.582	74.886	402.021	116.496	387.033	366.903	264.186	423.003	149.200	263.681	0.00093342	0.00026468	0.00017601	999.62	1.2213e-05	5.856e-06	975.28	304.57	8.7331e-06	8.8261e-06	350.9	109.75	91.039	35.355	9.645e-06	47.52	0.00099287	0.0010458	0.00028166	911.35	1.1204e-05	1.1291e-05	882.67	278.5	1.1083e-05	1.1462e-05	323.17	100.55	84.087	33.046	1.12e-05	43.908	332.629	408.801	430.633	85.373	224.069	173.605	84.535	90.058	273.344	240.559	87.988	93.371	94.532	99.687	72.908	96.587	-8191	255	
29885.279	1	1	0	0	0.066131	0.10426	0.14731	0.19515	0.23722	0.093256	0.14077	0.33691	0.16251	0.11102	0.1166	0.21944	0.13836	0.23469	0.24342	0.14625	-4.7708	-4.1208	-4.3938	-5.05	-3.8792	-4.8458	-4.7188	-4.1188	-4.9646	-4.2729	-4.4646	-5.0354	-4.1083	-4.8688	-4.7083	-4.1333	336.537	331.140	184.452	354.296	238.266	402.430	405.328	418.958	346.910	96.216	431.274	357.384	376.153	77.637	281.387	205.375	0.0010314	0.00058208	0.00023803	1009.6	7.105e-06	7.4667e-06	987.16	307.35	9.8287e-06	9.6631e-06	354.21	109.38	91.615	35.318	1.2296e-05	47.315	0.0010007	0.0010469	0.00029077	918.99	1.1443e-05	1.1385e-05	890.93	280.9	1.1128e-05	1.1433e-05	324.97	100.41	84.11	33.054	1.1122e-05	43.719	316.133	154.019	182.036	85.367	315.970	204.209	84.721	90.108	190.091	174.231	87.927	92.827	94.717	99.872	224.330	96.609	-8191	255	
29885.373	1	1	0	0	0.17492	0.03276	0.2598	0.18973	0.10913	0.17823	0.10301	0.12779	0.061915	0.081711	0.21694	0.052621	0.18866	0.28442	0.21855	0.14898	-4.65	-4.3	-4.125	-5.1354	-4.0167	-4.6312	-4.9479	-4.0771	-4.8313	-4.5229	-4.2979	-4.8708	-4.1979	-4.6521	-4.7292	-4.0917	279.682	387.252	309.603	409.154	96.771	345.657	99.999	302.840	277.140	204.819	370.946	94.160	429.857	274.559	102.539	342.060	0.0012073	0.00047006	0.00029457	988.51	1.6435e-05	6.2964e-06	944.82	302.42	1.1209e-05	2.1886e-06	341.05	105.34	88.184	35.066	4.8843e-06	46.01	0.00098241	0.0010286	0.00027956	899.94	1.0921e-05	1.1133e-05	858.93	274.42	1.1045e-05	1.1117e-05	315.56	97.647	82.179	32.538	1.1189e-05	42.616	300.891	162.023	195.756	85.502	264.814	243.543	84.902	90.042	166.559	250.675	87.858	93.480	94.816	99.208	84.103	96.407	-8191	255	
29885.471	1	1	0	0	0.28192	0.20953	0.1891	0.19706	0.017285	0.20074	0.02633	0.27889	0.077899	0.13758	0.07964	0.054619	0.1791	0.13892	0.1956	0.18528	-4.5646	-4.3375	-4.1125	-4.9729	-4.2042	-4.3583	-4.975	-3.9583	-4.6854	-4.6146	-4.0938	-4.9958	-4.2792	-4.4688	-4.9292	-4.1104	212.586	294.019	412.103	400.646	132.192	244.686	152.742	306.195	152.421	130.684	74.101	149.030	102.263	81.946	423.980	99.257	0.00099992	0.0012932	7.5053e-05	976.53	5.6401e-06	6.5103e-06	932.92	301.75	1.5825e-05	1.2604e-05	342.04	107.85	90.613	36.341	1.1556e-05	47.339	0.00098211	0.0010278	0.00028203	892.31	1.1185e-05	1.1162e-05	852.65	274.65	1.1126e-05	1.1324e-05	316.69	99.169	83.754	33.585	1.117e-05	44.1	304.071	185.674	135.691	85.335	201.369	197.493	84.559	90.067	256.580	246.951	88.321	92.945	95.361	99.679	232.311	96.962	-8191	255	
29885.566	1	1	0	0	0.30528	0.046487	0.20885	0.15972	0.28412	0.17525	0.16038	0.13485	0.05093	0.22921	0.15265	0.078023	0.29435	0.2905	0.076476	0.17678	-4.4688	-4.5458	-4.1729	-5.1604	-4.2396	-4.4042	-4.9708	-4.0708	-4.7083	-4.8396	-4.25	-4.9646	-4.3396	-4.4563	-4.9833	-4.1312	353.922	189.889	424.003	370.419	148.265	413.570	90.431	424.817	121.436	368.868	357.375	407.773	397.885	412.725	258.060	282.373	0.001173	0.0012144	0.00015932	981.3	7.728e-06	1.3413e-06	947.47	303.97	1.3738e-05	3.0521e-06	346.95	109.7	91.158	36.3	7.4618e-06	48.018	0.00098299	0.0010247	0.00028222	897.45	1.0975e-05	1.1116e-05	860.87	276.39	1.1142e-05	1.1203e-05	319.8	100.53	84.405	33.723	1.1146e-05	44.527	305.976	201.113	216.936	85.319	201.253	159.086	84.880	90.171	253.910	236.360	88.566	93.539	95.281	99.171	254.852	96.762	-8191	255	
29885.662	1	1	0	0	0.19257	0.18105	0.2447	0.075989	0.15499	0.28316	0.028643	0.27815	0.21902	0.097684	0.11155	0.23648	0.14784	0.059697	0.065698	0.19365	-4.2438	-4.6604	-3.8875	-4.8375	-4.2583	-4.0875	-4.9229	-4.2146	-4.4583	-4.8458	-4.1604	-5.0333	-4.55	-4.25	-5.0521	-4.125	244.295	81.129	150.026	279.671	127.337	274.622	172.147	362.664	265.667	133.123	423.490	415.557	185.700	299.310	288.130	363.609	0.0011821	0.00061204	0.0001952	993.48	1.3287e-05	1.245e-05	962.62	305.22	9.6449e-06	9.0758e-06	351.92	109.77	90.353	36.14	1.954e-06	48.183	0.0010188	0.0010272	0.00028831	906.33	1.1049e-05	1.1009e-05	875.29	278.48	1.1178e-05	1.133e-05	323.61	101.15	84.078	33.507	1.1381e-05	44.501	301.070	205.984	195.492	85.452	212.467	258.322	84.714	90.180	243.706	201.857	88.131	93.017	94.869	99.588	253.919	96.789	-8191	255	
29885.760	1	1	0	0	0.21776	0.12266	0.074876	0.3082	0.19013	0.20115	0.1086	0.13588	0.17483	0.2274	0.23456	0.12945	0.23302	0.22254	0.11048	0.28795	-4.1021	-4.9062	-4.075	-5.0083	-4.4208	-4.1646	-5.2708	-4.2167	-4.3896	-5	-4.0062	-4.8792	-4.6562	-4.1125	-4.9646	-4.3333	429.317	325.737	404.096	420.704	254.703	103.624	357.788	395.579	286.551	211.183	106.345	423.181	78.802	428.005	207.098	394.224	0.001068	0.00067879	0.00023803	1006.1	1.2128e-05	8.1231e-06	974.8	305.65	1.997e-06	5.7778e-06	353.72	109.83	90.627	35.735	1.3916e-05	47.33	0.0010082	0.0010463	0.00028663	917.6	1.1224e-05	1.1223e-05	887.92	279.88	1.1304e-05	1.1245e-05	324.43	100.77	84.147	33.236	1.1332e-05	43.966	319.662	139.401	144.122	85.452	193.931	306.451	84.753	90.330	269.525	379.340	88.018	93.136	94.490	99.064	311.099	96.463	-8191	255	
29885.855	1	1	0	0	0.080219	0.19808	0.11076	0.09227	0.21948	0.19537	0.14305	0.18028	0.16264	0.16999	0.10116	0.18441	0.10885	0.086609	0.15814	0.23238	-3.8812	-4.7312	-3.9958	-4.8625	-4.6625	-3.975	-5.1354	-4.3646	-4.2354	-5.0563	-4.0667	-4.5437	-4.775	-3.9542	-4.7958	-4.4167	169.540	274.264	242.820	75.008	206.660	359.586	72.179	364.427	136.527	115.141	115.130	269.896	299.310	420.359	176.320	106.046	0.0011433	0.00057932	0.00018671	990.35	7.7381e-06	1.8484e-06	943.85	300.3	6.6185e-06	5.9828e-06	341.3	107.73	89.107	35.489	7.4335e-06	46.505	0.00099405	0.0010258	0.00028981	899.84	1.112e-05	1.1484e-05	862.68	273.76	1.0996e-05	1.1113e-05	315.59	98.941	82.881	33.008	1.1217e-05	43.371	330.544	152.279	121.812	85.145	243.057	307.690	85.139	90.003	244.020	297.565	88.049	92.966	94.597	99.536	295.121	96.639	-8191	255	
29885.951	1	1	0	0	0.066822	0.12251	0.054685	0.18081	0.046872	0.022776	0.049011	0.095283	0.12693	0.12856	0.1678	0.17953	0.10394	0.18048	0.2287	0.20554	-4.0458	-4.8375	-4.0146	-4.6917	-4.7292	-3.8563	-4.9271	-4.5333	-3.9729	-5.0333	-4.2646	-4.4729	-4.7167	-3.9313	-4.7521	-4.6458	147.884	314.528	188.331	370.750	344.501	181.701	318.033	389.075	312.178	127.323	99.484	400.496	231.573	340.548	273.452	351.510	0.0014634	0.00076215	0.00023404	991.3	2.1757e-06	8.4184e-06	952.47	299.56	5.8847e-06	4.4268e-06	345.61	107.87	90.005	35.521	7.0093e-06	47.333	0.00098899	0.0010243	0.00028441	895.8	1.0858e-05	1.1405e-05	863.96	273.61	1.0978e-05	1.1172e-05	317.26	99.13	83.201	33.003	1.0987e-05	43.647	321.744	86.004	124.676	85.498	380.539	146.761	84.735	89.989	321.374	187.379	88.071	93.177	94.904	99.562	223.890	96.101	-8191	255	
29886.072	1	1	0	0	0.37776	0.11941	0.13372	0.050166	0.20322	0.037651	0.20825	0.068935	0.19915	0.094051	0.063049	0.15154	0.10431	0.070412	0.20531	0.037962	-3.6417	-4.8979	-4.2271	-4.4771	-4.8063	-4.0479	-5.0021	-4.8604	-4.0042	-4.8792	-4.4042	-4.4021	-4.8375	-4.0729	-4.6	-4.7333	181.121	190.009	362.665	275.868	175.027	320.193	81.281	92.448	340.236	182.413	313.953	406.031	312.096	346.179	287.654	141.648	0.0012188	0.00011658	8.4066e-05	984.39	6.2101e-06	6.9489e-06	969.33	303.08	1.3719e-05	4.3034e-06	354.41	110.09	91.67	36.427	9.9907e-06	48.175	0.0010081	0.0010481	0.00028732	901.01	1.1293e-05	1.151e-05	879.75	277.09	1.1287e-05	1.1465e-05	324.12	101.37	84.734	33.767	1.1596e-05	44.991	318.695	172.094	289.335	85.438	218.109	184.969	84.694	90.197	233.407	226.084	88.326	92.544	94.671	99.589	163.398	96.477	-8191	255	
29886.168	1	1	0	0	0.11379	0.036037	0.18067	0.25546	0.22801	0.06994	0.18321	0.21991	0.11415	0.27689	0.21635	0.29418	0.38838	0.18683	0.11143	0.17779	-3.5125	-4.925	-4.2562	-4.4646	-4.8958	-4.0229	-4.8	-4.5938	-4.0333	-4.8521	-4.4563	-4.325	-5.0167	-4.1708	-4.5208	-4.9563	178.383	368.743	342.274	116.840	284.987	177.905	336.727	333.031	300.551	212.744	354.720	390.464	403.765	354.150	159.028	289.759	0.0010214	0.00086493	0.00021399	1012.7	5.6755e-06	6.355e-06	990.87	310.12	2.6039e-05	5.844e-06	360.8	113.59	94.004	37.589	4.6491e-06	50.037	0.0010148	0.0010651	0.0002946	920.46	1.1425e-05	1.1783e-05	899.17	284.11	1.1243e-05	1.1679e-05	332.87	104.41	86.75	34.732	1.1347e-05	46.372	317.846	149.662	171.958	85.918	305.746	167.575	84.521	90.204	234.456	124.449	88.374	93.043	95.194	99.232	146.141	96.518	-8191	255	
29886.238	1	1	0	0	0.10096	0.16996	0.19007	0.058331	0.22126	0.19639	0.16864	0.18855	0.12311	0.18629	0.1741	0.17888	0.027767	0.12315	0.11825	0.31161	-3.7	-4.8042	-4.4833	-4.2396	-5.0167	-4.1	-4.6646	-4.9604	-4.1333	-4.8146	-4.5979	-4.0437	-4.9083	-4.3854	-4.3812	-5.075	91.871	176.968	184.728	295.655	286.312	292.227	414.289	383.614	129.275	386.149	388.770	360.234	153.487	421.054	144.953	271.827	0.0011942	0.0010793	9.7704e-05	1023.2	2.8084e-06	5.309e-06	993.9	310.17	1.5853e-05	1.284e-05	354.93	111.25	92.465	36.268	1.1029e-05	48.532	0.0010506	0.0010649	0.00029864	929.84	1.1358e-05	1.15e-05	904.79	283.45	1.1566e-05	1.1479e-05	328.58	102.41	85.297	33.845	1.1225e-05	44.731	309.769	221.437	299.890	85.235	348.951	166.634	84.491	90.431	236.999	274.023	88.617	93.178	94.796	99.289	136.697	96.838	-8191	255	
29886.359	1	1	0	0	0.18982	0.096758	0.23553	0.38504	0.12039	0.22291	0.10056	0.23543	0.099453	0.14707	0.2064	0.057028	0.17607	0.16503	0.10581	0.30502	-3.6208	-4.6813	-4.5687	-4.0896	-4.9896	-4.1167	-4.4146	-5.15	-3.9292	-4.9125	-4.7167	-4.025	-5.0208	-4.3729	-4.2833	-4.8771	345.233	74.965	274.553	85.162	161.858	264.346	309.911	370.103	410.398	415.740	401.966	200.860	418.971	423.422	414.303	413.520	0.0012008	0.00062479	4.8538e-05	990.32	7.7979e-06	6.9382e-06	949.55	301.24	2.2529e-05	1.1724e-05	348.7	108.35	91.035	36.319	4.8958e-06	48.065	0.0010057	0.0010373	0.00028662	899.48	1.1155e-05	1.1521e-05	863.97	275.13	1.1168e-05	1.1196e-05	319.22	100.08	83.918	33.722	1.1342e-05	44.498	318.259	217.115	110.725	85.332	224.078	377.791	84.149	90.524	276.259	219.985	88.350	92.846	95.206	99.697	245.655	96.674	-8191	255	
29886.455	1	1	0	0	0.1543	0.14682	0.19714	0.085737	0.12461	0.084992	0.029064	0.22366	0.071397	0.094969	0.18465	0.027464	0.11924	0.074337	0.15327	0.3221	-3.7729	-4.8021	-4.5729	-4.0771	-4.8063	-4.4042	-4.2646	-5.05	-4.1438	-4.4896	-4.7396	-4.1875	-5.1646	-4.5792	-4.0396	-4.9458	115.696	247.721	196.504	249.646	201.614	133.798	414.941	328.554	126.890	359.298	385.935	177.474	384.930	92.892	383.775	426.143	0.0012209	0.0011524	0.00032111	975.51	6.3525e-06	4.3363e-06	939.88	299.54	5.2195e-06	9.719e-06	344.47	108.6	90.077	36.245	9.631e-06	47.635	0.0010322	0.0010795	0.00029703	890.39	1.1802e-05	1.2375e-05	856.67	274.63	1.267e-05	1.2993e-05	318.94	100.56	84.282	33.998	1.3711e-05	44.501	312.304	195.327	183.885	85.326	111.367	426.036	84.496	90.768	384.693	179.773	88.293	93.207	94.565	99.814	376.831	96.462	-8191	255	
29886.553	1	1	0	0	0.10406	0.15459	0.045946	0.17813	0.17881	0.24712	0.056149	0.035119	0.17514	0.22975	0.26616	0.15038	0.13416	0.35689	0.20748	0.1758	-3.7146	-4.45	-4.8771	-4.0667	-4.8333	-4.5167	-4.3146	-5.0521	-4.125	-4.4062	-4.9625	-4.1542	-4.8354	-4.7354	-4.0833	-5.0687	428.574	353.983	261.888	275.142	311.206	252.823	306.603	170.568	172.417	396.671	361.246	325.757	244.340	399.140	158.022	264.475	0.0010334	0.00072709	0.00026522	967.78	5.9658e-06	1.8738e-05	931.47	294.61	9.3587e-06	8.0564e-07	340.07	107.56	88.932	35.464	1.695e-05	46.574	0.0012005	0.0012307	0.00034304	882.92	1.3332e-05	1.3729e-05	852.96	270.8	1.3172e-05	1.3287e-05	315.49	98.691	82.976	32.948	1.3033e-05	43.544	321.720	164.984	152.614	85.273	204.182	285.726	84.426	90.052	231.537	346.223	88.364	92.967	95.007	99.572	310.845	96.751	-8191	255	
29886.672	1	1	0	0	0.2144	0.035802	0.23982	0.16537	0.026465	0.19992	0.26281	0.096986	0.18103	0.07821	0.21874	0.27829	0.19609	0.2398	0.12403	0.0084756	-3.9813	-4.2896	-5.025	-4.275	-4.7396	-4.7479	-4.2063	-5.1312	-4.2646	-4.2875	-4.9604	-4.0167	-4.5729	-4.85	-4.0208	-5.1188	97.107	221.424	318.911	83.547	324.296	375.308	379.579	423.641	172.387	245.861	422.627	339.248	357.000	187.961	143.165	286.124	0.001036	0.00033678	0.00024842	966.28	2.3676e-06	5.5997e-06	943.53	299.26	1.0774e-05	4.394e-06	347.82	110.35	91.231	36.563	1.5285e-05	49.329	0.0011178	0.0011637	0.00031877	884.53	1.2065e-05	1.2344e-05	858.16	273.46	1.177e-05	1.1757e-05	320.98	101.23	84.451	33.961	1.1336e-05	45.71	319.662	243.716	102.739	85.681	263.153	196.428	84.561	90.333	257.467	327.348	88.539	93.155	94.927	99.669	210.819	96.822	-8191	255	
29886.768	1	1	0	0	0.070784	0.099694	0.27177	0.10052	0.057071	0.0098243	0.24331	0.2052	0.037761	0.11987	0.24378	0.25028	0.13195	0.12852	0.12881	0.091114	-4.0042	-4.0604	-4.8833	-4.1667	-4.4292	-4.6125	-4.0458	-4.9688	-4.475	-3.9813	-4.9167	-4.2896	-4.575	-4.8938	-3.9958	-4.9417	173.829	88.420	390.961	87.284	96.142	285.796	410.819	383.603	121.317	171.532	305.585	329.192	415.714	353.337	395.175	191.697	0.0013108	0.00057209	0.00029075	1012.6	6.9068e-06	8.8706e-06	978.45	310.31	7.7408e-06	1.0238e-05	356.1	110.11	91.54	36.52	3.4193e-06	48.108	0.0010194	0.0010212	0.00028227	917.68	1.0867e-05	1.1106e-05	888.94	282.29	1.0803e-05	1.1218e-05	326.44	101.39	84.975	33.774	1.1108e-05	44.537	316.922	249.252	154.316	85.343	250.616	218.243	84.818	90.126	283.118	222.561	88.295	92.791	94.967	99.457	163.930	96.385	-8191	255	
29886.863	1	1	0	0	0.073374	0.22729	0.10104	0.28122	0.23693	0.14407	0.17495	0.17291	0.29775	0.10333	0.21025	0.13495	0.21705	0.32025	0.19486	0.28077	-4.3604	-4.05	-4.8313	-4.3083	-4.425	-4.8396	-4.0979	-4.8333	-4.5875	-4.0292	-4.9604	-4.1813	-4.25	-4.9521	-4.0188	-4.7667	367.583	266.282	317.564	93.033	323.065	265.585	88.362	74.423	163.191	202.594	352.303	150.786	335.731	399.779	279.701	386.026	0.0010848	0.00084692	0.00013338	976.98	9.6882e-06	8.2945e-06	943.21	297.65	1.2288e-05	8.6118e-06	341.23	106.23	88.923	34.697	1.9334e-05	45.801	0.0010032	0.001047	0.00029425	893.17	1.1535e-05	1.17e-05	857.73	272.28	1.163e-05	1.1505e-05	314.12	97.978	81.861	32.328	1.1285e-05	42.325	315.109	169.542	131.717	85.390	226.966	199.492	84.596	90.227	249.605	271.258	88.190	93.136	94.749	99.594	251.062	96.410	-8191	255	
29886.961	1	1	0	0	0.12675	0.042868	0.14618	0.20746	0.1193	0.13473	0.15161	0.2022	0.15867	0.11419	0.36636	0.15288	0.12889	0.32432	0.37136	0.036955	-4.3333	-3.9729	-4.8604	-4.3833	-4.2833	-4.8396	-4.1104	-4.75	-4.5938	-4.0792	-4.9563	-4.4625	-4.1875	-4.8938	-3.8042	-4.6312	121.740	373.755	307.467	380.561	76.109	315.041	392.995	387.775	171.367	372.344	396.985	354.056	145.414	431.003	81.615	383.830	0.0010064	0.000601	0.00010899	970.58	1.6116e-05	3.6459e-06	941.03	296.65	8.3832e-06	6.7234e-06	340.12	104.08	88.385	33.974	9.222e-06	45.044	0.0010037	0.0010353	0.00028386	884.57	1.1101e-05	1.133e-05	853.88	270.22	1.1034e-05	1.1262e-05	313.25	96.457	81.109	31.699	1.103e-05	41.67	316.727	140.719	342.748	85.497	187.391	233.236	84.625	89.960	216.922	175.446	88.495	93.048	94.510	99.713	183.740	96.434	-8191	255	
29887.057	1	1	0	0	0.1585	0.20446	0.31707	0.091318	0.10054	0.076817	0.011057	0.073485	0.23685	0.2388	0.14632	0.073677	0.096651	0.1519	0.19506	0.1732	-4.4833	-3.9292	-4.8812	-4.4771	-4.1167	-5.0354	-4.2271	-4.4208	-4.9187	-4.025	-4.9396	-4.4792	-4.1292	-4.9688	-4.0729	-4.3896	263.199	350.085	171.176	125.797	316.438	382.278	387.635	265.471	289.801	324.764	342.709	375.470	394.521	360.648	186.243	419.607	0.00087286	0.00091469	6.4571e-05	982.22	4.9693e-06	4.037e-06	946.44	298.76	1.1913e-05	6.663e-06	349.07	106.95	89.305	34.652	5.5831e-06	45.274	0.00098883	0.0010174	0.00028477	892.91	1.094e-05	1.0911e-05	864.02	273.44	1.0919e-05	1.1197e-05	319.67	98.257	82.3	32.081	1.1038e-05	42.327	323.699	135.366	97.480	85.330	259.760	314.580	84.651	90.302	212.439	143.775	88.073	92.883	94.761	99.847	243.881	96.491	-8191	255	
29887.152	1	1	0	0	0.27903	0.094093	0.018579	0.2215	0.057279	0.027187	0.20428	0.14802	0.10549	0.049726	0.11319	0.088657	0.32867	0.29193	0.19775	0.10568	-4.55	-3.9688	-4.8083	-4.775	-4.0646	-4.975	-4.3042	-4.4042	-4.9563	-4.0271	-4.8854	-4.65	-4.1167	-4.9062	-4.1333	-4.2229	265.693	97.193	332.335	419.368	86.317	217.029	389.023	406.836	282.866	343.729	107.400	345.280	114.420	394.703	314.322	336.022	0.00084774	0.0015265	0.00012772	1000.4	6.944e-06	3.9378e-06	972.14	304.5	1.047e-05	3.2561e-06	350.71	107.88	88.668	34.12	1.1672e-05	45.317	0.00098192	0.0010063	0.00028093	911.21	1.081e-05	1.1043e-05	884.73	276.47	1.0735e-05	1.1071e-05	322.62	98.882	82.247	31.683	1.0988e-05	41.882	323.940	198.069	133.562	85.078	178.197	280.100	84.831	89.956	265.441	385.862	87.930	93.359	94.455	99.550	207.398	96.640	-8191	255	
29887.248	1	1	0	0	0.084679	0.10776	0.037656	0.26461	0.014361	0.061534	0.060864	0.14988	0.12611	0.17395	0.21395	0.09996	0.14618	0.063392	0.265	0.21443	-4.5938	-3.9854	-4.6813	-4.9333	-3.9562	-5.0563	-4.5021	-4.3562	-4.9458	-4.1583	-4.6125	-4.725	-3.8771	-4.7604	-4.2937	-4.2667	257.208	133.636	228.177	406.880	104.216	129.934	367.935	373.208	189.913	299.691	292.574	81.398	182.669	192.239	304.584	264.227	0.0010148	0.00052489	0.00026442	1005.9	4.339e-06	1.0545e-05	965.09	297.68	6.9714e-06	2.1711e-06	338.4	103.81	86.733	32.66	5.4304e-06	42.707	0.00095726	0.00097525	0.00026884	913.32	1.0582e-05	1.0552e-05	878.22	272.23	1.0255e-05	1.0672e-05	313.14	95.28	80.059	30.391	1.0166e-05	39.781	332.938	183.569	170.206	85.372	293.725	226.917	84.613	89.457	295.251	379.699	88.132	93.295	94.620	99.468	262.769	96.388	-8191	255	
29887.369	1	1	0	0	0.11224	0.32164	0.20803	0.096735	0.1585	0.13981	0.020657	0.042231	0.22818	0.1767	0.20853	0.32401	0.10293	0.06191	0.15396	0.21197	-4.6937	-4.0229	-4.4146	-4.8875	-3.8958	-4.7604	-4.6375	-4.1167	-4.9729	-4.2104	-4.4062	-4.9375	-4.0229	-4.9042	-4.5667	-4.1687	398.348	131.584	255.978	145.120	317.924	232.447	277.065	264.423	98.218	126.414	75.222	325.785	299.298	317.230	240.650	299.250	0.00092584	0.00094674	5.2657e-05	981.64	2.7659e-06	1.4164e-05	931.71	291.26	1.1541e-05	1.0718e-05	334.27	100.51	84.852	31.655	1.2e-05	40.97	0.00089988	0.00092488	0.00025794	889.5	1.0093e-05	1.0227e-05	846.95	266.57	1.0115e-05	1.0459e-05	305.28	92.256	78.26	29.474	1.024e-05	38.257	327.310	193.955	134.089	85.117	178.692	219.099	84.677	90.147	197.182	229.827	88.011	93.309	94.131	99.396	191.920	96.932	-8191	255	
29887.463	1	1	0	0	0.10813	0.10462	0.11882	0.10601	0.15862	0.18265	0.07692	0.058397	0.23664	0.11266	0.068708	0.073438	0.20806	0.11018	0.091544	0.0952	-4.5333	-4.2104	-4.2021	-4.9792	-3.9062	-4.6729	-4.6438	-4.1792	-5.0042	-4.1521	-4.3229	-4.9208	-3.9333	-4.6104	-4.6375	-4.0479	205.490	406.582	241.726	398.006	94.391	315.582	303.251	398.591	204.295	350.631	395.536	180.462	387.995	251.550	407.506	241.474	0.00095029	0.00043831	0.00025494	963.55	5.9657e-06	4.67e-06	936.96	290.42	1.7715e-05	5.4491e-06	332.9	99.678	83.7	31.236	5.8591e-06	40.67	0.00090006	0.00093885	0.00025607	877.24	1.009e-05	1.0248e-05	843.03	264.06	9.9856e-06	1.0199e-05	304.86	91.736	77.595	29.171	1.0432e-05	37.948	304.509	110.324	146.665	85.562	324.483	411.139	84.482	89.409	272.530	194.154	88.124	92.437	94.831	99.695	314.337	96.615	-8191	255	
29887.537	1	1	0	0	0.23743	0.11444	0.35549	0.098946	0.097318	0.16413	0.14798	0.14706	0.090324	0.32439	0.1102	0.16048	0.038071	0.13751	0.25428	0.18888	-4.5625	-4.3042	-4.1333	-5.1396	-3.9896	-4.4729	-4.9479	-4	-4.7792	-4.2875	-4.1229	-5.1438	-4.1917	-4.6292	-4.6729	-4.0396	152.490	201.489	283.454	238.052	240.179	241.451	379.387	123.346	348.585	214.531	304.669	330.602	430.813	307.517	140.510	423.573	0.00096712	0.00021907	0.00013475	961.16	1.2886e-05	2.3564e-06	932.46	287.73	9.1658e-06	3.0338e-06	333.52	99.984	85.116	31.863	5.3099e-06	41.75	0.00091701	0.00093665	0.00026151	877.11	1.0167e-05	1.0344e-05	844.51	263.5	1.0396e-05	1.0354e-05	305.95	92.154	78.463	29.479	1.0234e-05	38.564	312.427	311.824	195.756	85.400	210.444	216.278	84.696	89.703	202.625	95.160	88.150	92.528	94.175	98.912	336.792	96.417	-8191	255	
29887.633	1	1	0	0	0.29475	0.083869	0.070548	0.081498	0.088925	0.085628	0.11019	0.19156	0.066813	0.037416	0.40013	0.21796	0.32962	0.10061	0.065578	0.18366	-4.4479	-4.4062	-4.3083	-5.1062	-4.0146	-4.3229	-4.8917	-4.0854	-4.7792	-4.5042	-4.2438	-5.0104	-4.1833	-4.4625	-4.8562	-4.125	164.280	147.786	389.018	407.397	92.328	324.945	208.131	427.997	367.301	153.497	372.370	392.837	345.541	414.932	153.484	337.419	0.0009989	0.00092107	0.00013024	975.57	3.272e-06	9.1485e-06	948.97	295.22	1.7296e-05	3.0564e-06	340.15	103.24	86.151	31.981	6.6867e-06	42.35	0.00092953	0.0009499	0.00026701	887.54	1.0289e-05	1.034e-05	856.41	268.27	1.0474e-05	1.0451e-05	311.59	94.485	79.437	29.858	1.0438e-05	39.434	318.334	244.833	228.954	85.406	133.594	235.621	84.521	89.647	303.973	168.527	87.872	92.659	95.101	99.585	283.007	96.687	-8191	255	
29887.752	1	1	0	0	0.044294	0.25752	0.20788	0.20838	0.20129	0.10701	0.33861	0.14581	0.13874	0.12716	0.28787	0.028561	0.23802	0.052866	0.11068	0.17378	-4.5	-4.7292	-3.9521	-4.9458	-4.1167	-4.1229	-5.0354	-4.1083	-4.4812	-4.625	-4.1042	-4.925	-4.3333	-4.1104	-4.8854	-4.1479	139.612	260.743	355.400	362.096	396.449	272.003	397.204	355.131	270.506	294.777	295.788	204.073	93.060	79.723	334.874	141.244	0.0010594	0.0010059	0.00021157	981.94	4.3642e-06	9.2619e-06	936.96	293.15	3.4342e-06	1.2078e-05	336.85	101.31	84.78	31.778	7.7427e-06	41.43	0.00092674	0.00096017	0.00026651	889.49	1.0288e-05	1.0422e-05	852.56	267.38	1.0138e-05	1.0232e-05	309.3	93.155	78.329	29.647	1.0114e-05	38.606	313.865	126.009	163.035	85.176	225.338	216.163	84.690	89.755	120.715	267.736	88.364	92.916	94.679	99.470	167.966	96.347	-8191	255	
29887.848	1	1	0	0	0.17342	0.11192	0.23569	0.097501	0.069145	0.14578	0.16837	0.17113	0.12263	0.077647	0.083969	0.093817	0.044107	0.17828	0.024029	0.15181	-4.2208	-4.7729	-3.9042	-4.9271	-4.4896	-4.2208	-4.9479	-4.2167	-4.5479	-4.725	-4.0042	-4.9271	-4.6312	-4.0729	-4.8354	-4.2417	271.033	141.192	177.004	350.803	202.005	297.740	389.710	365.096	214.102	167.029	188.245	201.834	385.302	358.124	193.568	314.311	0.00088356	0.0009906	0.00016418	963.25	9.9305e-06	5.0131e-06	930.06	291.43	1.4437e-05	6.8487e-06	330.64	99.948	84.728	31.584	1.195e-05	41.163	0.00091173	0.00091833	0.00026341	877.7	9.9252e-06	9.9752e-06	841.06	264.33	9.9773e-06	1.0208e-05	303.28	91.58	78.082	29.304	1.0027e-05	38.146	315.279	199.480	193.304	85.151	283.000	148.720	84.533	89.782	267.037	195.767	87.645	92.583	95.105	99.442	233.902	96.132	-8191	255	
29887.943	1	1	0	0	0.27686	0.22034	0.19275	0.096981	0.29235	0.1512	0.17634	0.0957	0.075859	0.121	0.038907	0.1183	0.16576	0.34108	0.1524	0.14646	-3.9979	-4.775	-3.8583	-4.7521	-4.4604	-3.9583	-4.9396	-4.4563	-4.3292	-4.8104	-4.1312	-4.8229	-4.7083	-4.05	-4.8521	-4.1458	305.392	265.031	270.943	329.614	153.101	242.736	343.969	303.823	223.476	192.006	418.095	154.268	332.235	357.380	236.805	362.854	0.00089253	0.00057043	9.7483e-05	959.21	3.6365e-06	1.4527e-05	931.21	290.16	1.0771e-05	8.0891e-06	331.41	100.42	84.674	31.762	7.938e-06	41.658	0.00090533	0.00094567	0.00025764	874.22	1.0075e-05	1.0102e-05	840.58	263.94	1.0065e-05	1.0028e-05	305.31	92.365	78.101	29.519	1.0136e-05	38.618	332.728	209.968	112.307	85.211	211.354	257.206	84.436	89.809	252.170	192.144	87.816	92.751	94.948	98.892	338.674	96.631	-8191	255	
29888.039	1	1	0	0	0.05272	0.15272	0.087866	0.31197	0.17341	0.12263	0.12622	0.19999	0.2022	0.1775	0.042745	0.26434	0.099139	0.16814	0.079967	0.033865	-3.9188	-4.8042	-3.9437	-4.6625	-4.6208	-4.0458	-5.0208	-4.4333	-4.1875	-4.9479	-4.1062	-4.6312	-4.8562	-4.0208	-4.7396	-4.3333	259.346	205.719	106.430	364.091	379.947	94.717	316.082	378.055	131.215	126.001	379.804	395.484	91.923	202.752	173.685	80.809	0.0007451	0.0010808	0.0001783	976.29	6.7888e-06	8.3551e-06	943.71	293.81	5.5757e-06	5.3879e-06	339.61	102.1	85.58	32.153	8.8605e-06	42.227	0.00089517	0.00092555	0.00026284	884.73	1.0183e-05	1.0199e-05	854.2	267.92	1.0159e-05	1.0167e-05	310.7	93.689	79.119	29.811	1.0144e-05	39.244	319.118	194.363	429.017	85.079	272.030	172.920	84.428	89.510	191.221	152.988	87.817	93.118	94.390	99.222	264.029	96.551	-8191	255	
29888.160	1	1	0	0	0.29714	0.046558	0.054539	0.21541	0.1501	0.17406	0.17457	0.13829	0.3689	0.15663	0.16173	0.33179	0.28181	0.18653	0.033307	0.17776	-3.7792	-4.9375	-3.8167	-4.6	-4.6021	-3.9479	-4.9958	-4.4083	-4.075	-4.8083	-4.3583	-4.3083	-4.8	-4.0604	-4.6562	-4.7854	183.325	97.507	209.096	304.783	311.114	188.670	354.863	410.474	193.416	340.404	357.420	298.950	128.924	414.113	76.889	387.927	0.00084935	0.00055926	9.3184e-05	983.89	1.0101e-05	9.0227e-06	962.63	296.77	3.8961e-06	1.1405e-05	344.95	104.09	86.995	32.782	4.8252e-06	42.94	0.00092813	0.00092213	0.00026143	895.94	1.0331e-05	1.0478e-05	868.78	270.57	1.0364e-05	1.035e-05	315.62	95.312	80.377	30.383	1.0421e-05	40.067	322.134	147.006	332.579	85.110	248.944	220.378	84.409	89.854	156.861	184.516	88.096	92.966	94.852	99.123	124.526	96.572	-8191	255	
29888.232	1	1	0	0	0.22911	0.11309	0.21448	0.27775	0.049806	0.17482	0.083853	0.11537	0.048866	0.12243	0.044579	0.083237	0.13808	0.41107	0.14363	0.26643	-3.725	-4.8979	-4.2729	-4.4229	-4.8812	-3.8771	-4.8604	-4.5938	-3.9521	-5.0292	-4.425	-4.2021	-4.9333	-4.0458	-4.5333	-4.7688	282.886	132.980	235.830	72.970	187.093	425.449	363.830	408.051	364.035	293.967	113.782	236.277	431.411	381.401	365.588	294.446	0.00074948	0.0006111	0.00023374	986.22	1.0013e-05	7.0415e-06	943.57	294.67	1.4412e-05	6.5648e-06	337.73	102.72	85.648	32.161	9.655e-06	41.484	0.00091701	0.00092977	0.00026646	895.73	1.0044e-05	1.0388e-05	857.84	268.43	1.0107e-05	9.9869e-06	309.95	93.89	78.672	29.767	1.0209e-05	38.656	314.951	89.015	127.000	85.353	264.523	115.761	84.397	89.754	286.553	176.933	87.929	92.852	94.893	99.145	173.641	96.593	-8191	255	
29888.354	1	1	0	0	0.07346	0.1895	0.046312	0.022672	0.13624	0.070506	0.21622	0.066349	0.26199	0.079425	0.017676	0.15402	0.10861	0.14727	0.18405	0.12527	-3.55	-4.925	-4.4187	-4.2333	-4.7771	-3.9771	-4.575	-4.8479	-3.9229	-4.7729	-4.5167	-4.3146	-5.025	-4.0563	-4.3271	-4.7833	130.687	154.041	169.891	232.915	342.331	249.216	334.525	134.754	169.667	149.752	316.117	369.095	150.398	307.938	364.118	351.646	0.0006777	0.00067601	0.00014202	967.46	1.3788e-05	9.6714e-06	913.97	287.4	5.2098e-06	7.7302e-06	331.15	100.41	83.473	31.682	1.4214e-05	41.595	0.00088078	0.00091937	0.00025904	877.6	9.9152e-06	1.0057e-05	834.82	263.24	9.7133e-06	1.0183e-05	304.25	92.125	77.572	29.518	9.8335e-06	38.582	299.952	196.195	255.244	85.019	218.576	271.041	84.304	90.353	314.420	209.664	88.011	92.687	94.768	99.506	189.257	96.302	-8191	255	
29888.449	1	1	0	0	0.20534	0.092886	0.055408	0.16565	0.19414	0.18876	0.075461	0.32694	0.065195	0.050661	0.15872	0.20653	0.089323	0.030864	0.12357	0.14067	-3.5896	-4.5917	-4.6125	-4.1271	-4.8812	-4.0333	-4.4833	-4.9146	-3.8833	-4.7833	-4.7625	-4.0188	-5.0042	-4.4271	-4.3792	-4.975	104.120	213.054	96.005	385.748	303.422	254.262	355.633	383.297	332.122	225.990	358.268	96.453	367.819	89.673	167.869	431.269	0.0008401	0.00066406	0.00010021	962.76	7.2616e-06	3.217e-06	922.19	292.51	1.2182e-05	5.4118e-06	333.83	102.09	85.192	32.583	1.1305e-05	41.941	0.00089533	0.00091095	0.00025691	874.83	1.0071e-05	1.0401e-05	838.75	265.26	9.8922e-06	1.0114e-05	306.76	93.167	78.511	30.042	1.0252e-05	39.131	317.454	215.923	182.139	85.248	169.736	138.456	84.531	89.748	229.852	242.817	88.063	92.527	94.439	99.384	241.955	95.835	-8191	255	
29888.543	1	1	0	0	0.084032	0.23687	0.22838	0.18224	0.19406	0.33913	0.060541	0.14716	0.24205	0.16635	0.027453	0.11592	0.090032	0.30114	0.12321	0.15199	-3.7167	-4.6917	-4.4104	-4.2146	-4.9	-4.1896	-4.4521	-4.8458	-3.9833	-4.5583	-4.7979	-3.9771	-4.8083	-4.3375	-4.1417	-4.9396	75.248	333.658	146.361	359.573	161.590	409.637	402.003	126.738	259.874	412.224	79.385	137.342	184.360	96.453	172.041	196.423	0.0012043	0.0012637	8.9631e-05	969.28	8.4847e-06	2.1868e-06	931.75	292.27	1.2754e-05	8.7194e-06	333.95	101.82	85.513	32.559	1.0784e-05	42.982	0.00093347	0.00094994	0.0002585	878.48	1.0223e-05	1.043e-05	847.36	266.5	1.0273e-05	1.0211e-05	308.69	93.727	79.077	30.307	1.0515e-05	39.999	323.681	159.308	113.423	84.640	180.269	73.322	84.516	90.002	228.701	97.833	87.998	93.117	94.510	99.570	192.476	96.686	-8191	255	
29888.641	1	1	0	0	0.070407	0.12653	0.0087046	0.070761	0.11264	0.19419	0.33176	0.07602	0.14739	0.040143	0.17146	0.15872	0.11176	0.10885	0.20031	0.20715	-3.8375	-4.2812	-4.7625	-4.0104	-4.8708	-4.4437	-4.1667	-4.9396	-4.0583	-4.5146	-4.8167	-3.9375	-4.775	-4.5958	-4.125	-4.9896	298.904	108.980	268.865	289.954	98.978	427.977	385.682	348.039	320.335	384.218	104.646	428.837	174.572	251.230	123.601	429.969	0.00082763	0.0010288	4.3772e-05	978.08	5.381e-06	2.971e-06	947.92	296.45	6.199e-06	3.7058e-06	348.22	106.06	87.741	33.538	1.0484e-05	44.238	0.00091529	0.00097498	0.00026977	889.15	1.0306e-05	1.0562e-05	860.14	270.89	1.0368e-05	1.0529e-05	316.6	97.165	81.101	31.264	1.0567e-05	41.046	312.712	181.480	258.767	84.979	304.533	223.739	84.277	90.023	134.540	144.758	88.016	92.823	94.581	99.188	200.482	96.406	-8191	255	
29888.760	1	1	0	0	0.13321	0.092116	0.1005	0.043377	0.12464	0.14262	0.2228	0.19829	0.096128	0.26753	0.25715	0.28947	0.13498	0.081643	0.2099	0.11253	-3.8792	-4.2083	-4.6042	-3.975	-4.6354	-4.4896	-4.1542	-5.0062	-4.1687	-4.3646	-5.0354	-3.9854	-4.6667	-4.7708	-4.1083	-4.9187	147.949	222.407	379.945	428.948	242.899	260.590	318.512	390.268	274.717	293.461	387.983	72.678	117.579	412.890	144.126	158.774	0.00094483	0.00078171	0.00019128	979.13	8.1611e-06	9.6019e-06	942.3	295.5	1.8134e-05	6.701e-06	339.73	103.04	85.925	32.691	1.3709e-05	42.602	0.00092619	0.00095022	0.00026632	889.53	1.039e-05	1.056e-05	855.55	268.52	1.0424e-05	1.0605e-05	311.17	94.133	79.405	30.427	1.0345e-05	39.635	308.488	204.599	163.351	85.160	184.461	184.212	84.420	89.930	246.350	212.261	88.148	92.642	94.597	99.445	205.556	96.248	-8191	255	
29888.832	1	1	0	0	0.16078	0.17987	0.27884	0.20726	0.047216	0.16011	0.36045	0.098883	0.14672	0.2661	0.15642	0.20858	0.11652	0.085931	0.037868	0.11729	-3.9479	-4.1188	-4.9563	-4.1292	-4.6229	-4.7312	-4.1	-4.9667	-4.3229	-3.9396	-4.7875	-4.0917	-4.5146	-4.75	-4.025	-4.8333	210.314	359.054	199.882	349.743	180.039	158.136	358.799	97.438	189.991	279.393	388.447	411.894	297.066	210.288	277.212	123.918	0.0010006	0.0006969	9.9886e-05	960.21	1.0017e-05	6.7082e-06	929.82	292.13	2.1473e-05	5.0567e-06	333.49	102.19	85.541	32.422	6.2624e-06	42.392	0.00091363	0.00094114	0.00026743	876.16	1.0088e-05	1.0385e-05	843.45	265.09	1.0056e-05	1.0497e-05	307.79	93.954	79.274	30.221	1.0351e-05	39.524	320.482	208.959	409.017	85.317	205.657	217.122	84.339	89.679	213.356	308.981	87.682	92.734	94.318	99.332	209.893	96.541	-8191	255	
29888.928	1	1	0	0	0.19658	0.2119	0.10067	0.054472	0.1655	0.084153	0.038806	0.062561	0.073466	0.17714	0.19638	0.090994	0.1489	0.28921	0.054422	0.069827	-4.1354	-4.1354	-4.8542	-4.1146	-4.5042	-4.8417	-4.0813	-4.7854	-4.4167	-4.1729	-5.0938	-4.2229	-4.4292	-4.8688	-3.9167	-4.7708	138.077	237.234	329.877	332.473	401.408	188.456	236.350	171.685	115.794	178.169	379.232	405.747	353.780	80.463	412.446	272.861	0.00075366	0.00033749	0.00014834	962.99	4.6893e-06	6.1622e-06	932.4	291.08	1.4321e-05	4.7431e-06	339.06	101.96	86.109	32.207	7.2076e-06	42.619	0.00092201	0.00093828	0.00026051	877.68	1.0271e-05	1.0315e-05	845.9	264.93	1.0158e-05	1.0306e-05	309.24	93.633	78.813	30.047	1.013e-05	39.383	313.029	416.563	240.248	85.274	138.408	276.137	84.512	89.746	218.038	280.221	88.025	92.882	94.386	99.473	237.445	96.147	-8191	255	
#DATA ENDS
