BOXY.EXE: ISS Imagent and Oximeter Data Acquisition Program Version 0.80
Ascii Record File

#ACQ INFORMATION
2  Detector Channels 
16  External MUX Channels 
1  Auxiliary Channels 
5000  Waveform (CCF) Frequency (Hz)
1  Waveforms Skipped 
30  Waveforms Averaged 
1  Cycles Averaged 
16  Acquisitions per Waveform 
10.0806  Updata Rate (Hz) 

#FILE INFORMATION
TRUE -- External MUX Channel results are PARSED.
FALSE -- AC DC and Phase are NOT grouped.
TRUE -- Companion Program Settings File CREATED.
FALSE -- AC data not excluded
FALSE -- DC data not excluded
FALSE -- Phase data not excluded
FALSE -- Auxillary Chn. data not excluded
Tab delimiters

#CALIBRATION STATE
TRUE -- Waveform Calibration Values APPLIED.


#AUX CALIBRATION VALUES
Val Type	aux-1	

Term	1.0000e+00	
Factor	0.0000e+00	


#WF CALIBRATION VALUES
A = Detector Channel
Val Type	A-AC1	A-AC2	A-AC3	A-AC4	A-AC5	A-AC6	A-AC7	A-AC8	A-AC9	A-AC10	A-AC11	A-AC12	A-AC13	A-AC14	A-AC15	A-AC16	A-DC1	A-DC2	A-DC3	A-DC4	A-DC5	A-DC6	A-DC7	A-DC8	A-DC9	A-DC10	A-DC11	A-DC12	A-DC13	A-DC14	A-DC15	A-DC16	A-Ph1	A-Ph2	A-Ph3	A-Ph4	A-Ph5	A-Ph6	A-Ph7	A-Ph8	A-Ph9	A-Ph10	A-Ph11	A-Ph12	A-Ph13	A-Ph14	A-Ph15	A-Ph16	

Term	0.00000e+00	0.00000e+00	0.00000e+00	0.00000e+00	0.00000e+00	0.00000e+00	0.00000e+00	0.00000e+00	0.00000e+00	0.00000e+00	0.00000e+00	0.00000e+00	0.00000e+00	0.00000e+00	0.00000e+00	0.00000e+00	0.00000e+00	0.00000e+00	0.00000e+00	0.00000e+00	0.00000e+00	0.00000e+00	0.00000e+00	0.00000e+00	0.00000e+00	0.00000e+00	0.00000e+00	0.00000e+00	0.00000e+00	0.00000e+00	0.00000e+00	0.00000e+00	0.00000e+00	0.00000e+00	0.00000e+00	0.00000e+00	0.00000e+00	0.00000e+00	0.00000e+00	0.00000e+00	0.00000e+00	0.00000e+00	0.00000e+00	0.00000e+00	0.00000e+00	0.00000e+00	0.00000e+00	0.00000e+00	
Factor	1.00000e+00	1.00000e+00	1.00000e+00	1.00000e+00	1.00000e+00	1.00000e+00	1.00000e+00	1.00000e+00	1.00000e+00	1.00000e+00	1.00000e+00	1.00000e+00	1.00000e+00	1.00000e+00	1.00000e+00	1.00000e+00	1.00000e+00	1.00000e+00	1.00000e+00	1.00000e+00	1.00000e+00	1.00000e+00	1.00000e+00	1.00000e+00	1.00000e+00	1.00000e+00	1.00000e+00	1.00000e+00	1.00000e+00	1.00000e+00	1.00000e+00	1.00000e+00	X	X	X	X	X	X	X	X	X	X	X	X	X	X	X	X	

B = Detector Channel
Val Type	B-AC1	B-AC2	B-AC3	B-AC4	B-AC5	B-AC6	B-AC7	B-AC8	B-AC9	B-AC10	B-AC11	B-AC12	B-AC13	B-AC14	B-AC15	B-AC16	B-DC1	B-DC2	B-DC3	B-DC4	B-DC5	B-DC6	B-DC7	B-DC8	B-DC9	B-DC10	B-DC11	B-DC12	B-DC13	B-DC14	B-DC15	B-DC16	B-Ph1	B-Ph2	B-Ph3	B-Ph4	B-Ph5	B-Ph6	B-Ph7	B-Ph8	B-Ph9	B-Ph10	B-Ph11	B-Ph12	B-Ph13	B-Ph14	B-Ph15	B-Ph16	

Term	0.00000e+00	0.00000e+00	0.00000e+00	0.00000e+00	0.00000e+00	0.00000e+00	0.00000e+00	0.00000e+00	0.00000e+00	0.00000e+00	0.00000e+00	0.00000e+00	0.00000e+00	0.00000e+00	0.00000e+00	0.00000e+00	0.00000e+00	0.00000e+00	0.00000e+00	0.00000e+00	0.00000e+00	0.00000e+00	0.00000e+00	0.00000e+00	0.00000e+00	0.00000e+00	0.00000e+00	0.00000e+00	0.00000e+00	0.00000e+00	0.00000e+00	0.00000e+00	-8.19876e+01	-1.12488e+02	-1.32334e+02	-1.83765e+02	-5.47796e+01	-7.96704e+01	-1.58050e+02	-1.62015e+02	-4.66416e+01	-8.78703e+01	-1.70682e+02	-1.70765e+02	-1.77608e+02	-1.76832e+02	-7.22374e+01	-1.49734e+02	
Factor	1.97146e-05	1.23164e-04	3.32636e-05	1.69880e-01	1.09298e-06	1.11543e-06	1.82340e-01	6.04400e-02	9.77201e-07	1.31635e-06	1.00421e-01	3.42866e-02	2.87001e-02	1.09200e-02	1.35373e-06	1.56389e-02	8.88536e-07	9.06807e-07	2.53891e-07	8.32282e-02	9.95797e-09	9.96105e-09	8.40902e-02	2.94902e-02	9.96807e-09	9.92728e-09	4.65780e-02	1.59708e-02	1.39218e-02	5.21665e-03	9.98655e-09	7.18501e-03	X	X	X	X	X	X	X	X	X	X	X	X	X	X	X	X	



#DISTANCE SETTINGS
A = Detector Channel
A-1	A-2	A-3	A-4	A-5	A-6	A-7	A-8	A-9	A-10	A-11	A-12	A-13	A-14	A-15	A-16	

2.5000e+00	3.0000e+00	2.5000e+00	3.0000e+00	2.0000e+00	3.0000e+00	1.5000e+00	3.0000e+00	3.0000e+00	3.0000e+00	3.0000e+00	3.0000e+00	3.0000e+00	3.0000e+00	1.5000e+00	3.0000e+00	

B = Detector Channel
B-1	B-2	B-3	B-4	B-5	B-6	B-7	B-8	B-9	B-10	B-11	B-12	B-13	B-14	B-15	B-16	

1.0000e+01	1.0000e+01	1.0000e+01	1.4400e+00	1.0000e+01	1.0000e+01	1.5100e+00	1.9400e+00	1.0000e+01	1.0000e+01	1.9900e+00	2.4900e+00	2.4100e+00	2.9000e+00	1.0000e+01	2.9800e+00	




#DATA BEGINS
time	group	step	mark	flag	A-AC1	A-AC2	A-AC3	A-AC4	A-AC5	A-AC6	A-AC7	A-AC8	A-AC9	A-AC10	A-AC11	A-AC12	A-AC13	A-AC14	A-AC15	A-AC16	A-DC1	A-DC2	A-DC3	A-DC4	A-DC5	A-DC6	A-DC7	A-DC8	A-DC9	A-DC10	A-DC11	A-DC12	A-DC13	A-DC14	A-DC15	A-DC16	A-Ph1	A-Ph2	A-Ph3	A-Ph4	A-Ph5	A-Ph6	A-Ph7	A-Ph8	A-Ph9	A-Ph10	A-Ph11	A-Ph12	A-Ph13	A-Ph14	A-Ph15	A-Ph16	B-AC1	B-AC2	B-AC3	B-AC4	B-AC5	B-AC6	B-AC7	B-AC8	B-AC9	B-AC10	B-AC11	B-AC12	B-AC13	B-AC14	B-AC15	B-AC16	B-DC1	B-DC2	B-DC3	B-DC4	B-DC5	B-DC6	B-DC7	B-DC8	B-DC9	B-DC10	B-DC11	B-DC12	B-DC13	B-DC14	B-DC15	B-DC16	B-Ph1	B-Ph2	B-Ph3	B-Ph4	B-Ph5	B-Ph6	B-Ph7	B-Ph8	B-Ph9	B-Ph10	B-Ph11	B-Ph12	B-Ph13	B-Ph14	B-Ph15	B-Ph16	aux-1	digaux	

7258.993	1	1	0	768	0.11941	0.39017	0.087112	0.13934	0.14132	0.16441	0.29847	0.32054	0.093998	0.16309	0.077707	0.4433	0.29271	0.24829	0.043018	0.18065	-1.8375	-2.2354	-2.9479	-2.4542	-2.3563	-2.8208	-2.3979	-2.6688	-2.4688	-2.1063	-2.9042	-2.4	-2.3292	-2.9479	-2.0729	-2.5458	254.681	419.533	383.231	376.872	274.520	344.156	321.117	98.193	349.173	416.487	379.890	396.498	403.846	328.058	150.973	213.997	0.0004678	0.00034133	0.00031444	1355.8	4.174e-06	2.7473e-06	1357.6	366.06	3.0396e-06	8.2043e-06	418.23	138.83	121.06	41.782	4.1661e-06	51.822	0.00053964	0.00048809	0.00015171	1380.7	5.75e-06	5.5261e-06	1376.2	374.73	5.8727e-06	5.3339e-06	426.72	143.42	124.07	42.761	6.0969e-06	53.264	212.808	202.565	146.530	74.175	170.678	73.979	74.315	79.131	263.533	183.086	78.616	83.123	83.596	87.783	302.298	87.101	-8191	255	
7259.089	1	1	0	0	0.1387	0.20049	0.096926	0.20101	0.12671	0.047484	0.41192	0.12916	0.30708	0.16169	0.15969	0.042882	0.12573	0.1148	0.1436	0.25318	-2.2771	-2.1354	-2.7875	-2.4333	-2.0729	-2.8208	-2.3521	-2.6479	-2.6396	-2.1458	-2.7271	-2.2896	-2.325	-2.7833	-1.975	-2.5208	164.419	103.242	203.119	366.731	395.081	180.008	357.612	302.214	205.210	232.139	396.264	68.253	353.865	393.994	156.213	330.469	0.00030637	0.00045544	0.00018584	1363	6.9048e-06	1.9901e-06	1358.9	365.97	2.361e-06	3.6069e-06	419.23	139.74	121.83	41.765	6.5665e-06	51.693	0.00052838	0.00049002	0.00015759	1376.4	5.5777e-06	5.5044e-06	1378.1	373.85	5.6568e-06	5.338e-06	427.94	143.22	123.98	42.763	6.1989e-06	53.067	205.559	145.793	165.381	74.255	232.122	212.207	74.341	79.063	261.524	192.749	78.533	83.321	83.691	87.848	214.888	86.974	-8191	255	
7259.185	1	1	0	0	0.31505	0.15043	0.084329	0.14193	0.14756	0.25767	0.24714	0.45235	0.2166	0.062868	0.19253	0.058748	0.24186	0.20539	0.13639	0.25736	-2.2875	-2.0312	-2.7021	-2.5583	-2.3	-2.8792	-2.325	-2.7083	-2.6437	-2.0604	-2.7417	-2.5396	-2.1583	-2.625	-2.3167	-2.5083	297.151	84.234	154.822	333.090	281.950	204.938	288.267	383.775	124.271	338.166	324.558	269.993	412.643	348.228	224.222	359.035	0.00038582	0.0006773	0.00023089	1357.4	1.1727e-06	1.0557e-05	1356.6	365.16	2.6514e-06	5.369e-06	419.41	140	121.51	41.862	4.3207e-06	51.544	0.00051058	0.00050177	0.00015932	1376.9	5.3606e-06	5.7247e-06	1379.1	373.19	5.5334e-06	5.6828e-06	427.9	143.02	123.43	42.935	6.2042e-06	52.957	202.048	185.148	151.789	74.324	222.649	200.779	74.476	79.176	246.958	143.626	78.417	83.393	83.570	87.991	211.239	87.076	-8191	255	
7259.282	1	1	0	0	0.273	0.024047	0.04297	0.33337	0.090426	0.12667	0.21659	0.13665	0.29308	0.20454	0.29611	0.077818	0.11346	0.12674	0.27984	0.33556	-2.3333	-2.0646	-2.6292	-2.7604	-2.0208	-2.7271	-2.525	-2.4917	-2.8167	-2.2229	-2.6792	-2.8438	-2.0896	-2.9396	-2.3458	-2.1708	209.696	135.293	417.077	372.061	410.089	235.989	365.625	350.620	260.524	311.457	345.971	386.717	244.916	310.010	143.183	116.779	0.00039043	0.00068482	0.0001343	1357.4	1.5744e-06	6.683e-06	1360.3	366.24	3.0906e-06	8.0541e-06	419.56	140.24	121.77	41.988	9.6742e-06	51.908	0.00050459	0.00053007	0.00015618	1377	5.2812e-06	5.9978e-06	1378.2	373.13	5.4671e-06	6.0052e-06	427.74	143.21	123.9	43.264	6.0965e-06	52.987	203.199	158.342	416.404	73.946	270.209	209.091	73.827	78.879	233.223	191.754	77.761	82.782	83.445	87.608	248.480	86.447	-8191	255	
7259.378	1	1	0	0	0.1356	0.30727	0.062667	0.45655	0.19932	0.2806	0.23795	0.29725	0.34992	0.39587	0.13108	0.16957	0.14893	0.1836	0.127	0.39263	-2.2	-2	-2.5292	-2.7521	-2.1292	-2.6583	-2.5	-2.3792	-2.7917	-2.1	-2.3542	-2.6417	-2.15	-2.7042	-2.2354	-2.3083	112.570	241.512	109.149	351.824	74.100	60.965	340.319	275.547	263.981	268.114	417.048	120.865	80.561	140.100	192.507	382.527	0.00052387	0.00053508	0.00012218	1361.4	3.7413e-06	4.2762e-06	1359.1	367.06	8.5684e-06	3.4355e-06	418.91	139.93	121.69	42.055	5.4154e-06	52.09	0.00050653	0.0005564	0.00015213	1376.8	5.4292e-06	6.2623e-06	1379.1	373.55	5.6505e-06	6.2821e-06	426.58	142.82	124.2	43.304	5.9543e-06	52.91	210.844	143.631	127.430	74.090	247.295	209.831	74.043	78.820	208.551	283.388	77.909	83.145	83.350	87.572	182.410	86.608	-8191	255	
7259.474	1	1	0	0	0.1569	0.11653	0.16335	0.18294	0.26023	0.1712	0.25826	0.056155	0.12811	0.051071	0.25877	0.15906	0.14526	0.098928	0.12232	0.32569	-2.6042	-2.0312	-2.2917	-2.8688	-2.1979	-2.7417	-2.8438	-2.2313	-2.7146	-2.2458	-2.4542	-2.7708	-2.1896	-2.6854	-2.7208	-2.2687	401.520	130.256	157.833	362.269	399.832	259.491	308.533	312.345	86.968	174.836	345.184	101.199	399.189	385.297	386.824	395.808	0.00050083	0.00085486	0.00010764	1358.2	4.3128e-06	2.5696e-06	1358	368.08	6.8369e-06	8.7888e-07	421.12	140.01	121.99	41.879	8.491e-06	52.031	0.00052677	0.00057667	0.00014883	1374.5	5.7468e-06	6.2674e-06	1377.4	373.72	5.9537e-06	6.2739e-06	426.81	142.74	124.76	43.191	5.8919e-06	52.79	214.218	194.833	279.948	73.802	207.999	143.701	74.010	78.897	251.574	193.261	77.927	83.259	83.353	87.438	210.078	86.650	-8191	255	
7259.593	1	1	0	0	0.014106	0.041639	0.036701	0.18592	0.063852	0.054162	0.12023	0.041687	0.076424	0.11105	0.15776	0.15099	0.21756	0.22764	0.17262	0.11182	-2.425	-2.0646	-2.15	-2.8396	-2.1729	-2.7271	-2.8292	-2.4479	-2.7479	-2.4375	-2.4062	-2.8792	-2.1063	-2.6854	-2.6437	-2.1271	306.171	322.268	317.175	332.927	364.960	242.431	318.352	171.257	298.553	316.551	60.889	392.273	80.102	324.460	152.222	336.419	0.00049637	0.00039796	0.00012069	1360.2	6.5245e-06	4.4393e-06	1362.2	368.41	6.1322e-06	6.9215e-06	420.12	140.31	121.61	41.93	4.5411e-06	51.813	0.00055986	0.00056977	0.00014581	1374.2	6.1271e-06	6.1256e-06	1375.6	373.61	6.265e-06	6.1563e-06	425.95	142.86	125.13	43.107	5.8451e-06	52.93	219.707	176.101	132.818	73.957	246.493	196.724	73.757	78.541	270.163	260.608	78.065	83.081	83.341	87.606	218.010	86.525	-8191	255	
7259.689	1	1	0	0	0.28271	0.025134	0.056014	0.15871	0.12115	0.16881	0.2391	0.14785	0.19468	0.2669	0.19518	0.14468	0.21744	0.10627	0.03964	0.1541	-2.3479	-2.4146	-2.1104	-2.9062	-2.0958	-2.3708	-2.8083	-2.2896	-2.8021	-2.5	-2.3917	-2.8563	-2.3979	-2.6479	-2.725	-2.3333	410.375	102.960	171.319	379.567	346.718	267.219	387.695	293.615	172.881	190.814	372.416	405.274	353.056	80.054	242.830	348.689	0.00040371	0.00064372	0.00014459	1358.5	8.1405e-06	2.6671e-06	1359.8	367.67	5.4337e-06	7.4683e-06	419.17	140.24	121.37	41.78	8.867e-06	52.079	0.00058371	0.00055521	0.00014272	1377.8	6.4271e-06	6.0436e-06	1377.1	374.1	6.4105e-06	5.9938e-06	424.71	143.41	125.25	42.956	5.7055e-06	53.175	212.749	214.888	197.089	73.755	237.961	376.803	74.117	78.810	300.786	99.094	77.938	83.077	83.417	87.569	165.356	86.837	-8191	255	
7259.785	1	1	0	0	0.2536	0.18869	0.032742	0.081522	0.12052	0.12397	0.20185	0.13871	0.046172	0.094287	0.2116	0.11967	0.19306	0.19414	0.069176	0.10331	-2.1312	-2.3208	-2.0875	-3.0104	-2.1167	-2.5021	-2.9313	-2.3167	-2.575	-2.5667	-2.1771	-2.9625	-2.4604	-2.3125	-2.7313	-2.1333	122.995	295.542	308.469	269.748	362.628	348.673	102.599	366.396	252.700	290.531	96.891	216.279	394.601	163.578	279.462	61.269	0.00041967	0.00037961	7.3587e-05	1355.7	5.9172e-06	4.3107e-06	1358.1	367.99	4.7847e-06	5.2578e-06	419.08	140.17	121.77	41.924	8.4353e-06	52.15	0.00058438	0.00054545	0.00013973	1379.8	6.4255e-06	5.86e-06	1375.8	375.62	6.3414e-06	5.9526e-06	424.52	143.85	125.18	42.947	5.6165e-06	53.444	208.945	400.892	234.414	73.878	240.563	247.109	73.930	78.749	232.896	203.684	77.884	82.731	83.311	87.477	196.878	86.808	-8191	255	
7259.881	1	1	0	0	0.50376	0.088682	0.04674	0.28089	0.097134	0.14026	0.30947	0.14607	0.090779	0.20269	0.28639	0.19438	0.11674	0.28973	0.1329	0.28025	-2.0896	-2.7625	-2.1125	-3.025	-2.3563	-2.2229	-2.9208	-2.2458	-2.7146	-2.6792	-2.2396	-2.7188	-2.2875	-2.1875	-2.8271	-2.1937	116.176	208.093	386.103	417.097	253.800	207.619	369.522	372.940	393.785	186.875	320.422	390.308	172.979	398.191	211.977	297.512	0.00039694	0.00055855	0.0001105	1359.2	2.0495e-06	2.1523e-07	1359.6	367.49	7.9338e-06	4.3361e-06	419.67	140.27	121.73	41.897	7.2038e-06	52.107	0.00056726	0.00053699	0.00013836	1383.3	6.2315e-06	5.7146e-06	1375.8	375.98	6.096e-06	5.8227e-06	425.34	144.31	124.98	42.877	5.7677e-06	53.633	201.196	253.036	144.320	73.825	261.831	389.686	74.112	78.593	418.058	172.303	77.868	82.914	83.356	87.309	186.687	86.573	-8191	255	
7259.977	1	1	0	0	0.046416	0.21791	0.23471	0.18673	0.025969	0.17734	0.36363	0.14624	0.13358	0.30458	0.030374	0.33468	0.28785	0.22805	0.24627	0.22518	-2.1667	-2.7167	-1.8854	-2.7479	-2.5146	-2.1125	-2.9104	-2.4979	-2.4	-2.8771	-2.3458	-2.7354	-2.5167	-2.1333	-2.7313	-2.4021	358.287	168.316	203.545	126.649	313.493	219.796	336.862	71.158	339.565	135.574	72.915	327.316	334.915	326.258	86.814	226.070	0.00035181	0.00054606	0.00017307	1361	3.7964e-06	4.9171e-06	1363.7	368.03	4.0615e-06	8.0034e-06	419.41	140.59	122.02	41.857	1.0602e-05	52.083	0.00055094	0.00052488	0.00014419	1384.1	6.0722e-06	5.5374e-06	1378.1	376.38	5.9218e-06	5.7103e-06	425.84	144.18	124.86	42.832	6.0676e-06	53.555	215.541	254.706	126.139	73.896	262.226	187.083	73.831	78.888	337.767	221.446	77.924	82.944	83.317	87.290	224.804	86.635	-8191	255	
7260.073	1	1	0	0	0.21079	0.10364	0.16268	0.009833	0.15132	0.22538	0.31812	0.18265	0.10856	0.19721	0.28385	0.17532	0.27783	0.2648	0.1768	0.12681	-1.95	-2.6104	-2.0604	-2.8833	-2.5625	-2.0521	-3.0167	-2.4813	-2.3271	-2.6667	-2.1417	-2.6021	-2.6813	-2.3104	-2.8563	-2.2833	272.457	297.784	73.220	147.227	128.397	274.700	328.605	308.755	203.285	321.899	103.420	401.700	402.045	77.282	363.277	367.022	0.00039542	0.00037033	0.00021133	1360.9	8.3262e-06	2.9578e-06	1361.5	366.64	1.1688e-06	5.4697e-06	420.68	139.71	121.79	41.853	7.7648e-06	51.788	0.00053792	0.00051301	0.00015322	1382.3	5.9552e-06	5.3912e-06	1381.5	375.6	5.765e-06	5.55e-06	428.6	143.73	124.63	42.71	6.3015e-06	53.372	210.821	139.397	124.135	73.610	257.875	158.040	73.916	78.743	107.299	211.945	77.935	82.887	83.156	87.145	193.231	86.396	-8191	255	
7260.194	1	1	0	0	0.18413	0.1166	0.22332	0.11035	0.12098	0.21555	0.065071	0.23461	0.11036	0.06663	0.32858	0.33604	0.11396	0.17786	0.18322	0.56387	-1.9375	-2.6604	-2.0438	-2.6979	-2.6375	-2.1583	-3.0875	-2.5812	-2.1271	-2.6292	-2.2604	-2.6271	-2.7687	-2.1833	-2.8104	-2.575	127.071	357.298	174.610	352.189	289.710	235.957	312.232	305.824	66.967	183.863	61.729	75.784	134.842	220.303	176.170	328.592	0.000348	0.00042733	8.8196e-05	1365.5	2.6571e-06	2.4025e-06	1360.3	366.07	1.0626e-06	5.0262e-06	421.16	140.39	121.58	41.837	1.5666e-06	51.804	0.00052273	0.00051489	0.0001604	1382.8	5.8713e-06	5.5338e-06	1381.7	375.41	5.6521e-06	5.712e-06	429.57	143.48	124.37	42.813	6.4279e-06	53.31	214.315	160.871	102.494	73.763	329.867	218.558	73.777	78.563	245.471	131.423	77.899	82.606	83.390	87.194	134.293	86.290	-8191	255	
7260.290	1	1	0	0	0.1985	0.096354	0.2096	0.23981	0.12801	0.064733	0.17508	0.2275	0.24004	0.34099	0.24045	0.23096	0.096911	0.13286	0.056106	0.1909	-1.7792	-2.7167	-2.1542	-2.65	-2.8792	-2.1354	-2.6958	-2.6125	-2.2979	-2.6937	-2.4104	-2.3979	-2.8563	-2.1833	-2.4792	-2.6125	324.879	188.571	194.571	406.821	361.204	163.758	375.610	62.738	210.718	366.183	297.066	127.344	327.872	124.738	368.137	365.941	0.00034702	0.00086516	8.661e-05	1364.4	3.1184e-06	1.2223e-05	1360.9	368	2.0874e-06	7.0503e-06	418.97	140.12	121.36	41.863	7.0601e-06	51.796	0.0005095	0.00053565	0.00016281	1380.4	5.6883e-06	5.7858e-06	1383.2	375.2	5.5087e-06	6.012e-06	429.22	143.2	124.07	42.961	6.3592e-06	53.197	201.573	181.715	181.160	73.411	340.504	237.885	73.852	78.538	90.288	187.798	77.596	82.700	83.335	87.179	261.206	86.473	-8191	255	
7260.385	1	1	0	0	0.19646	0.10639	0.052163	0.091971	0.074259	0.16511	0.45104	0.11342	0.28856	0.26079	0.15911	0.37261	0.28215	0.1543	0.051766	0.18652	-1.6708	-2.6063	-2.2958	-2.625	-2.7375	-2.1521	-2.7687	-3.0125	-2.2354	-2.6771	-2.3021	-2.1542	-2.8042	-2.3708	-2.6208	-2.6458	397.260	103.134	318.151	337.650	266.486	283.514	343.315	370.450	353.709	193.016	243.628	329.480	404.001	319.964	415.212	351.242	0.00035511	0.0010224	3.6886e-05	1360.3	3.4247e-06	6.3583e-06	1357.3	367.14	7.6681e-06	2.1923e-06	420.19	139.61	121.69	41.778	9.2178e-06	51.854	0.00050007	0.00056339	0.00016097	1377.5	5.6564e-06	6.1734e-06	1380.8	374.68	5.4575e-06	6.259e-06	428.54	142.72	124.08	43.132	6.1665e-06	53.168	220.789	135.902	303.922	73.690	181.973	204.483	73.707	78.785	223.108	97.558	77.952	82.908	83.363	87.397	157.980	86.708	-8191	255	
7260.481	1	1	0	0	0.079173	0.36898	0.21272	0.2677	0.064191	0.022053	0.34816	0.31613	0.064044	0.063521	0.37453	0.24022	0.374	0.12749	0.32202	0.31408	-1.8333	-2.6583	-2.4771	-2.3187	-2.6479	-2.175	-2.8208	-2.8833	-2.2354	-2.7292	-2.4833	-2.4188	-2.9354	-2.2458	-2.2396	-2.8917	218.085	74.947	197.352	315.584	169.896	274.820	406.147	81.383	274.832	364.704	354.608	358.640	295.359	417.708	405.528	386.214	0.00050948	0.00050736	8.859e-05	1356.3	9.679e-06	8.6765e-06	1361.4	366.09	5.9777e-06	3.1669e-06	417.37	139.4	121.62	41.763	6.7879e-06	51.838	0.00050677	0.00058012	0.0001581	1374.8	5.7882e-06	6.4214e-06	1378.6	373.88	5.7192e-06	6.5099e-06	426.96	142.58	124.25	43.255	5.9857e-06	53.19	210.247	172.218	140.319	73.754	229.530	196.280	73.744	78.841	260.471	107.370	77.874	82.906	83.397	87.381	177.502	86.734	-8191	255	
7260.554	1	1	0	0	0.13423	0.23899	0.089248	0.138	0.1866	0.096477	0.18792	0.18548	0.25471	0.15325	0.13859	0.061022	0.15951	0.34599	0.29107	0.052086	-1.7125	-2.7521	-2.3708	-2.3646	-2.8021	-2.4354	-2.5146	-2.7479	-2.1562	-2.7458	-2.5375	-2.3646	-2.8875	-2.4	-2.2542	-2.8229	83.324	91.300	145.712	126.710	235.607	325.178	102.249	364.600	113.376	216.564	152.912	388.994	382.218	407.268	331.513	247.615	0.0004926	0.00024382	2.3121e-05	1356.1	1.0268e-05	1.0013e-05	1360.7	366.54	6.953e-06	3.9711e-06	419.85	139.86	121.04	41.809	5.0091e-06	51.74	0.00053996	0.00058953	0.00015433	1374.6	6.0871e-06	6.4773e-06	1376.3	373.76	6.0546e-06	6.3541e-06	426.54	142.38	124.8	43.175	5.835e-06	52.985	202.209	240.301	133.476	73.772	229.390	212.044	73.758	78.793	197.554	95.033	78.139	82.659	83.719	87.472	352.435	86.755	-8191	255	
7260.673	1	1	0	0	0.20737	0.073091	0.14068	0.29247	0.32838	0.14509	0.41525	0.32243	0.077326	0.27833	0.14644	0.2012	0.10119	0.03854	0.18326	0.051156	-1.6542	-2.5812	-2.4542	-2.4813	-2.7667	-2.2375	-2.4437	-2.8354	-2.1979	-2.5208	-2.7104	-2.3083	-2.7979	-2.4646	-2.1583	-2.8604	347.303	89.197	212.926	360.138	218.442	115.434	366.176	363.649	95.265	353.674	379.577	116.820	331.938	172.693	111.107	74.963	0.0004517	0.00041991	0.00011439	1357.2	4.0857e-06	1.448e-06	1356.3	367.03	5.4101e-06	9.0358e-07	418.86	139.11	121.25	41.785	6.9462e-06	51.537	0.00056849	0.00057105	0.0001519	1373.8	6.38e-06	6.2419e-06	1373.2	373.69	6.3078e-06	6.1323e-06	426.03	142.34	125.03	43.084	5.6318e-06	52.998	208.772	236.097	369.452	73.731	230.764	118.061	73.918	78.781	187.632	247.638	78.046	82.680	83.609	87.487	242.168	86.833	-8191	255	
7260.769	1	1	0	0	0.11088	0.25208	0.13721	0.14727	0.23994	0.15902	0.13151	0.13568	0.18991	0.16942	0.26486	0.092517	0.46331	0.2022	0.31538	0.024355	-1.8917	-2.5729	-2.5083	-2.2271	-2.6063	-2.2917	-2.4167	-2.9604	-2.3688	-2.3917	-2.9208	-2.3229	-2.95	-2.5292	-2.1875	-2.7083	394.757	109.514	193.243	86.329	145.312	84.020	311.555	329.896	154.813	78.277	402.322	393.348	61.721	311.646	209.952	263.741	0.00042525	0.00037786	9.3168e-05	1353.5	5.985e-06	4.4272e-06	1358.3	365.52	6.3789e-06	2.4735e-06	419.05	139.44	121.45	41.816	4.1708e-06	51.879	0.00058309	0.0005492	0.00014741	1373.8	6.4827e-06	6.0862e-06	1372.6	373.81	6.4579e-06	5.9355e-06	425.2	142.83	125.09	42.948	5.4923e-06	53.25	207.334	209.779	93.155	73.855	235.666	195.750	74.080	78.915	219.811	101.896	78.143	83.048	83.633	87.560	156.790	86.810	-8191	255	
7260.865	1	1	0	0	0.26199	0.32912	0.24522	0.45107	0.055294	0.14004	0.25923	0.10504	0.39296	0.15113	0.2435	0.070444	0.27885	0.37289	0.22157	0.20117	-1.8854	-2.2125	-2.7646	-2.3479	-2.5979	-2.4938	-2.35	-2.8458	-2.3542	-2.3771	-2.8854	-2.1771	-2.6125	-2.7604	-1.9604	-2.6521	113.774	406.950	158.885	384.524	153.116	102.901	330.470	70.472	159.269	383.485	412.502	408.186	371.371	384.134	242.421	349.263	0.00042363	0.00033174	0.00019946	1360	6.554e-06	1.2853e-06	1358.4	367.27	2.6467e-06	5.546e-06	419.18	139.54	121.31	41.75	7.0725e-06	51.593	0.00058456	0.00053521	0.0001433	1376.4	6.3383e-06	5.9704e-06	1371.2	375.13	6.378e-06	5.8006e-06	425.2	143.48	124.85	42.987	5.4512e-06	53.405	208.916	113.552	74.278	73.828	187.881	311.181	73.877	78.767	308.130	154.668	78.171	82.854	83.411	87.571	186.293	86.613	-8191	255	
7260.962	1	1	0	0	0.21016	0.073726	0.10674	0.15051	0.25973	0.20338	0.13617	0.1885	0.28576	0.081519	0.19168	0.20924	0.16663	0.21085	0.018095	0.2146	-1.9083	-2.1417	-2.6271	-2.1958	-2.4771	-2.6354	-2.2	-2.6479	-2.4125	-2.1354	-2.8729	-2.3042	-2.4625	-2.7188	-1.9542	-2.6354	134.503	65.704	122.772	66.222	281.698	408.814	414.159	278.416	194.354	171.738	372.023	169.395	210.698	92.889	392.683	399.281	0.00035216	0.00014518	0.00015381	1357.9	4.6578e-06	2.6572e-06	1357.1	366.83	2.1387e-06	1.891e-06	418.71	139.76	121.37	41.689	7.476e-06	52.007	0.00056907	0.00052055	0.00014459	1379.9	6.1292e-06	5.8557e-06	1371	376.08	6.1718e-06	5.6211e-06	425.52	143.82	124.51	42.899	5.685e-06	53.527	201.134	308.027	148.068	73.880	237.230	222.752	74.040	78.868	299.097	260.047	78.201	83.186	83.163	87.421	256.769	86.855	-8191	255	
7261.082	1	1	0	0	0.14424	0.17588	0.12545	0.21241	0.24721	0.24638	0.38599	0.09148	0.18467	0.055685	0.27137	0.22606	0.42224	0.14426	0.15622	0.12132	-2.0271	-2.0458	-2.8875	-2.4396	-2.3937	-2.5687	-2.2167	-2.7146	-2.4583	-2.3229	-2.8833	-2.3917	-2.3708	-2.7562	-2.2938	-2.5292	154.774	145.541	414.315	313.006	174.349	98.024	376.532	395.144	268.848	338.790	299.403	95.111	76.559	90.098	350.612	188.494	0.00048003	0.00060863	0.00015194	1352	5.7095e-06	1.1211e-06	1359.8	366.1	2.8003e-06	1.0677e-06	418.9	139.43	121.67	41.779	1.1751e-05	51.905	0.00055958	0.00050903	0.00014889	1378.9	5.9255e-06	5.7056e-06	1373.7	375.74	6.0118e-06	5.472e-06	426.4	143.66	124.3	42.778	5.9766e-06	53.39	205.704	141.609	121.131	73.957	235.609	139.891	73.838	78.835	209.570	154.544	78.139	82.848	83.104	87.274	198.320	86.804	-8191	255	
7261.154	1	1	0	0	0.08714	0.081812	0.11896	0.17085	0.039862	0.17726	0.18913	0.2862	0.41537	0.16592	0.041975	0.048467	0.047648	0.12327	0.064461	0.20882	-2.0667	-2.1625	-2.5542	-2.5479	-2.2125	-2.6354	-2.2208	-2.6333	-2.5292	-2.1083	-2.8396	-2.4083	-2.2792	-2.7542	-2.1708	-2.775	285.741	381.865	243.431	62.563	151.219	333.327	320.758	83.270	159.620	193.647	409.738	64.389	396.040	352.145	98.546	120.927	0.00034426	0.00046578	0.00025092	1358.2	9.0127e-07	1.5677e-06	1358.3	367.88	4.801e-06	5.5417e-06	418.53	139.51	121.4	41.883	9.3858e-06	51.477	0.00054417	0.00049263	0.0001566	1379.8	5.7581e-06	5.605e-06	1376.7	374.99	5.8347e-06	5.3736e-06	427.56	143.27	123.95	42.723	6.2553e-06	53.099	204.032	120.293	136.099	73.580	418.059	300.085	73.839	78.563	203.144	156.014	78.335	82.794	83.283	87.776	234.857	86.834	-8191	255	
7261.274	1	1	0	0	0.18115	0.25237	0.25193	0.2164	0.32716	0.30862	0.13021	0.22907	0.12398	0.3724	0.24317	0.21626	0.27087	0.17517	0.20937	0.1789	-2.225	-2.2083	-2.7958	-2.6729	-2.4104	-2.7771	-2.2396	-2.6708	-2.6979	-2.0563	-2.6625	-2.4938	-2.3187	-2.8917	-2.2125	-2.6229	402.091	409.436	251.643	96.887	136.723	299.162	378.522	369.296	354.964	419.121	115.817	101.715	368.641	118.701	166.857	358.391	0.00037671	0.00046307	0.00023359	1354.2	7.0637e-06	6.6315e-06	1363.4	365.75	2.9247e-06	8.998e-06	419.25	139.51	121.94	41.73	5.509e-06	51.685	0.00053004	0.00049625	0.00016041	1376.1	5.6093e-06	5.6879e-06	1378.3	373.59	5.6684e-06	5.4915e-06	427.84	143.07	123.95	42.758	6.3324e-06	52.985	201.917	136.223	152.257	73.782	276.620	202.180	74.009	78.765	229.407	198.736	78.273	82.630	83.144	87.610	207.430	86.699	-8191	255	
7261.371	1	1	0	0	0.23271	0.29472	0.26387	0.24117	0.13009	0.035205	0.059338	0.20363	0.11179	0.18493	0.13152	0.20816	0.21733	0.21736	0.19518	0.12585	-2.4479	-2.1979	-2.6208	-2.5792	-2.1854	-2.9104	-2.4417	-2.4771	-2.6625	-1.95	-2.525	-2.5875	-2.1979	-2.6833	-2.2125	-2.1937	236.670	157.563	252.139	360.386	172.016	143.457	354.168	396.380	365.292	326.589	350.684	385.660	416.494	341.306	286.024	80.602	0.00042085	0.00081948	0.0001762	1359.5	3.4247e-06	8.2748e-06	1360.9	366.76	2.3497e-06	7.3022e-06	421.14	139.55	122.01	41.921	4.69e-06	52.009	0.00051541	0.0005172	0.00015981	1376.2	5.4395e-06	5.8693e-06	1377.7	373.02	5.5404e-06	5.8531e-06	428.45	143.06	123.51	43.045	6.2516e-06	53.017	205.737	157.735	145.233	73.743	254.016	195.313	73.929	78.685	103.865	203.679	78.020	82.897	83.341	87.441	141.566	86.321	-8191	255	
7261.465	1	1	0	0	0.022818	0.3351	0.10179	0.18863	0.058833	0.18386	0.094063	0.2717	0.16332	0.17307	0.085276	0.084267	0.2326	0.056887	0.15508	0.079595	-2.2021	-2.0979	-2.5333	-2.6917	-1.9229	-2.7646	-2.4333	-2.2604	-2.7146	-2.1125	-2.4437	-2.5729	-2.1167	-2.625	-2.4	-2.1875	246.119	192.890	97.843	353.194	299.891	360.067	366.121	329.227	411.001	86.222	382.982	326.243	75.097	312.095	197.520	132.318	0.00040913	0.00068516	3.149e-05	1360.6	3.838e-06	3.022e-06	1358.6	367.48	5.3303e-06	5.7399e-06	421.06	139.3	121.5	41.745	5.8857e-06	51.791	0.00050845	0.00055029	0.00015533	1375.7	5.3629e-06	6.1469e-06	1375.9	373.15	5.5293e-06	6.0978e-06	426.45	142.54	123.31	43.11	6.0691e-06	52.829	214.681	177.435	266.960	73.808	243.767	136.323	73.764	78.515	232.101	216.225	77.900	82.695	83.132	87.122	270.758	86.453	-8191	255	
7261.563	1	1	0	0	0.039373	0.3073	0.1133	0.19929	0.1448	0.21461	0.27935	0.44024	0.10562	0.12088	0.099018	0.051279	0.27999	0.12739	0.17697	0.28285	-2.3	-2.175	-2.4833	-2.8646	-1.8625	-2.5083	-2.4771	-2.3125	-2.6562	-2.2458	-2.4583	-2.8771	-2.1083	-2.7292	-2.6292	-2.1875	172.211	385.880	128.293	368.060	369.146	304.058	402.082	402.267	394.741	280.327	172.169	280.903	302.811	315.491	388.844	136.156	0.00051477	0.0004612	0.00011897	1358.8	6.5495e-06	3.6998e-06	1353.4	367.72	9.3071e-06	5.422e-06	420.61	139.95	121.95	41.879	7.7068e-06	51.897	0.00051086	0.00057073	0.00015075	1373.1	5.5137e-06	6.2647e-06	1373.1	372.41	5.6834e-06	6.211e-06	425.02	142.64	123.82	43.143	5.9333e-06	52.784	209.549	185.090	118.909	73.590	188.358	133.613	73.894	78.555	261.396	141.175	77.703	82.649	83.068	86.985	175.368	86.481	-8191	255	
7261.682	1	1	0	0	0.25862	0.13867	0.2275	0.15245	0.17852	0.082169	0.25952	0.36657	0.035479	0.22208	0.30898	0.38907	0.14978	0.27523	0.18733	0.10281	-2.3479	-2.1167	-2.2167	-2.9354	-2.0375	-2.6479	-2.8375	-2.0563	-2.7542	-2.2292	-2.5938	-2.8208	-2.2	-2.6312	-2.7	-2.425	113.642	313.504	63.652	406.558	61.159	320.815	379.416	385.818	115.889	105.214	378.199	357.228	320.337	370.311	239.782	334.114	0.00050549	0.00055644	0.0002171	1360.1	2.4032e-06	4.1293e-06	1358.7	367.68	9.2563e-06	2.2274e-06	415.64	139.18	122.11	41.759	2.9377e-06	51.934	0.00053912	0.00056899	0.0001457	1372.1	5.838e-06	6.2013e-06	1373.6	371.68	6.008e-06	6.1455e-06	423.45	142.15	124.47	43.005	5.7707e-06	52.592	207.198	141.819	121.448	73.545	210.769	88.155	73.656	78.352	259.606	71.229	77.481	82.579	82.883	87.060	153.929	86.281	-8191	255	
7261.778	1	1	0	0	0.17333	0.021361	0.11758	0.30529	0.11885	0.14274	0.11052	0.23998	0.18366	0.27084	0.29705	0.1795	0.18415	0.15118	0.072876	0.25248	-2.3458	-2.2146	-2.3771	-2.8667	-2.1958	-2.65	-2.9083	-2.2021	-2.4771	-2.2708	-2.5521	-2.7292	-2.1083	-2.6979	-2.6875	-2.3021	88.520	219.768	212.588	389.452	80.011	222.010	402.360	368.776	291.054	311.287	378.093	319.976	363.853	120.803	398.288	393.822	0.00041092	0.00049944	6.8389e-05	1357.7	9.5515e-06	1.7949e-06	1359.2	366.39	7.0098e-06	4.3937e-06	418.58	139.13	121.39	41.79	1.759e-06	51.943	0.00056481	0.00055648	0.00014228	1371.7	6.0941e-06	5.9853e-06	1371.6	371.92	6.2222e-06	5.9636e-06	423.4	142.31	124.48	42.905	5.6048e-06	52.843	209.981	398.838	405.487	73.656	263.090	355.552	73.620	78.367	217.241	261.600	77.616	82.547	82.772	87.076	232.342	86.248	-8191	255	
7261.850	1	1	0	0	0.071143	0.07449	0.36952	0.2478	0.25751	0.1497	0.2985	0.53589	0.16893	0.18347	0.22438	0.19931	0.10652	0.20605	0.12281	0.28275	-2.3958	-2.3354	-2.0875	-2.975	-2.0687	-2.5271	-2.8208	-2.1625	-2.7646	-2.425	-2.1896	-2.8812	-2.3292	-2.5438	-2.8063	-2.1854	330.926	180.744	99.130	357.641	304.433	166.843	393.217	359.986	114.506	395.267	374.650	319.733	311.523	102.137	139.003	327.597	0.00040659	0.00013185	0.00015472	1356.7	5.7932e-06	2.0012e-06	1354.7	366.18	2.7396e-06	3.0357e-06	417.55	139.82	121.3	41.852	7.6188e-06	51.666	0.00056527	0.00053332	0.00013754	1373	6.1897e-06	5.7232e-06	1369.3	372.55	6.2046e-06	5.7455e-06	422.04	142.78	124.63	42.841	5.4938e-06	52.864	199.616	78.081	130.180	73.507	264.963	123.033	73.549	78.502	172.255	190.935	77.487	82.598	82.897	87.160	185.844	86.469	-8191	255	
7261.970	1	1	0	0	0.10529	0.13179	0.20227	0.17532	0.20243	0.19511	0.08592	0.16567	0.19761	0.21109	0.18418	0.097736	0.071883	0.2116	0.067038	0.10593	-2.3396	-2.4604	-2.0375	-2.8375	-2.2958	-2.4542	-2.9604	-2.1229	-2.4271	-2.4062	-2.3646	-2.7375	-2.4292	-2.2687	-2.8208	-1.9042	111.006	170.573	233.235	399.892	212.472	167.436	152.052	266.747	405.910	106.909	248.093	290.966	335.576	364.096	308.118	379.830	0.00034126	0.00024396	0.00012329	1352.7	4.5513e-06	2.9617e-06	1358.4	366.31	2.9092e-06	7.1964e-06	416.91	139.57	121.7	41.784	8.6072e-06	51.858	0.00055901	0.00052439	0.0001337	1374.7	6.1296e-06	5.5404e-06	1369.1	373.49	5.9887e-06	5.6237e-06	421.53	143.34	124.43	42.725	5.4181e-06	53.153	209.807	218.360	307.426	73.648	156.544	160.234	73.593	78.304	323.728	229.445	77.285	82.352	83.052	86.943	202.157	86.036	-8191	255	
7262.066	1	1	0	0	0.12572	0.21173	0.0073177	0.28825	0.1077	0.27563	0.32562	0.11142	0.084427	0.22287	0.20413	0.41619	0.10227	0.18053	0.064927	0.19027	-2.0354	-2.6813	-2.0417	-2.7854	-2.4146	-2.2417	-2.8271	-2.2604	-2.5583	-2.4625	-2.05	-2.7875	-2.2146	-2.2167	-2.7687	-2.2875	104.179	240.117	359.495	60.673	369.274	376.811	399.385	402.623	69.240	178.047	70.792	363.227	185.928	414.702	128.948	394.492	0.0003451	0.00027251	0.00026314	1356.7	4.1656e-06	6.7662e-07	1355	366.46	4.4811e-06	2.2439e-06	418.94	139.65	121.11	41.572	7.2605e-06	51.798	0.00053522	0.00050718	0.00013477	1375.8	5.8608e-06	5.4096e-06	1368.6	374.19	5.7789e-06	5.4449e-06	423.12	143.24	123.92	42.543	5.5896e-06	53.194	200.760	167.960	176.872	73.481	75.846	398.095	73.617	78.398	250.532	181.295	77.559	82.482	83.059	86.967	215.092	85.937	-8191	255	
7262.163	1	1	0	0	0.21677	0.13624	0.24693	0.079333	0.1721	0.10451	0.29621	0.17391	0.26381	0.18017	0.37612	0.2191	0.14964	0.40896	0.25442	0.19424	-1.8208	-2.7417	-2.0812	-2.9229	-2.4688	-2.2438	-2.8771	-2.4229	-2.3208	-2.5896	-2.0417	-2.7313	-2.7542	-2.2812	-2.85	-2.1208	394.642	343.683	209.206	337.924	280.989	296.806	363.630	276.042	323.942	308.510	82.434	387.250	295.812	62.633	171.155	82.545	0.00041054	0.00030072	0.00020969	1354.9	1.096e-05	2.9261e-06	1356.7	365.7	2.6077e-06	6.6769e-06	419.78	139.68	121.65	41.622	9.3552e-06	51.904	0.00051569	0.00049217	0.00013865	1375.1	5.711e-06	5.2027e-06	1370.8	373.59	5.5217e-06	5.3297e-06	423.75	143.36	123.85	42.504	5.8226e-06	53.131	190.334	99.637	124.705	73.266	196.239	289.864	73.650	78.273	235.232	204.132	77.787	82.579	82.943	86.877	220.852	86.033	-8191	255	
7262.259	1	1	0	0	0.18479	0.052324	0.044312	0.23058	0.11563	0.18048	0.32779	0.48261	0.16267	0.29215	0.27769	0.13029	0.1695	0.17773	0.25744	0.20763	-1.6854	-2.4667	-2.0979	-2.7979	-2.5292	-2.1896	-2.9188	-2.5	-2.1813	-2.4604	-2.15	-2.3125	-2.6396	-2.2958	-2.6229	-2.4854	243.202	361.729	321.441	364.995	217.488	94.518	343.549	398.250	69.434	395.420	72.450	380.720	350.850	392.759	165.939	355.567	0.00036175	0.00052671	0.00014394	1352.2	2.4682e-06	3.6702e-06	1354.5	364.56	4.8416e-06	3.833e-06	415.81	139.79	120.71	41.696	9.0929e-06	51.761	0.00050354	0.00048636	0.00014784	1373.8	5.5871e-06	5.1547e-06	1372	372.77	5.465e-06	5.2946e-06	424.49	142.93	123.51	42.491	6.028e-06	52.97	212.083	216.703	148.251	73.342	215.151	180.528	73.458	78.188	247.485	179.349	77.638	82.141	82.860	86.887	220.962	86.205	-8191	255	
7262.378	1	1	0	0	0.13162	0.23976	0.24023	0.32731	0.19127	0.29457	0.22464	0.13232	0.15883	0.054019	0.26376	0.10633	0.26122	0.25935	0.14442	0.31649	-1.7875	-2.6646	-1.9167	-2.4875	-2.7062	-2.0563	-2.925	-2.6208	-2.0604	-2.6021	-2.1917	-2.4479	-2.8271	-2.0854	-2.5438	-2.4792	298.054	74.164	67.108	380.245	122.940	160.742	397.389	299.506	357.793	134.468	379.394	362.260	320.057	92.186	299.602	321.158	0.00039116	0.00017561	0.00021554	1351.6	6.9877e-06	6.254e-06	1353.8	365.53	3.5489e-06	3.7515e-06	417.35	139.45	120.87	41.719	2.0938e-06	51.84	0.00048626	0.00049145	0.00015363	1372.5	5.4512e-06	5.3087e-06	1372.7	372.21	5.288e-06	5.4302e-06	425.55	142.41	123.24	42.624	6.0595e-06	52.877	214.785	140.064	102.903	73.136	256.110	224.430	73.616	78.160	333.479	302.685	77.547	82.278	83.001	87.048	247.528	86.329	-8191	255	
7262.451	1	1	0	0	0.18874	0.19156	0.10056	0.02248	0.10627	0.18747	0.33828	0.12598	0.055639	0.055137	0.16726	0.26991	0.14678	0.25916	0.26772	0.15607	-1.6562	-2.8438	-2.0625	-2.6	-2.7625	-2.1229	-2.7042	-2.6417	-2.0812	-2.8583	-2.2438	-2.2271	-2.7896	-2.0979	-2.4188	-2.6063	63.834	241.723	72.350	91.801	109.971	181.508	413.593	320.987	388.299	240.884	419.008	347.023	390.540	378.085	173.562	275.790	0.000397	0.0012254	0.00018795	1354.7	5.6408e-06	6.0719e-06	1350.2	364.83	3.5496e-06	1.6863e-05	417.16	139.37	121.42	41.691	5.6676e-06	51.901	0.00047549	0.00051363	0.00015368	1369.3	5.3264e-06	5.5815e-06	1372.4	372.08	5.1467e-06	5.7345e-06	425.18	142.21	123.33	42.849	5.9305e-06	52.795	188.976	154.509	173.963	73.383	217.019	197.051	73.631	78.468	330.995	198.091	77.496	82.282	83.134	86.728	222.352	86.369	-8191	255	
7262.545	1	1	0	0	0.27637	0.11018	0.1058	0.1108	0.20885	0.17318	0.03102	0.29659	0.26859	0.23353	0.12006	0.244	0.15774	0.085419	0.22051	0.2014	-1.6063	-2.75	-2.3271	-2.3875	-2.5	-2.1437	-2.7229	-2.7667	-2.1417	-2.7042	-2.4562	-2.2875	-2.8104	-2.2938	-2.3479	-2.5062	155.947	408.873	77.278	402.688	241.988	182.723	410.624	371.304	110.769	411.159	366.971	71.657	70.618	122.756	209.053	386.928	0.00042465	0.0007328	0.00015449	1350.8	5.1582e-06	6.9815e-06	1353.8	364.28	6.4512e-06	6.1652e-06	417.37	140.28	121.69	41.804	3.1388e-06	51.798	0.00047509	0.00053965	0.00014992	1369.3	5.3156e-06	5.8892e-06	1371.8	371.23	5.215e-06	5.9954e-06	424.27	142.04	123.37	42.902	5.681e-06	52.688	204.462	153.953	143.597	73.293	196.393	197.995	73.576	78.445	242.873	193.842	77.786	82.263	83.022	86.972	103.690	86.168	-8191	255	
7262.643	1	1	0	0	0.14736	0.16308	0.20831	0.43407	0.15453	0.058096	0.24595	0.15271	0.036489	0.0657	0.16453	0.35172	0.15039	0.24462	0.21276	0.12663	-1.6187	-2.5083	-2.3667	-2.3208	-2.7292	-2.1917	-2.5542	-2.8438	-2.1771	-2.6167	-2.5375	-2.1708	-2.7188	-2.1813	-2.3083	-2.6958	376.044	300.615	273.940	60.716	170.987	255.613	283.469	404.060	371.954	124.828	96.686	346.552	99.318	383.986	83.266	287.288	0.00051687	0.00082872	0.00015458	1351.4	8.1086e-06	7.3215e-06	1352.8	363.39	5.9787e-06	7.2342e-06	418.05	139.08	121.41	41.517	8.7206e-06	51.839	0.00048569	0.00055128	0.00014534	1364.8	5.481e-06	5.9687e-06	1368.6	370.87	5.4325e-06	5.9909e-06	423.45	141.46	123.63	42.853	5.5574e-06	52.684	205.881	190.722	141.277	73.368	223.821	241.636	73.262	78.347	266.124	149.151	77.612	82.352	82.856	86.880	249.814	86.372	-8191	255	
7262.762	1	1	0	0	0.089546	0.073981	0.12476	0.18738	0.32482	0.33997	0.051498	0.10372	0.2294	0.16259	0.14474	0.36223	0.32903	0.10702	0.17756	0.27953	-1.6146	-2.4833	-2.4542	-2.3792	-2.5062	-2.3354	-2.5167	-2.7229	-2.1	-2.4875	-2.5208	-2.2792	-2.775	-2.4583	-2.3	-2.8125	256.063	177.524	174.384	98.923	136.043	70.211	332.215	419.230	328.791	207.680	388.087	353.412	400.964	298.049	333.789	322.374	0.00044291	0.00041724	8.3e-05	1346.8	4.6384e-06	4.8377e-06	1355.5	364.93	8.3119e-06	5.9129e-06	417.15	139.12	121.1	41.676	2.3981e-06	51.844	0.00051453	0.00054822	0.00014394	1365.4	5.8083e-06	5.9693e-06	1368.4	370.89	5.8262e-06	5.902e-06	423	141.71	124.18	42.806	5.4292e-06	52.558	205.518	182.848	66.324	73.126	216.701	157.979	73.345	78.289	244.812	79.045	77.545	82.321	82.957	87.022	228.963	86.452	-8191	255	
7262.858	1	1	0	0	0.42898	0.090511	0.089925	0.23043	0.23604	0.10952	0.16705	0.13478	0.077856	0.11744	0.22971	0.2388	0.08825	0.32085	0.085854	0.11821	-1.6104	-2.4729	-2.4188	-2.3063	-2.8354	-2.3	-2.3583	-2.8187	-2.0646	-2.5708	-2.6417	-2.1312	-2.5833	-2.4104	-2.1458	-2.9083	359.138	143.680	402.749	353.263	138.500	105.971	300.512	61.673	184.406	137.515	317.149	405.611	92.040	352.326	200.071	167.536	0.00041938	0.00088055	6.2638e-05	1350.6	6.6264e-06	4.813e-07	1354.2	364.65	7.2131e-06	6.4921e-06	417.57	139.39	121.03	41.667	2.3416e-06	51.633	0.00053959	0.00052757	0.00013901	1366.7	5.97e-06	5.7293e-06	1366	370.92	5.9704e-06	5.5981e-06	422.5	141.82	124.27	42.694	5.1838e-06	52.687	212.594	383.842	391.371	73.238	258.275	378.513	73.533	78.423	209.341	128.142	77.749	82.482	82.900	87.026	281.529	86.213	-8191	255	
7262.954	1	1	0	0	0.065435	0.29918	0.21039	0.32731	0.19847	0.12628	0.32967	0.39223	0.44672	0.23344	0.019082	0.087212	0.13793	0.2824	0.14538	0.16132	-1.7229	-2.2083	-2.6292	-2.2313	-2.6417	-2.4854	-2.0812	-2.925	-2.1708	-2.2271	-2.7896	-2.2188	-2.6229	-2.4562	-2.1396	-2.8896	363.003	400.255	350.396	355.807	206.578	115.476	337.521	386.891	130.083	179.167	163.555	151.860	406.316	385.360	394.373	325.787	0.00040903	0.00061341	9.5184e-05	1353.5	4.2994e-06	3.2161e-06	1354.2	364.9	6.665e-06	3.28e-06	416.2	139.19	121.15	41.585	7.2251e-06	51.804	0.00055058	0.00050581	0.00013581	1368.5	5.997e-06	5.57e-06	1365.1	371.77	6.0106e-06	5.5152e-06	421.38	142.24	124.23	42.689	5.1627e-06	52.98	205.881	221.857	86.310	73.393	237.534	85.342	73.197	78.435	234.931	281.981	77.780	82.313	82.874	86.870	196.394	86.491	-8191	255	
7263.051	1	1	0	0	0.1524	0.40442	0.50684	0.16213	0.55152	0.39134	0.34707	0.30097	0.097022	0.18434	0.16828	0.17965	0.15291	0.20481	0.1258	0.13628	-1.9729	-2.1646	-2.5271	-2.3625	-2.5583	-2.5854	-2.3187	-2.8292	-2.2438	-2.1229	-2.8979	-2.1167	-2.5333	-2.6104	-2.0208	-2.6708	250.995	89.485	246.454	60.417	131.718	76.578	389.900	416.015	375.384	253.152	88.983	381.128	328.709	396.757	204.141	406.413	0.00040064	0.00070163	2.8777e-05	1348.4	6.7321e-07	2.4011e-06	1353.3	364.43	4.5502e-06	2.967e-06	416.8	138.56	120.97	41.905	1.7591e-06	51.869	0.00054633	0.00049667	0.00013611	1369.2	5.9526e-06	5.5911e-06	1363.7	372.72	5.9635e-06	5.4021e-06	421.19	142.68	123.84	42.723	5.2564e-06	53.222	197.699	154.671	186.290	73.271	306.589	115.354	73.549	78.282	216.377	182.880	77.835	82.387	82.841	87.105	268.663	86.438	-8191	255	
7263.147	1	1	0	0	0.070697	0.058171	0.36049	0.40558	0.16174	0.21666	0.030809	0.21499	0.19267	0.13925	0.20254	0.1097	0.1347	0.30172	0.15835	0.10656	-2	-2.2458	-2.8417	-2.3729	-2.3583	-2.5438	-2.2396	-2.8583	-2.4521	-2.2771	-2.8354	-2.0938	-2.5083	-2.6813	-1.95	-2.6063	324.824	203.866	377.391	380.473	411.550	227.561	399.298	314.130	291.395	207.204	297.621	72.337	123.589	382.158	384.440	219.285	0.00036858	0.00039105	0.00034831	1352.7	2.5631e-06	3.9188e-06	1356.3	364.54	3.2153e-06	7.237e-06	415.16	138.88	121.11	41.78	1.4577e-05	51.729	0.00053764	0.00048965	0.00013828	1373.5	5.772e-06	5.4751e-06	1368.3	373.09	5.7811e-06	5.2383e-06	422.18	142.9	123.49	42.622	5.4863e-06	53.093	212.631	92.183	126.808	73.323	219.251	164.474	73.509	78.404	249.349	258.080	77.599	82.333	82.801	86.737	196.226	86.300	-8191	255	
7263.243	1	1	0	0	0.13247	0.14475	0.10807	0.21086	0.13997	0.34595	0.47766	0.24683	0.026756	0.084597	0.25208	0.26659	0.23298	0.16594	0.14015	0.1512	-1.9104	-1.9813	-2.5146	-2.2521	-2.175	-2.5625	-2.1979	-2.5938	-2.45	-2.1063	-2.7125	-2.3333	-2.4083	-2.7417	-1.9792	-2.6083	296.866	258.358	259.845	375.651	329.758	341.856	400.622	367.702	147.805	106.090	380.514	367.558	289.800	112.295	379.707	322.522	0.00047179	0.00034927	0.00016238	1353.2	1.4189e-06	4.4126e-06	1356.6	365.23	4.084e-06	3.3229e-06	417.58	139.48	120.7	41.821	9.1537e-06	51.792	0.00052034	0.00047655	0.00014357	1373.7	5.5465e-06	5.3206e-06	1370.4	372.73	5.65e-06	5.1128e-06	424.35	142.79	123.35	42.509	5.764e-06	53.027	204.799	197.052	121.105	73.050	267.018	158.358	73.433	78.236	240.540	149.669	77.490	82.104	82.903	86.848	232.870	85.744	-8191	255	
7263.364	1	1	0	0	0.24704	0.033443	0.1778	0.15016	0.18076	0.13003	0.41947	0.29227	0.063697	0.074428	0.25436	0.1063	0.13485	0.25465	0.046238	0.1159	-2.1354	-2.15	-2.5812	-2.1792	-1.9896	-2.6333	-2.1333	-2.5458	-2.7083	-1.9542	-2.6125	-2.375	-2.2125	-2.6104	-1.9458	-2.4354	271.068	121.725	297.049	419.371	344.793	257.976	340.627	305.609	103.718	166.611	377.677	389.221	275.787	144.497	217.681	67.815	0.00046875	0.00015856	0.00010785	1350.8	1.6858e-06	8.7873e-07	1361.7	365.74	4.3707e-06	6.6399e-06	418.15	139.53	121.22	41.656	7.0326e-06	52.008	0.00050889	0.00046662	0.00014989	1372.2	5.4155e-06	5.2582e-06	1373.2	372.32	5.5016e-06	5.1191e-06	424.69	142.32	123.21	42.516	6.0017e-06	52.868	207.465	165.764	177.085	73.152	325.746	244.226	73.362	78.231	271.555	230.056	77.846	82.333	82.570	86.838	222.656	86.228	-8191	255	
7263.458	1	1	0	0	0.25428	0.2297	0.041139	0.061195	0.24622	0.13256	0.15302	0.31824	0.3519	0.039577	0.21973	0.11828	0.039348	0.29201	0.14163	0.16978	-2.3333	-2.0604	-2.5062	-2.3896	-2.0896	-2.8042	-2.4771	-2.6354	-2.5438	-1.9542	-2.7062	-2.4562	-2.0458	-2.6083	-2.3333	-2.4146	309.308	228.465	270.800	394.210	330.546	174.257	61.855	378.793	310.119	383.081	384.611	373.545	83.639	90.838	285.552	344.669	0.00045847	0.0009366	0.00012196	1352.7	4.8086e-06	5.8472e-06	1353.1	365.99	5.9587e-06	8.722e-06	417.91	139.62	121.5	41.646	2.2849e-06	51.762	0.00050455	0.00048125	0.00015383	1369.5	5.2392e-06	5.4749e-06	1371.2	372.08	5.3424e-06	5.3605e-06	425.67	142.26	123.06	42.589	6.0404e-06	52.714	202.730	161.141	248.883	73.326	184.611	184.216	73.305	78.147	241.937	211.014	77.316	82.338	82.540	86.891	99.958	86.094	-8191	255	
7263.554	1	1	0	0	0.067602	0.25465	0.2729	0.20295	0.0751	0.32955	0.19117	0.1547	0.12289	0.22453	0.23761	0.42768	0.21694	0.18471	0.10302	0.20162	-2.2562	-2.0187	-2.5167	-2.6479	-2.0187	-2.7375	-2.5312	-2.325	-2.7	-1.9771	-2.4771	-2.6229	-2.2	-2.8208	-2.1729	-2.1667	77.245	177.761	299.708	90.393	114.571	369.712	346.695	374.671	381.479	152.375	356.187	119.401	391.636	360.702	179.476	121.878	0.00037724	0.00049066	2.9149e-05	1357.7	5.3762e-06	6.9131e-06	1355.4	364.57	1.6245e-06	4.3768e-06	417.6	139.6	121.29	41.871	6.3464e-06	52.174	0.00048404	0.0005084	0.00015112	1369.8	5.1054e-06	5.7305e-06	1371.6	371.31	5.2571e-06	5.6794e-06	424.35	141.98	122.61	42.829	5.876e-06	52.744	207.399	164.865	185.244	73.091	194.551	211.662	73.225	78.243	311.833	99.378	77.504	82.404	82.356	86.662	186.146	85.933	-8191	255	
7263.675	1	1	0	0	0.019838	0.12185	0.072129	0.01007	0.17805	0.10545	0.24645	0.28172	0.40912	0.29839	0.1369	0.092632	0.13841	0.36538	0.20021	0.25757	-2.1479	-2.0042	-2.3604	-2.7542	-2.0521	-2.6646	-2.2896	-2.2833	-2.5271	-2.0312	-2.5625	-2.6688	-2.125	-2.6146	-2.3438	-2.2479	82.155	319.663	122.737	131.632	276.159	163.147	419.259	413.101	300.921	146.009	348.568	272.297	134.799	388.297	220.182	374.237	0.0004588	0.00060884	9.4258e-05	1354.1	6.7528e-06	3.4144e-06	1359	366.46	7.6261e-06	9.5411e-06	416.48	139.8	122	41.527	1.5553e-06	51.917	0.00048226	0.00052952	0.00014678	1368.2	5.1375e-06	5.9253e-06	1370.5	370.89	5.3192e-06	5.932e-06	423.02	141.9	123.23	42.88	5.7506e-06	52.43	207.340	193.627	156.337	73.276	244.174	110.747	73.445	78.070	235.388	158.223	77.589	82.262	82.656	86.818	390.128	85.906	-8191	255	
7263.746	1	1	0	0	0.024107	0.24953	0.1258	0.1753	0.19901	0.1507	0.43279	0.17877	0.15453	0.19503	0.046652	0.065701	0.31928	0.29753	0.22394	0.0999	-2.2938	-2.1083	-2.3333	-2.7646	-1.8854	-2.7146	-2.5792	-2.25	-2.6729	-2.2604	-2.4396	-2.6	-1.975	-2.5729	-2.1437	-2.1521	251.106	360.192	357.618	392.128	278.480	354.377	326.505	72.483	174.081	269.095	62.787	337.611	321.141	76.213	368.292	62.493	0.00042542	0.00034297	0.00013827	1353.8	8.6694e-06	2.6545e-06	1356	364.14	9.1024e-06	7.9494e-06	415.96	139.43	121.24	41.906	5.4801e-06	51.768	0.00049949	0.00054863	0.00014126	1367	5.3833e-06	6.0094e-06	1369.8	370.38	5.5724e-06	5.9666e-06	422.39	141.66	123.4	42.865	5.5177e-06	52.394	204.926	247.398	167.583	73.195	223.569	117.652	73.221	78.003	242.722	129.482	77.344	82.416	82.545	86.595	244.302	85.672	-8191	255	
7263.843	1	1	0	0	0.062909	0.098345	0.185	0.20602	0.15155	0.067502	0.3128	0.14612	0.27494	0.1037	0.054341	0.25038	0.22364	0.23595	0.21739	0.089651	-2.2667	-2.1104	-2.15	-2.8729	-1.8833	-2.6229	-2.7042	-2.2083	-2.6312	-2.0312	-2.2125	-2.7646	-2.0896	-2.4979	-2.2958	-2.0938	83.955	357.155	69.121	383.484	240.788	336.673	372.915	400.859	339.517	386.158	131.162	372.795	134.471	286.725	153.493	67.173	0.00038811	0.00061689	9.378e-05	1356.3	4.7663e-06	3.9569e-06	1356.2	366.13	8.7674e-06	4.1816e-06	418.11	139.45	121.28	41.58	4.8706e-06	51.853	0.00052537	0.00053911	0.00013699	1367	5.6713e-06	5.8065e-06	1366.1	370.17	5.8178e-06	5.7814e-06	421.42	141.48	123.73	42.688	5.448e-06	52.403	211.525	169.687	97.784	73.242	249.672	156.038	73.416	77.969	225.532	127.053	77.182	82.336	82.652	86.867	248.634	85.849	-8191	255	
7263.939	1	1	0	0	0.11182	0.031077	0.24171	0.26784	0.12366	0.14281	0.35993	0.049036	0.19506	0.10437	0.34208	0.15535	0.10536	0.20025	0.096012	0.06333	-2.2812	-2.3625	-2.1146	-2.7958	-2.0708	-2.4125	-2.7458	-2.2583	-2.6146	-2.3896	-2.2646	-2.7562	-2.2792	-2.3354	-2.6292	-2.0896	63.320	205.788	199.118	391.926	134.862	397.934	380.508	338.607	343.753	288.855	398.711	417.500	157.057	371.620	131.258	287.852	0.00045389	0.00036458	2.575e-05	1356.1	6.3089e-06	4.1586e-06	1357.1	365.52	1.3328e-06	8.4313e-06	417.01	139.88	121.01	41.789	1.7976e-06	52.04	0.00054308	0.00052171	0.0001347	1366.4	5.8969e-06	5.6427e-06	1366.6	370.58	5.9974e-06	5.677e-06	420.29	141.85	123.88	42.677	5.3161e-06	52.657	203.991	371.245	225.148	73.036	226.892	380.854	73.298	78.049	267.464	139.362	77.375	82.391	82.749	86.790	201.580	85.974	-8191	255	
7264.059	1	1	0	0	0.14946	0.07427	0.17841	0.37161	0.21459	0.30267	0.089836	0.17884	0.22645	0.023074	0.2322	0.16196	0.34042	0.16158	0.06852	0.082172	-2.2458	-2.3354	-2.1542	-2.9688	-2.1833	-2.2687	-2.8542	-2.0417	-2.5875	-2.4229	-2.1396	-2.8417	-2.0333	-2.3479	-2.6042	-2.1271	83.479	313.378	258.849	390.726	241.715	259.441	72.533	301.302	137.304	143.782	338.754	94.852	367.738	89.742	143.061	403.872	0.00037343	0.00031124	3.7248e-05	1356.6	4.1389e-06	2.7845e-06	1357.4	365.33	2.6069e-06	8.4128e-06	417.27	139.73	121.04	41.61	4.3508e-06	52.019	0.0005459	0.00051156	0.00012984	1370	5.9547e-06	5.4473e-06	1365.2	371.29	5.8995e-06	5.4858e-06	420.51	142.29	123.79	42.606	5.2333e-06	52.972	196.276	121.818	221.293	73.056	197.753	320.304	73.362	78.151	246.587	144.534	77.244	82.212	82.859	86.647	245.030	86.104	-8191	255	
7264.155	1	1	0	0	0.28067	0.072512	0.25801	0.11218	0.2756	0.13605	0.24097	0.19437	0.14487	0.21852	0.14952	0.2681	0.14373	0.079847	0.24175	0.12253	-2.1354	-2.6125	-2.0583	-2.9437	-2.2313	-2.3792	-2.8937	-2.1583	-2.5187	-2.5729	-2.1063	-2.85	-2.2708	-2.1688	-2.8688	-2.025	139.435	396.421	160.089	406.185	166.677	154.863	361.301	358.177	319.831	140.869	309.779	317.865	330.039	149.209	341.929	306.440	0.00031626	0.00075621	0.00012314	1356.8	2.785e-06	3.0441e-06	1354.1	364.39	2.0401e-06	5.9541e-06	418.57	139.74	121.33	41.77	1.0061e-05	51.83	0.00053594	0.00049792	0.00012832	1370.9	5.8542e-06	5.315e-06	1363.5	371.85	5.7204e-06	5.4018e-06	420.57	142.82	123.73	42.544	5.3113e-06	53.078	210.415	100.741	129.198	73.307	202.368	236.435	73.354	78.242	233.771	160.542	77.313	82.275	82.520	86.761	198.023	85.816	-8191	255	
7264.252	1	1	0	0	0.096252	0.32852	0.12948	0.25988	0.095184	0.090579	0.10662	0.12849	0.16642	0.098264	0.085464	0.186	0.2168	0.054138	0.13576	0.25034	-2.0292	-2.475	-2.0896	-2.7979	-2.3937	-2.0479	-2.8833	-2.1458	-2.2875	-2.6542	-1.8479	-2.4813	-2.4938	-2.2417	-2.8271	-2.2521	77.491	70.502	136.640	70.559	134.735	218.818	333.619	303.398	304.890	229.779	154.051	229.809	170.110	123.055	69.961	352.365	0.00040307	0.00065989	0.00025154	1354.8	6.9985e-06	1.4024e-06	1355.4	363.4	5.8032e-06	1.8124e-06	416.76	139.36	121.62	41.645	9.7151e-06	51.799	0.00051997	0.00048874	0.0001321	1371.8	5.6705e-06	5.2183e-06	1364.4	371.94	5.5595e-06	5.2787e-06	421.41	142.48	123.52	42.32	5.5262e-06	52.982	221.504	124.279	160.056	73.241	245.767	223.459	73.188	78.329	243.999	325.765	77.401	81.903	82.689	86.710	202.027	85.843	-8191	255	
7264.323	1	1	0	0	0.089628	0.22055	0.084755	0.18247	0.16931	0.16952	0.20291	0.30178	0.06113	0.14986	0.10193	0.24032	0.084475	0.052662	0.070322	0.036073	-1.8521	-2.7438	-2.0375	-2.7729	-2.5104	-2.0479	-3.0625	-2.2083	-2.3563	-2.85	-2.1833	-2.4667	-2.6229	-2.0729	-2.7438	-2.4104	71.409	274.796	376.275	385.510	294.072	308.223	384.160	333.862	366.026	415.445	321.489	82.397	307.161	318.090	371.432	345.940	0.00040545	0.00036565	7.2796e-05	1353.8	6.4175e-06	2.0613e-06	1349.8	364.83	2.8126e-06	4.2285e-06	417.34	139.65	120.9	41.638	8.2513e-06	51.943	0.00049667	0.00047295	0.00013991	1370.6	5.5275e-06	5.0376e-06	1366.2	372.38	5.3888e-06	5.1822e-06	421.9	142.5	123.17	42.249	5.8452e-06	53.016	211.811	151.450	179.450	72.938	218.111	389.224	73.120	77.908	191.788	393.431	77.073	82.099	82.638	86.929	235.094	86.136	-8191	255	
7264.442	1	1	0	0	0.11251	0.15881	0.18815	0.21479	0.14644	0.19483	0.13124	0.04064	0.063034	0.20935	0.15845	0.092234	0.31641	0.16457	0.15129	0.10619	-1.8521	-2.8979	-2.0938	-2.6646	-2.5396	-2.0896	-2.9604	-2.3229	-2.1208	-2.6521	-2.2562	-2.5125	-2.5438	-2.1333	-2.6104	-2.4917	281.217	115.990	369.651	373.527	236.985	363.814	403.792	387.219	248.912	270.217	408.868	239.622	101.543	385.893	276.055	319.364	0.00038279	0.00028103	3.3342e-05	1352.4	2.0339e-06	3.609e-06	1353	365.62	1.3006e-06	4.6102e-06	416.87	139.47	120.66	41.745	4.3786e-06	51.969	0.00048707	0.00047316	0.0001486	1370	5.4602e-06	5.066e-06	1370.3	371.51	5.2646e-06	5.2865e-06	424.09	142.31	123.07	42.413	6.0012e-06	52.937	205.907	151.670	129.296	72.941	207.297	217.832	73.033	78.010	128.913	225.275	77.136	82.093	82.508	86.781	197.149	85.900	-8191	255	
7264.538	1	1	0	0	0.23372	0.17816	0.052472	0.13711	0.090687	0.13525	0.095799	0.12653	0.30445	0.14677	0.248	0.18321	0.2488	0.21205	0.24284	0.13312	-1.7938	-2.65	-2.1583	-2.5687	-2.55	-2.1042	-2.5542	-2.5	-2.0625	-2.5479	-2.1979	-2.3375	-2.6979	-2.1271	-2.4375	-2.6542	213.127	146.232	284.124	385.211	357.287	337.176	297.984	104.362	321.942	174.304	69.026	394.869	309.124	273.211	220.069	346.500	0.00041306	0.0013132	0.0001608	1353.5	1.2857e-06	4.2373e-06	1347.9	365.53	7.0072e-06	9.3952e-06	418.43	139.19	121.54	41.923	8.4911e-06	51.644	0.00048328	0.00049505	0.00015359	1368.2	5.3874e-06	5.4138e-06	1369.6	370.79	5.2023e-06	5.5522e-06	424.29	141.94	122.91	42.658	5.9665e-06	52.645	206.831	188.526	187.877	72.827	147.863	220.303	73.211	78.101	252.818	204.897	77.522	81.866	82.674	86.514	215.669	85.908	-8191	255	
7264.636	1	1	0	0	0.098273	0.022019	0.11426	0.2569	0.092344	0.16583	0.36595	0.33197	0.10236	0.053498	0.036157	0.31661	0.1074	0.25778	0.12295	0.1541	-1.6208	-2.6688	-2.1833	-2.4542	-2.6271	-1.9875	-2.7354	-2.775	-2.1458	-2.725	-2.4542	-2.3312	-2.6896	-2.2292	-2.4625	-2.625	385.761	75.803	111.717	382.826	191.085	248.749	376.847	410.676	202.110	228.107	235.001	296.087	188.958	101.078	262.605	351.188	0.00043008	0.00087808	0.00016424	1351.9	5.3883e-06	9.2724e-06	1354.5	365.56	5.6673e-06	1.338e-06	414.73	139.28	121.28	41.684	9.1774e-06	51.457	0.00046944	0.00052192	0.00015258	1365.5	5.2768e-06	5.7323e-06	1369.7	370.84	5.136e-06	5.8793e-06	423.17	141.64	122.92	42.736	5.7722e-06	52.566	209.051	152.455	190.916	73.210	182.599	203.518	73.294	78.031	225.789	258.110	77.763	82.173	82.680	86.392	194.806	86.006	-8191	255	
7264.755	1	1	0	0	0.067856	0.14227	0.020632	0.2506	0.086014	0.10366	0.066271	0.091351	0.19674	0.075717	0.19802	0.10898	0.37567	0.20854	0.066745	0.33645	-1.5375	-2.775	-2.3833	-2.2646	-2.6437	-2.1188	-2.5563	-2.6562	-2.025	-2.6188	-2.475	-2.1896	-2.9042	-2.2438	-2.2625	-2.7729	283.339	189.381	274.729	311.946	264.313	338.531	373.777	72.278	175.416	150.942	383.587	339.706	64.457	361.051	121.333	94.779	0.0004635	0.00018785	0.00015007	1351.1	7.6975e-06	2.3131e-06	1354.7	364.4	7.1061e-06	1.8476e-06	415.52	138.47	121.76	41.606	2.7337e-06	51.569	0.00047125	0.00054589	0.00014809	1364.6	5.3298e-06	5.935e-06	1368.6	370.56	5.2501e-06	6.0328e-06	423.02	141.26	123.42	42.78	5.6532e-06	52.531	209.959	160.853	124.574	73.038	205.282	209.398	73.378	78.008	207.543	241.449	77.085	81.909	82.612	86.738	162.360	86.092	-8191	255	
7264.851	1	1	0	0	0.22708	0.11299	0.22469	0.041035	0.12996	0.21278	0.16121	0.24825	0.010205	0.04642	0.1658	0.18728	0.10099	0.10694	0.1618	0.28732	-1.4813	-2.6854	-2.3875	-2.3208	-2.8896	-2.125	-2.4125	-2.7854	-1.9958	-2.6542	-2.6021	-2.0604	-2.8083	-2.2812	-2.2021	-2.6729	153.490	135.975	106.723	415.535	396.992	248.679	397.892	153.277	135.567	151.785	359.833	280.823	364.826	352.307	356.289	60.350	0.00050594	0.00021213	5.619e-05	1348.2	4.221e-06	5.0562e-06	1353.4	363.98	4.9089e-06	4.8288e-06	418.39	139.51	120.79	41.555	4.0601e-06	51.507	0.00050004	0.0005545	0.00014669	1362.3	5.6995e-06	6.0993e-06	1366.8	369.92	5.6828e-06	6.0732e-06	422.81	141.3	123.48	42.854	5.5738e-06	52.462	211.831	94.168	94.923	72.982	242.016	235.006	73.219	78.142	253.092	357.690	77.692	82.230	82.738	86.584	164.260	85.825	-8191	255	
7264.947	1	1	0	0	0.06813	0.17908	0.11277	0.13379	0.16907	0.25389	0.087711	0.14855	0.068878	0.22403	0.16733	0.18122	0.18792	0.021061	0.1559	0.080518	-1.6854	-2.6125	-2.6104	-2.0604	-2.5708	-2.4354	-2.5979	-2.8417	-2.1063	-2.7	-2.9437	-2.0042	-2.6958	-2.3396	-2.1417	-2.6937	84.755	276.736	64.127	384.327	147.301	130.898	90.586	73.151	199.996	146.634	402.989	108.848	418.545	369.792	334.790	404.083	0.00047859	0.00027699	7.2744e-05	1352.1	7.0466e-06	5.0192e-06	1352.6	364.32	4.0786e-06	3.5811e-06	415.39	139.57	121.3	41.725	3.8703e-06	51.845	0.00053356	0.00054111	0.00014388	1363.6	5.963e-06	5.9696e-06	1363.7	369.9	5.9423e-06	5.8023e-06	421.45	141.29	124.17	42.692	5.3617e-06	52.601	207.357	271.068	93.155	72.878	203.161	227.043	73.258	78.261	205.239	226.472	77.134	82.072	82.563	86.726	212.965	85.854	-8191	255	
7265.044	1	1	0	0	0.26577	0.11212	0.087551	0.3605	0.23794	0.1928	0.12745	0.35687	0.26771	0.22967	0.11975	0.13322	0.13531	0.086206	0.14985	0.2494	-1.6333	-2.3583	-2.4667	-2.175	-2.6333	-2.55	-2.3063	-2.9167	-2.0896	-2.4813	-2.6708	-2.1354	-2.6583	-2.5396	-2.1917	-2.8167	235.455	353.179	163.692	138.917	135.693	129.934	329.955	375.440	409.730	355.840	304.293	72.567	408.922	191.163	204.740	371.450	0.00047757	0.00047011	7.3653e-05	1351.9	9.0282e-06	4.0856e-06	1352.2	364.51	5.8784e-06	5.2427e-06	419.25	138.43	120.95	41.722	2.1406e-06	51.465	0.00055147	0.0005247	0.00013951	1362.8	6.0967e-06	5.7731e-06	1362.5	370.39	6.1276e-06	5.6066e-06	421.5	141.59	124.13	42.658	5.2547e-06	52.708	205.088	131.290	111.024	72.903	220.715	141.328	73.144	78.116	241.537	181.005	77.206	82.082	82.504	86.619	136.650	85.744	-8191	255	
7265.140	1	1	0	0	0.1345	0.16169	0.10964	0.40726	0.2126	0.16083	0.53321	0.22268	0.32718	0.17263	0.27889	0.09597	0.173	0.26447	0.21483	0.14573	-1.6354	-2.2188	-2.8208	-2.2125	-2.5917	-2.3229	-2.1417	-3.1063	-2.3063	-2.275	-2.9396	-2.1542	-2.6708	-2.6875	-2	-2.8688	224.811	79.765	372.998	374.732	290.319	261.772	335.009	396.041	120.537	226.452	168.431	104.089	73.764	330.545	241.155	379.908	0.00040945	0.00023801	6.2466e-05	1353.4	4.6767e-06	3.769e-06	1347.6	365.57	6.7612e-06	5.1602e-06	415.32	139.53	120.69	41.544	5.0532e-06	51.696	0.00055779	0.00050939	0.00013844	1366.8	6.103e-06	5.7045e-06	1360.7	371.91	6.0986e-06	5.5231e-06	420.3	142.16	123.77	42.6	5.2208e-06	52.963	199.968	254.431	282.572	73.169	257.761	191.309	73.057	77.992	236.536	109.949	77.379	82.025	82.618	86.604	268.317	86.063	-8191	255	
7265.236	1	1	0	0	0.077436	0.27956	0.19935	0.26096	0.044018	0.1819	0.14741	0.30705	0.12279	0.18875	0.23185	0.21973	0.3375	0.051591	0.077697	0.11336	-1.8229	-2.2042	-2.7479	-2.3312	-2.6958	-2.6562	-2.3375	-2.8021	-2.3333	-2.1396	-2.9167	-2.1562	-2.7	-2.7313	-1.925	-2.6854	188.045	262.892	82.283	68.245	203.035	198.117	347.517	404.167	309.360	293.317	190.294	227.089	412.773	410.949	376.871	85.964	0.00038803	0.00043081	0.00011501	1353.6	1.512e-06	2.7752e-06	1355.1	364.59	3.7638e-06	5.0085e-06	418.2	138.53	120.77	41.622	8.5458e-06	51.559	0.00054526	0.0004984	0.00013687	1370.3	5.8853e-06	5.6111e-06	1362.7	371.88	5.8858e-06	5.3789e-06	421.12	142.18	123.39	42.411	5.3607e-06	53.042	199.534	195.411	164.228	72.959	185.434	85.386	72.958	78.125	210.061	161.880	77.074	82.227	82.369	87.005	228.943	85.875	-8191	255	
7265.356	1	1	0	0	0.20981	0.1789	0.091028	0.3515	0.052951	0.15045	0.14298	0.095585	0.1594	0.35587	0.18217	0.072015	0.26319	0.10456	0.087557	0.14648	-2.0042	-2.075	-2.7021	-2.3042	-2.4542	-2.5542	-2.2292	-2.8042	-2.4104	-2.1562	-2.6583	-2.3646	-2.5354	-2.7979	-1.9229	-2.6396	116.898	384.935	144.002	392.506	339.529	282.764	162.620	403.100	230.353	92.253	413.997	353.619	382.035	120.329	135.360	253.427	0.00037569	0.00057953	0.00035102	1349.7	5.4716e-06	2.5945e-06	1355.2	363.01	1.8702e-06	4.451e-06	415.26	138.09	120.78	41.43	9.6092e-06	51.44	0.00053581	0.00048291	0.00014041	1368.3	5.6971e-06	5.4031e-06	1362.6	371.71	5.719e-06	5.2412e-06	421.4	142.46	122.99	42.345	5.6732e-06	52.917	192.049	173.325	135.326	73.016	258.901	294.010	73.244	78.027	246.939	103.493	77.170	81.969	82.477	86.544	164.613	86.236	-8191	255	
7265.451	1	1	0	0	0.083312	0.22564	0.12636	0.2432	0.072216	0.081577	0.2142	0.097049	0.15473	0.0727	0.29182	0.18091	0.29844	0.088307	0.094487	0.26543	-2.1625	-1.9188	-2.5667	-2.25	-2.1542	-2.7167	-2.2542	-2.6208	-2.3937	-1.8208	-2.7167	-2.3583	-2.2479	-2.9562	-2.2833	-2.4562	72.750	347.872	260.188	370.757	397.886	98.541	356.653	365.750	365.524	413.614	304.743	318.605	390.681	331.463	385.608	216.277	0.00038835	0.00028147	0.00015047	1349.6	3.2284e-06	3.5481e-06	1354	363.44	4.9623e-06	4.3519e-06	415.82	138.57	120.34	41.594	6.4015e-06	51.702	0.00052094	0.00047668	0.00014976	1369	5.5156e-06	5.348e-06	1366.2	371.06	5.6305e-06	5.1836e-06	422.73	142.02	122.76	42.35	5.9518e-06	52.792	208.979	195.836	150.855	73.111	129.921	149.381	73.147	78.115	266.344	235.004	77.222	82.174	82.472	86.869	159.879	85.664	-8191	255	
7265.547	1	1	0	0	0.19238	0.16634	0.17621	0.089007	0.079352	0.15808	0.0752	0.014839	0.19563	0.048994	0.3325	0.41204	0.17285	0.127	0.15061	0.057607	-2.3479	-1.8646	-2.6125	-2.5354	-2.1708	-2.8312	-2.3271	-2.4083	-2.5979	-2.0292	-2.7938	-2.3708	-2.2	-2.7938	-2.1542	-2.3688	255.238	167.229	233.521	372.419	174.736	404.558	312.489	112.595	163.530	320.919	178.456	74.269	72.960	375.839	170.762	257.925	0.00040448	0.0008406	0.00033091	1345.1	3.3065e-06	6.6962e-06	1349.4	364.06	2.8259e-06	1.0005e-05	416.1	138.36	120.32	41.573	5.9626e-06	51.464	0.00051132	0.00047186	0.00015382	1366.9	5.4042e-06	5.4413e-06	1366.6	370.52	5.4956e-06	5.2538e-06	423.84	141.75	122.37	42.388	6.0868e-06	52.671	207.673	184.663	155.012	73.174	190.327	199.725	73.176	77.930	316.634	175.101	77.264	82.328	82.873	86.987	207.042	85.714	-8191	255	
7265.619	1	1	0	0	0.15868	0.24727	0.062938	0.21692	0.052995	0.17006	0.15478	0.20899	0.055773	0.23024	0.11211	0.1857	0.23327	0.086307	0.049253	0.14895	-2.0271	-2.0146	-2.6875	-2.4833	-1.9792	-2.8063	-2.3646	-2.4896	-2.65	-2.0833	-2.5062	-2.7438	-2.1646	-2.7271	-2.2146	-2.4313	174.078	289.459	141.766	376.604	416.391	162.242	358.153	397.012	225.598	83.539	307.501	96.207	348.379	258.108	78.612	356.047	0.00039445	0.0011412	0.00010998	1348.5	5.391e-06	7.4068e-06	1352.6	362.98	3.8368e-06	7.8414e-06	412.93	138.31	120.69	41.387	2.6772e-06	51.527	0.00050112	0.00049655	0.00015503	1366.4	5.2004e-06	5.6326e-06	1367.5	369.85	5.3317e-06	5.5751e-06	422.84	141.45	122.4	42.579	6.0459e-06	52.541	211.169	140.060	114.837	72.870	238.729	199.227	73.202	78.046	220.010	187.056	77.225	82.176	82.227	86.910	142.670	85.985	-8191	255	
7265.739	1	1	0	0	0.1028	0.10333	0.23856	0.1838	0.20866	0.27815	0.28508	0.36675	0.083712	0.42335	0.24351	0.11144	0.19035	0.20432	0.18709	0.18357	-2.3021	-2.0938	-2.425	-2.7896	-2.0104	-2.7833	-2.5083	-2.3354	-2.7646	-1.9958	-2.6813	-2.5833	-2.3375	-2.7417	-2.2	-2.2938	220.786	241.751	340.977	399.445	189.559	416.398	386.997	399.600	142.619	165.705	70.558	264.840	347.901	137.707	398.222	303.800	0.00040344	0.00049679	9.2248e-05	1349.2	7.2046e-06	4.085e-06	1352	363.57	1.1579e-06	1.1472e-05	414.58	139.09	120.88	41.444	7.4124e-06	51.931	0.00048366	0.00052416	0.0001513	1364.2	5.1249e-06	5.8751e-06	1367	369.32	5.256e-06	5.7935e-06	421.8	141.52	122.29	42.576	5.8339e-06	52.466	208.270	148.385	275.598	73.079	292.370	257.497	73.079	77.913	265.967	178.952	77.320	82.430	82.590	86.833	277.400	85.757	-8191	255	
7265.835	1	1	0	0	0.11417	0.24729	0.21812	0.22067	0.06289	0.15521	0.30184	0.30038	0.12662	0.062675	0.17503	0.23562	0.1325	0.15396	0.292	0.10837	-2.1458	-2.2771	-2.3708	-2.875	-2.0354	-2.7417	-2.4688	-2.2083	-2.6688	-2.1583	-2.4562	-2.5354	-1.9583	-2.6542	-2.3708	-2.2583	282.320	149.235	357.863	412.597	303.695	364.909	396.581	351.232	227.743	251.551	361.743	66.365	192.197	396.100	363.259	174.697	0.00043497	0.00091992	8.6684e-05	1344.9	1.1498e-05	4.8918e-06	1347.5	363.82	5.8843e-06	8.3071e-06	414.4	139.34	120.59	41.476	8.8011e-06	51.659	0.00048972	0.00054107	0.00014427	1360.6	5.2643e-06	5.9936e-06	1362.3	368.71	5.4457e-06	5.9997e-06	420.74	141.26	122.76	42.696	5.6429e-06	52.314	214.028	185.627	176.034	73.089	218.559	233.694	73.275	78.025	289.116	215.106	77.234	82.308	82.658	86.779	285.682	85.960	-8191	255	
7265.932	1	1	0	0	0.20523	0.082331	0.087081	0.12825	0.18836	0.18765	0.10647	0.13371	0.25697	0.14677	0.1049	0.081084	0.28585	0.11772	0.32977	0.27351	-2.3854	-2.1792	-2.3958	-2.7542	-1.9333	-2.4	-2.5542	-2.2	-2.7542	-2.275	-2.2604	-2.9062	-2.2167	-2.6021	-2.5292	-2.1688	358.378	371.266	199.628	96.515	232.293	384.539	299.043	345.274	374.995	217.255	132.555	156.412	317.842	360.747	226.914	324.169	0.00048644	0.00087802	0.00013076	1341.4	4.541e-06	5.3303e-06	1347.2	363.53	1.518e-05	3.8455e-06	415.3	138.36	120.65	41.59	3.0194e-06	51.63	0.00050881	0.00054891	0.00014006	1360	5.5363e-06	5.9944e-06	1360.8	368.13	5.7492e-06	5.9724e-06	420.14	140.99	122.94	42.609	5.5891e-06	52.269	191.337	161.548	419.031	73.300	209.743	265.319	73.176	78.197	222.399	262.136	77.253	82.379	82.538	86.463	223.539	85.996	-8191	255	
7266.028	1	1	0	0	0.38917	0.20103	0.10653	0.11283	0.19086	0.22656	0.21521	0.10919	0.11969	0.24373	0.2239	0.20093	0.13982	0.26303	0.17511	0.067473	-2.1229	-2.3187	-2.125	-2.8875	-1.9833	-2.5875	-2.8042	-2.4354	-2.5854	-2.3104	-2.1146	-2.8229	-2.1292	-2.6	-2.5438	-2.0958	105.882	122.941	205.782	302.424	106.524	70.484	401.425	372.145	147.195	141.251	418.471	70.553	346.234	339.810	413.316	338.299	0.00054775	0.00062112	0.00015228	1345.5	8.6804e-06	3.6504e-06	1347.9	362.44	4.9603e-06	3.2716e-06	414.25	138.4	120.64	41.405	5.1956e-06	51.427	0.00053931	0.00054298	0.00013887	1359.8	5.9132e-06	5.8088e-06	1361.5	367.79	6.0418e-06	5.8331e-06	419.7	141.09	123.4	42.512	5.4852e-06	52.264	205.298	219.884	67.176	73.296	176.275	162.995	73.275	78.098	261.100	66.071	77.234	82.266	82.455	86.804	265.395	86.076	-8191	255	
7266.148	1	1	0	0	0.21757	0.25695	0.099876	0.30572	0.077692	0.19542	0.33538	0.28236	0.058248	0.13685	0.13144	0.10907	0.28375	0.20957	0.24948	0.13887	-2.2542	-2.1667	-2.1	-3.0021	-2.3063	-2.4396	-2.8896	-2.1063	-2.5396	-2.3979	-2.2729	-2.7792	-2.175	-2.4813	-2.8021	-2.1979	276.438	170.861	385.814	411.136	361.170	376.870	355.136	343.004	122.632	126.796	355.680	298.456	401.896	359.667	152.700	345.844	0.00054578	0.00020205	8.215e-05	1346.5	4.729e-06	1.7313e-06	1350.9	364.32	4.176e-07	5.5346e-06	414.9	138.94	121.29	41.429	7.1854e-06	51.769	0.0005585	0.00052433	0.00013464	1361.1	6.0382e-06	5.594e-06	1359.8	368.82	6.0739e-06	5.6075e-06	418.99	141.49	123.53	42.36	5.3577e-06	52.592	206.529	214.559	69.149	73.376	177.285	145.930	73.321	78.175	369.014	192.955	77.549	82.267	82.733	86.891	205.889	85.953	-8191	255	
7266.220	1	1	0	0	0.11268	0.25521	0.13456	0.2084	0.10277	0.18527	0.091248	0.13574	0.083417	0.15553	0.10365	0.10938	0.19183	0.18157	0.32953	0.17786	-2.1208	-2.4333	-2.0479	-2.8667	-2.1979	-2.3583	-2.8125	-2.2792	-2.525	-2.5479	-2.2542	-2.6729	-2.225	-2.3063	-2.5187	-1.8792	400.432	410.955	244.888	87.395	362.542	188.144	410.405	415.258	137.051	368.397	217.859	403.605	75.711	395.199	378.629	93.142	0.00042116	0.00044246	3.2607e-05	1344.3	5.711e-06	3.6204e-06	1345.5	364.05	1.8474e-06	6.1646e-06	414.37	138.38	120.47	41.382	8.155e-06	51.434	0.00055175	0.00051381	0.00013174	1363	6.0658e-06	5.5029e-06	1357.2	369.87	6.0002e-06	5.596e-06	418.47	141.89	123.36	42.3	5.349e-06	52.75	186.491	82.931	183.245	73.470	143.974	201.746	73.433	78.153	348.722	221.776	77.249	82.353	82.735	86.763	262.870	86.156	-8191	255	
7266.316	1	1	0	0	0.17982	0.29427	0.030127	0.46628	0.050272	0.33997	0.23246	0.29579	0.063221	0.17318	0.20362	0.3637	0.16076	0.1684	0.026059	0.35343	-2.0354	-2.3625	-1.9542	-2.925	-2.2417	-2.1042	-2.9104	-2.2771	-2.2417	-2.5708	-2.1437	-2.8187	-2.4333	-2.0417	-2.6979	-2.1708	161.635	300.296	274.699	312.055	123.662	336.033	362.988	369.756	262.837	366.950	142.935	374.274	87.538	329.150	145.301	302.817	0.00035075	0.00065038	0.00031034	1346.3	2.6245e-06	1.3486e-06	1346.9	362.63	1.4131e-06	2.16e-06	415.74	138.67	119.94	41.384	1.0535e-05	51.477	0.00053906	0.0005066	0.00013422	1364.6	5.9219e-06	5.4076e-06	1359.1	369.89	5.7939e-06	5.4792e-06	419.27	142.26	122.92	42.259	5.4768e-06	52.859	205.799	157.210	137.373	73.373	318.246	345.208	73.429	78.401	285.636	124.775	77.078	82.134	82.807	86.579	172.305	86.170	-8191	255	
7266.437	1	1	0	0	0.19859	0.14841	0.10754	0.17474	0.28634	0.33273	0.15302	0.23107	0.19577	0.014247	0.24397	0.10828	0.27517	0.26272	0.19206	0.069493	-1.9833	-2.6042	-1.7	-2.65	-2.425	-2.1042	-2.8792	-2.3708	-2.2979	-2.7979	-2.0938	-2.7458	-2.6188	-1.9854	-2.7938	-2.3375	236.784	372.969	144.992	416.237	244.086	151.010	268.580	372.711	278.245	79.289	84.645	307.116	74.954	347.823	339.184	84.781	0.00052919	0.00012735	0.00024489	1348.3	5.4761e-06	1.1396e-06	1349.1	361.98	2.0517e-06	3.987e-06	416.11	138.4	120.03	41.566	8.2776e-06	51.464	0.00051413	0.00049308	0.00013762	1366.6	5.6903e-06	5.181e-06	1361.7	370.54	5.5662e-06	5.3075e-06	420.73	142.19	122.6	42.233	5.7973e-06	52.917	200.473	390.390	164.048	73.105	252.463	130.928	73.430	78.263	283.516	208.658	77.190	82.326	82.522	86.617	207.747	86.151	-8191	255	
7266.531	1	1	0	0	0.095677	0.19635	0.20072	0.20816	0.24224	0.32995	0.15051	0.22168	0.1165	0.21256	0.32717	0.19394	0.1634	0.039933	0.13368	0.11094	-2.0083	-2.6375	-2.0312	-2.7729	-2.5563	-1.9729	-2.7833	-2.2896	-2.2917	-2.6875	-2.3312	-2.6458	-2.6375	-2.125	-2.6542	-2.4229	280.968	74.331	329.714	377.079	281.132	266.861	362.169	340.758	198.813	95.001	405.008	75.950	62.531	251.989	362.598	124.216	0.00036802	0.00033336	0.00031866	1348.8	3.7062e-06	4.7219e-06	1347.4	363.12	1.6492e-06	5.8297e-06	416.74	138.44	121	41.553	7.3202e-06	51.547	0.0005038	0.00048547	0.00014736	1367.4	5.6195e-06	5.1384e-06	1365.2	370.62	5.4392e-06	5.2705e-06	422.45	141.9	122.67	42.253	6.0066e-06	52.725	212.223	310.251	155.841	73.218	222.356	294.858	73.245	78.131	323.697	218.818	77.581	81.997	82.923	86.665	241.370	85.808	-8191	255	
7266.627	1	1	0	0	0.1907	0.14959	0.12707	0.33985	0.30667	0.18055	0.21948	0.16484	0.31545	0.22029	0.14757	0.12295	0.28695	0.36232	0.29059	0.3334	-1.7313	-2.9354	-2.3396	-2.5042	-2.5625	-2.0542	-2.8708	-2.6458	-2.1813	-2.7917	-2.1396	-2.4542	-2.8063	-2	-2.6417	-2.2979	355.546	371.706	172.507	383.862	70.897	419.708	367.402	193.324	263.929	365.525	397.776	146.645	413.590	111.573	315.385	63.320	0.00033455	0.00033451	0.00011901	1347.1	1.8159e-06	6.9022e-06	1347.6	363.04	3.0448e-06	6.1062e-06	413.24	138.82	120.88	41.628	5.1471e-06	51.554	0.00049277	0.00048646	0.00015193	1364.2	5.4867e-06	5.2335e-06	1365.4	370.1	5.2623e-06	5.4232e-06	422.28	141.33	122.45	42.385	6.0244e-06	52.648	204.800	174.624	126.428	72.922	241.001	199.825	73.078	78.275	307.700	173.565	77.386	82.042	82.672	86.375	137.959	85.841	-8191	255	
7266.724	1	1	0	0	0.24542	0.23723	0.098314	0.053064	0.10344	0.15394	0.30696	0.14069	0.35501	0.11842	0.27871	0.10622	0.14814	0.24492	0.055087	0.15459	-1.7792	-2.5896	-2.075	-2.4625	-2.5625	-2.0646	-2.8708	-2.5271	-1.9979	-2.8	-2.175	-2.2646	-2.8937	-2.2229	-2.475	-2.6583	213.050	329.811	330.309	382.179	303.200	399.594	72.994	308.045	349.476	238.775	338.655	121.434	64.450	95.721	145.612	379.945	0.00044476	0.00067232	0.00011973	1341.5	7.2518e-06	6.3203e-06	1349	363.35	4.0233e-06	5.1425e-06	411.96	139.16	120.12	41.438	1.5565e-06	51.466	0.00047616	0.00050807	0.00015331	1360.1	5.2983e-06	5.5403e-06	1364	369.53	5.1422e-06	5.6977e-06	421.72	141.23	122.12	42.512	5.8896e-06	52.449	203.801	149.023	142.203	73.072	209.526	212.626	73.265	78.179	227.346	194.668	77.175	82.094	82.977	86.816	106.502	86.264	-8191	255	
7266.844	1	1	0	0	0.051789	0.084587	0.27105	0.26428	0.1918	0.23789	0.37624	0.26872	0.10425	0.27324	0.36567	0.12428	0.1945	0.20306	0.2088	0.16108	-1.7333	-2.6771	-2.1271	-2.3812	-2.5521	-2.0833	-2.5979	-2.7083	-2.0563	-2.7292	-2.3667	-2.3354	-2.8896	-2.0083	-2.2458	-2.6542	85.698	96.190	366.276	345.586	286.799	204.703	320.087	351.899	289.211	218.375	387.647	196.794	365.982	213.757	309.660	345.385	0.0003684	0.00085048	7.0916e-05	1344.8	6.2507e-06	4.3775e-06	1347.4	363.13	4.995e-06	5.8715e-06	415.19	139.25	120.49	41.324	6.4894e-06	51.245	0.00046451	0.0005288	0.00014926	1359	5.2508e-06	5.8019e-06	1363.3	368.99	5.0757e-06	5.917e-06	421.58	141.45	122.45	42.589	5.6262e-06	52.402	215.183	169.713	156.367	73.061	213.158	282.389	73.183	78.328	266.860	243.904	77.391	82.494	82.652	86.663	236.452	86.195	-8191	255	
7266.916	1	1	0	0	0.14103	0.071208	0.053892	0.12289	0.29991	0.071125	0.22253	0.27556	0.07093	0.054108	0.23293	0.096444	0.15921	0.10643	0.16785	0.3908	-1.4604	-2.6937	-2.3958	-2.4271	-2.7	-2.2146	-2.6146	-2.7625	-1.9646	-2.4854	-2.4875	-2.025	-2.5896	-2.1104	-2.3208	-2.6875	217.571	145.370	334.229	311.899	127.683	347.908	365.763	399.439	410.412	340.486	328.196	240.138	321.538	218.917	144.719	385.952	0.00051284	0.00046821	2.6807e-05	1346.2	1.4514e-06	5.4706e-06	1347.8	363.41	5.2475e-06	5.549e-06	414.73	138.36	120.51	41.446	8.428e-06	51.318	0.00047775	0.0005455	0.00014548	1358.3	5.4597e-06	6.0108e-06	1359.1	368.36	5.3908e-06	6.0007e-06	420.61	140.61	122.69	42.646	5.4905e-06	52.211	207.310	109.317	81.578	73.035	250.861	227.521	73.378	78.359	250.660	255.067	77.215	82.285	82.829	86.818	133.444	85.875	-8191	255	
7267.012	1	1	0	0	0.35846	0.2628	0.13044	0.17074	0.28548	0.096245	0.096153	0.45887	0.06798	0.093386	0.14336	0.34143	0.090687	0.39314	0.26555	0.10977	-1.6	-2.5167	-2.1625	-2.225	-2.6417	-2.2188	-2.4667	-2.8875	-1.9271	-2.5438	-2.7396	-2.0396	-2.775	-2.2521	-2.125	-2.8688	377.357	131.612	269.081	355.579	320.980	228.332	364.818	86.812	231.776	202.762	330.131	414.633	364.422	416.180	332.814	327.769	0.00055205	0.00051094	7.4336e-05	1342.9	1.0467e-05	3.3703e-06	1343.5	362.22	8.2409e-06	2.7082e-06	414.45	138.43	120.21	41.45	8.2447e-06	51.199	0.00050845	0.00054529	0.00014207	1355.6	5.7375e-06	5.9396e-06	1356.8	367.58	5.7226e-06	5.842e-06	419.98	140.43	122.94	42.519	5.3767e-06	52.235	205.744	189.543	107.674	73.320	239.127	140.042	73.176	78.294	200.826	139.692	77.426	82.275	82.710	86.724	130.378	86.126	-8191	255	
7267.133	1	1	0	0	0.23958	0.075154	0.037181	0.32213	0.16488	0.20019	0.11531	0.21449	0.093071	0.15704	0.13409	0.18679	0.075582	0.25433	0.081785	0.24716	-1.6979	-2.3729	-2.4562	-2.2229	-2.8708	-2.225	-2.1937	-2.7833	-2.0667	-2.5125	-2.6042	-2.1625	-2.8292	-2.4458	-2.2333	-2.8312	203.866	405.679	249.311	90.778	218.298	149.302	93.862	378.632	98.023	409.947	263.335	373.652	185.198	394.689	207.753	359.447	0.00046174	0.00040531	0.00018518	1348.4	8.4083e-06	2.8922e-06	1343.9	363.16	9.804e-06	5.3713e-06	414.06	138.67	120.18	41.356	7.2102e-06	51.463	0.00053176	0.00051843	0.00013842	1357.5	5.9011e-06	5.7214e-06	1357	368.04	5.9018e-06	5.579e-06	418.95	140.56	123.17	42.396	5.1336e-06	52.253	205.471	156.334	388.797	73.202	197.456	166.178	73.195	78.456	226.495	195.162	77.316	82.193	82.880	86.676	218.664	86.160	-8191	255	
7267.229	1	1	0	0	0.13249	0.12731	0.099885	0.065004	0.14622	0.23427	0.31357	0.31873	0.20042	0.12042	0.19663	0.060534	0.26565	0.10458	0.13042	0.033067	-1.6938	-2.2708	-2.4	-2.1583	-2.5875	-2.4875	-2.2729	-2.7979	-2.1833	-2.3354	-2.725	-1.9771	-2.5875	-2.4396	-1.9833	-2.8042	114.642	196.436	231.038	240.455	275.938	133.948	357.010	382.317	110.701	419.115	143.775	179.471	399.589	223.521	310.616	61.316	0.0002998	0.00054665	0.00014292	1344.7	4.3094e-06	1.6907e-06	1345.5	363.31	5.691e-06	3.854e-06	413.04	138.3	120.41	41.406	5.5813e-06	51.694	0.00053973	0.00049673	0.00013343	1357.6	5.8533e-06	5.4732e-06	1353.7	368.72	5.8759e-06	5.3343e-06	417.12	140.87	122.86	42.269	5.0176e-06	52.568	217.286	266.956	84.817	73.235	262.745	177.672	73.326	78.325	256.394	179.510	77.557	82.483	82.729	86.984	230.250	86.206	-8191	255	
7267.325	1	1	0	0	0.16205	0.042939	0.086335	0.17971	0.023889	0.1729	0.28335	0.17965	0.38939	0.077113	0.13993	0.081416	0.090604	0.29862	0.17813	0.061249	-1.8521	-2.0917	-2.4917	-2.1937	-2.425	-2.6437	-2.2188	-2.8271	-2.1021	-2.2188	-2.7062	-2.1542	-2.4646	-2.7167	-1.9375	-2.7062	137.891	195.257	369.363	70.310	411.565	201.397	362.521	395.714	90.728	252.526	136.234	364.917	347.990	64.040	395.281	88.497	0.00039257	0.00085076	0.00019799	1350.1	2.4437e-06	7.0975e-06	1344.8	363.15	2.3383e-06	4.8191e-06	413.42	138.92	120.73	41.443	9.2764e-06	51.714	0.00053443	0.00048507	0.00013041	1361.3	5.7338e-06	5.4119e-06	1353.9	369.49	5.7604e-06	5.2224e-06	417.09	141.42	122.74	42.269	5.0996e-06	52.72	195.536	190.086	119.465	73.267	103.064	136.469	73.497	78.369	316.492	375.879	77.704	82.403	82.729	86.935	254.491	86.258	-8191	255	
7267.444	1	1	0	0	0.16546	0.17288	0.27809	0.067776	0.14999	0.337	0.096356	0.169	0.06037	0.12812	0.065942	0.31623	0.156	0.16665	0.23063	0.050586	-1.8729	-2.1271	-2.8458	-2.0958	-2.4583	-2.6958	-2.2917	-2.9042	-2.4146	-2.1688	-2.8625	-2.0083	-2.5083	-2.7188	-1.9937	-2.6979	125.312	244.327	142.832	331.303	405.234	274.149	255.905	318.189	98.770	122.372	295.248	372.986	418.862	315.590	269.673	347.520	0.00038057	0.00071559	4.2583e-05	1340	6.1725e-06	1.4804e-06	1344.5	364.21	4.7294e-06	5.3635e-06	415.39	138.02	120.52	41.409	8.6532e-06	51.543	0.00052104	0.00047349	0.00013289	1360.1	5.5553e-06	5.2881e-06	1353.2	369.89	5.5985e-06	5.0928e-06	418.69	141.55	122.36	42.146	5.2607e-06	52.714	215.630	178.482	83.862	73.300	199.574	259.499	73.597	78.496	231.158	116.990	77.489	82.219	82.640	86.984	212.619	85.999	-8191	255	
7267.515	1	1	0	0	0.16927	0.28291	0.074748	0.26451	0.022848	0.19585	0.10429	0.2649	0.30585	0.23993	0.3418	0.2462	0.024334	0.049918	0.18045	0.23722	-1.9062	-1.9229	-2.7	-2.3917	-2.3979	-2.7	-2.1146	-2.6813	-2.4021	-2.1063	-2.7313	-2.5104	-2.3146	-2.9292	-2.1229	-2.6167	417.012	279.088	318.568	71.250	233.010	411.609	336.926	340.825	204.769	265.547	348.555	390.364	284.583	218.766	315.997	341.525	0.00039952	0.00026801	0.00018905	1349.4	4.157e-06	5.5525e-06	1343.5	361.84	5.0017e-06	6.2439e-06	414.42	138.07	119.96	41.527	8.9158e-06	51.243	0.0005041	0.00046067	0.00013913	1362.4	5.4011e-06	5.1593e-06	1356.9	369.35	5.4871e-06	4.968e-06	420.06	141.47	122.1	42.138	5.5655e-06	52.533	210.892	224.305	172.545	73.144	201.255	184.043	73.313	78.090	196.977	238.713	77.625	82.297	82.772	87.091	170.462	86.054	-8191	255	
7267.612	1	1	0	0	0.13794	0.25397	0.12479	0.29848	0.22486	0.1535	0.28635	0.20603	0.12263	0.32573	0.25446	0.14589	0.093375	0.31807	0.020513	0.28107	-2.0833	-1.9937	-2.65	-2.4813	-2.3375	-2.6896	-2.2938	-2.6417	-2.5458	-2.1271	-2.9333	-2.4229	-2.1646	-2.7313	-2.25	-2.5708	96.159	232.768	106.835	351.183	164.901	179.327	378.201	323.756	209.516	287.358	361.289	276.508	185.583	291.909	148.825	404.836	0.00040685	0.00026011	0.0001807	1346.9	8.4361e-06	2.9317e-06	1347.8	360.92	4.1139e-06	2.3782e-06	415.26	138.53	120.05	41.388	4.4427e-06	51.461	0.0004992	0.00045515	0.00014531	1361.3	5.3141e-06	5.1652e-06	1358.6	368.26	5.3473e-06	5.02e-06	420.98	141.17	122.01	42.156	5.8434e-06	52.473	201.255	229.308	123.238	73.515	188.731	205.387	73.536	78.094	237.919	188.443	78.275	83.052	83.336	87.556	127.840	86.168	-8191	255	
7267.708	1	1	0	0	0.21715	0.161	0.097206	0.34827	0.15354	0.12356	0.41131	0.49953	0.17897	0.25186	0.21361	0.56428	0.36996	0.038492	0.19333	0.053758	-2.1208	-1.9771	-2.5729	-2.5292	-2.0875	-2.7083	-2.3333	-2.4771	-2.7687	-2.1688	-2.7542	-2.4458	-2.3604	-2.8375	-2.1667	-2.3542	267.712	90.039	115.743	379.423	229.379	203.487	384.232	329.039	100.757	398.440	333.104	400.379	369.517	418.117	333.010	390.755	0.00045777	0.00068697	0.00010263	1343.5	7.5081e-06	5.3236e-06	1345.2	362.25	5.5242e-06	4.7888e-06	414.76	138.48	120.43	41.406	5.3072e-06	51.426	0.00048937	0.0004669	0.00014996	1359	5.1291e-06	5.3271e-06	1359.9	368.26	5.2498e-06	5.2327e-06	421.53	141.01	121.75	42.277	5.9323e-06	52.295	214.087	179.147	225.222	73.702	202.921	179.599	73.804	78.676	247.930	227.519	77.569	82.500	82.985	87.021	162.273	86.046	-8191	255	
7267.804	1	1	0	0	0.18306	0.1496	0.19381	0.44137	0.31319	0.17912	0.25698	0.37353	0.1501	0.18887	0.099547	0.13448	0.040766	0.10808	0.23225	0.19301	-2.3812	-1.9771	-2.5979	-2.6854	-1.9854	-2.7229	-2.4813	-2.6937	-2.7542	-2.1583	-2.7083	-2.6625	-2.1042	-2.7917	-2.3688	-2.3771	259.861	196.360	379.954	406.343	281.209	310.453	408.161	329.327	377.919	341.878	171.628	219.403	285.571	285.426	283.160	308.131	0.00032771	0.00062875	6.0338e-05	1344.6	2.2776e-06	6.5243e-06	1343.5	360.77	3.7992e-06	1.1272e-05	413.19	138.2	119.95	41.49	8.6736e-06	51.261	0.00047923	0.00049426	0.00014891	1358.6	4.982e-06	5.6185e-06	1358.3	367.15	5.2083e-06	5.5833e-06	420.46	140.9	121.66	42.487	5.8338e-06	52.282	212.669	175.577	177.693	73.234	201.957	211.687	73.299	78.131	191.686	160.111	77.308	82.419	82.572	86.714	225.534	86.024	-8191	255	
7267.925	1	1	0	0	0.1405	0.16229	0.067262	0.16255	0.15445	0.27423	0.41278	0.2186	0.14695	0.20399	0.267	0.08202	0.20154	0.14238	0.21716	0.22313	-2.3958	-1.9354	-2.3104	-2.7208	-1.9833	-2.6583	-2.4	-2.2562	-2.8333	-2.0583	-2.4125	-2.8063	-1.9792	-2.7062	-2.2021	-2.1625	270.592	249.633	235.023	97.267	80.855	406.486	398.777	402.832	408.798	120.763	241.160	386.450	299.542	130.948	120.988	361.807	0.00041789	0.00071759	0.00012547	1340.1	2.7693e-06	5.9012e-06	1341.7	361.5	3.1609e-06	8.988e-06	413.77	138.34	120.31	41.389	5.6249e-06	51.354	0.0004782	0.00052177	0.0001454	1355.6	5.0908e-06	5.9135e-06	1358.2	366.9	5.21e-06	5.8418e-06	419.66	140.72	122	42.535	5.6409e-06	52.096	207.940	123.156	269.106	73.144	177.276	165.561	73.229	77.891	148.318	174.630	77.261	82.197	82.547	86.664	214.517	85.776	-8191	255	
7268.021	1	1	0	0	0.11752	0.28028	0.16605	0.080315	0.203	0.25125	0.32046	0.34264	0.22143	0.32582	0.39569	0.32692	0.11038	0.17267	0.049768	0.23452	-2.3312	-2.2062	-2.3292	-2.8417	-1.9958	-2.6875	-2.6562	-2.2938	-2.7938	-2.1583	-2.4625	-2.7396	-2.1063	-2.6792	-2.45	-2.0375	153.146	152.503	194.337	117.428	155.195	223.571	372.351	370.444	384.692	336.284	387.569	366.719	416.312	397.427	398.828	237.226	0.00054068	0.0006581	0.00016303	1338.9	8.2148e-06	8.9338e-06	1342.4	361.24	9.1543e-06	6.019e-06	412.22	137.85	119.99	41.34	7.2885e-06	51.185	0.00049642	0.00054124	0.00014093	1353.7	5.3241e-06	5.9318e-06	1356.8	366.17	5.5377e-06	5.9108e-06	418.08	140.32	122.2	42.491	5.5621e-06	51.989	205.805	206.593	109.682	73.048	220.010	146.148	73.113	78.029	235.587	218.237	77.197	82.108	82.192	86.661	194.616	85.706	-8191	255	
7268.117	1	1	0	0	0.11992	0.041646	0.05616	0.23253	0.41852	0.20687	0.022939	0.18432	0.10193	0.066198	0.13531	0.29982	0.31048	0.31806	0.19965	0.22533	-2.2792	-2.2604	-2.1771	-2.7667	-2.0917	-2.5396	-2.7083	-1.9458	-2.8125	-2.3792	-2.2812	-2.8417	-2.1917	-2.3688	-2.5563	-2.1792	263.006	407.806	407.163	352.375	352.371	135.414	248.165	369.839	347.316	206.158	328.501	324.954	376.448	353.925	360.844	336.160	0.000504	0.00045106	8.646e-05	1337.8	1.2088e-05	1.7075e-06	1344.5	360.5	3.3241e-06	7.2666e-06	414.09	137.52	119.95	41.304	3.7197e-06	51.082	0.00052009	0.00053905	0.00013856	1352.9	5.6597e-06	5.8271e-06	1357.6	365.94	5.8869e-06	5.8222e-06	418.61	140.33	122.56	42.42	5.4769e-06	51.959	199.271	124.300	108.541	72.925	201.674	291.538	73.154	77.863	196.669	246.642	77.187	82.039	82.504	86.734	216.741	85.384	-8191	255	
7268.213	1	1	0	0	0.07623	0.29243	0.17286	0.41505	0.19692	0.15143	0.14125	0.20082	0.071758	0.25136	0.094503	0.1889	0.18797	0.3945	0.074033	0.015238	-2.4	-2.2583	-2.3833	-2.7667	-2.0854	-2.5208	-2.6625	-2.1375	-2.7021	-2.3771	-2.175	-2.7292	-2.2146	-2.3646	-2.6958	-2.0396	282.001	385.078	242.122	392.123	347.489	316.284	312.513	317.691	228.451	389.093	90.537	380.283	335.444	406.656	146.087	345.263	0.00052067	0.00021305	6.3413e-05	1337.7	8.1897e-06	1.8192e-06	1335.8	361.12	6.6957e-06	6.6533e-07	412.24	138.52	120.28	41.334	2.0456e-06	51.147	0.00054516	0.00052897	0.00013545	1353.7	5.9571e-06	5.6455e-06	1352.8	366.35	5.9499e-06	5.6348e-06	416.86	140.65	123.02	42.349	5.3468e-06	52.123	213.924	307.370	232.913	73.022	232.176	276.167	73.154	77.834	260.609	247.956	77.096	82.073	82.468	86.435	176.412	85.588	-8191	255	
7268.309	1	1	0	0	0.15918	0.18662	0.23889	0.17557	0.19967	0.13638	0.34391	0.21171	0.051332	0.33217	0.038627	0.28095	0.2984	0.4214	0.2036	0.18729	-2.1125	-2.1667	-2.1167	-2.8708	-2.1	-2.2042	-2.7646	-1.9208	-2.4958	-2.6083	-2.1542	-2.7812	-2.2708	-2.2604	-2.6417	-2.0187	373.697	398.873	250.440	329.154	174.265	117.095	357.011	63.540	385.216	153.797	350.897	77.262	89.568	350.616	70.683	340.361	0.00045872	0.00062758	0.00018017	1344.9	1.8609e-06	2.4162e-06	1340.9	360.56	7.0527e-06	7.4957e-06	412	138.09	120.85	41.374	1.0866e-06	51.445	0.0005516	0.00051062	0.00013107	1358.3	6.0239e-06	5.444e-06	1354.4	367.43	5.9644e-06	5.5047e-06	416.64	141.26	123.03	42.228	5.2176e-06	52.464	204.374	190.193	394.809	73.132	250.204	200.674	73.100	77.809	180.632	268.194	77.198	81.997	82.302	86.514	64.744	85.593	-8191	255	
7268.405	1	1	0	0	0.1291	0.24386	0.073534	0.36849	0.1092	0.19318	0.24988	0.30532	0.061117	0.06649	0.025473	0.26199	0.11477	0.12659	0.24331	0.098787	-2.1458	-2.4396	-2.0833	-2.8479	-2.2729	-2.1375	-2.7708	-2.0521	-2.3729	-2.5104	-2.0563	-2.7958	-2.3688	-2.2104	-2.4875	-2.1896	236.117	63.057	403.064	402.484	408.454	350.529	327.487	311.919	280.877	184.166	371.444	340.365	157.148	87.165	411.799	413.848	0.0004089	0.00080007	0.00020677	1343.5	8.1832e-06	2.887e-06	1340.1	363.1	3.4006e-06	1.0241e-05	412.06	138.28	119.86	41.376	2.7452e-06	51.391	0.00053751	0.00050218	0.0001291	1360.4	5.818e-06	5.3445e-06	1351.7	368.78	5.7034e-06	5.3652e-06	416.42	141.39	122.56	42.122	5.2309e-06	52.611	212.023	111.453	202.752	72.854	242.293	153.134	73.058	77.781	408.467	161.251	77.106	82.074	82.414	86.530	174.372	85.967	-8191	255	
7268.526	1	1	0	0	0.11768	0.25205	0.3603	0.17657	0.047376	0.049634	0.23845	0.090345	0.25709	0.2373	0.33957	0.079339	0.10697	0.28149	0.042985	0.12582	-2.0521	-2.6833	-2.0687	-2.9896	-2.4146	-1.9521	-2.7812	-2.2896	-2.3083	-2.7229	-2.0604	-2.75	-2.6125	-2.0604	-2.6937	-2.2812	125.175	341.090	235.280	64.555	286.586	290.654	302.775	243.198	303.305	106.002	414.160	417.969	308.109	196.715	343.035	67.489	0.0003919	0.00047631	0.00020767	1339	5.0985e-06	4.1401e-06	1339.6	361.84	3.3784e-06	6.2275e-06	414.57	137.68	119.74	41.214	6.2009e-06	51.134	0.00050896	0.00048311	0.00013142	1360.9	5.6205e-06	5.1347e-06	1353.5	368.95	5.5113e-06	5.2601e-06	417.24	141.56	122.41	42.023	5.5672e-06	52.544	202.265	162.433	157.298	72.962	205.452	179.330	73.189	78.061	280.437	173.081	77.249	82.018	82.579	86.697	161.653	85.910	-8191	255	
7268.620	1	1	0	0	0.22081	0.1516	0.36804	0.27891	0.13566	0.096545	0.35485	0.22772	0.15613	0.10542	0.11785	0.13022	0.16899	0.14846	0.12139	0.10643	-1.8229	-2.5417	-1.9354	-2.5938	-2.5187	-2.1271	-2.8021	-2.3937	-2.2062	-2.6625	-2.1708	-2.675	-2.5375	-2.0896	-2.5875	-2.3646	414.120	416.024	103.827	361.777	291.942	261.295	354.243	391.908	232.131	107.255	159.370	66.787	292.343	321.184	74.431	78.750	0.00037757	0.00014732	0.00015789	1344.5	5.9475e-06	5.0125e-06	1343.2	360.81	3.7276e-06	5.818e-06	412.87	137.4	119.57	41.366	7.0534e-06	51.099	0.00050325	0.00047872	0.0001401	1361.6	5.5818e-06	5.0725e-06	1356.3	368.24	5.4333e-06	5.2135e-06	419.53	141.13	122.13	42.028	5.8441e-06	52.495	202.700	257.904	130.644	73.030	179.355	180.468	72.922	77.784	248.706	159.324	77.125	82.099	82.220	86.418	197.297	85.747	-8191	255	
7268.716	1	1	0	0	0.20188	0.14179	0.16463	0.30797	0.19123	0.10025	0.25327	0.037019	0.10878	0.083475	0.46238	0.1412	0.065091	0.24908	0.1397	0.25701	-1.7271	-2.6979	-2.0479	-2.5563	-2.6271	-2.1521	-2.8083	-2.3583	-2.1875	-2.6896	-2.15	-2.4417	-2.5708	-2.0563	-2.5979	-2.3729	128.180	302.349	250.185	341.934	107.775	108.779	340.033	361.226	95.570	253.741	408.908	363.601	225.448	337.092	218.841	387.185	0.00033149	0.00044078	8.296e-05	1342.1	6.4155e-06	5.104e-06	1344.9	361.52	3.7276e-06	9.0229e-06	413	137.81	119.67	41.234	1.4281e-05	51.039	0.00048682	0.00047228	0.00014764	1358.9	5.4675e-06	5.0746e-06	1359.5	368.07	5.2549e-06	5.2433e-06	420.75	140.87	121.85	42.014	5.9906e-06	52.418	198.647	174.094	111.264	73.136	241.663	230.372	73.094	77.910	163.781	179.474	77.172	82.050	82.618	86.375	203.151	85.980	-8191	255	
7268.813	1	1	0	0	0.20315	0.18917	0.12171	0.13309	0.11884	0.074156	0.11475	0.171	0.24873	0.17295	0.21562	0.063572	0.2988	0.096172	0.030805	0.11905	-1.7625	-2.5729	-2.0104	-2.5292	-2.4979	-2.1646	-2.7542	-2.4333	-2.0021	-2.7687	-2.1792	-2.3542	-2.5875	-2.1146	-2.4208	-2.5208	204.550	145.650	296.419	327.067	319.885	256.907	274.385	397.678	112.488	275.905	398.273	204.715	364.514	249.679	218.103	221.032	0.0003921	0.0011785	0.0001737	1341	5.8021e-06	4.684e-06	1342.9	361.03	2.5466e-06	2.2083e-06	414.23	138.44	119.79	41.084	1.27e-05	51.143	0.00047373	0.00049026	0.00015171	1356.8	5.3188e-06	5.3377e-06	1359.4	367.35	5.1176e-06	5.5086e-06	420.74	140.63	121.69	42.174	5.9286e-06	52.32	215.784	151.575	398.086	72.899	275.131	215.196	73.064	78.030	245.250	158.202	77.261	81.661	82.390	86.540	191.373	85.709	-8191	255	
#DATA ENDS
