BOXY.EXE: ISS Imagent and Oximeter Data Acquisition Program Version 0.80
Ascii Record File

#ACQ INFORMATION
2  Detector Channels 
16  External MUX Channels 
1  Auxiliary Channels 
5000  Waveform (CCF) Frequency (Hz)
1  Waveforms Skipped 
30  Waveforms Averaged 
1  Cycles Averaged 
16  Acquisitions per Waveform 
10.0806  Updata Rate (Hz) 

#FILE INFORMATION
TRUE -- External MUX Channel results are PARSED.
FALSE -- AC DC and Phase are NOT grouped.
TRUE -- Companion Program Settings File CREATED.
FALSE -- AC data not excluded
FALSE -- DC data not excluded
FALSE -- Phase data not excluded
FALSE -- Auxillary Chn. data not excluded
Tab delimiters

#CALIBRATION STATE
TRUE -- Waveform Calibration Values APPLIED.


#AUX CALIBRATION VALUES
Val Type	aux-1	

Term	1.0000e+00	
Factor	0.0000e+00	


#WF CALIBRATION VALUES
A = Detector Channel
Val Type	A-AC1	A-AC2	A-AC3	A-AC4	A-AC5	A-AC6	A-AC7	A-AC8	A-AC9	A-AC10	A-AC11	A-AC12	A-AC13	A-AC14	A-AC15	A-AC16	A-DC1	A-DC2	A-DC3	A-DC4	A-DC5	A-DC6	A-DC7	A-DC8	A-DC9	A-DC10	A-DC11	A-DC12	A-DC13	A-DC14	A-DC15	A-DC16	A-Ph1	A-Ph2	A-Ph3	A-Ph4	A-Ph5	A-Ph6	A-Ph7	A-Ph8	A-Ph9	A-Ph10	A-Ph11	A-Ph12	A-Ph13	A-Ph14	A-Ph15	A-Ph16	

Term	0.00000e+00	0.00000e+00	0.00000e+00	0.00000e+00	0.00000e+00	0.00000e+00	0.00000e+00	0.00000e+00	0.00000e+00	0.00000e+00	0.00000e+00	0.00000e+00	0.00000e+00	0.00000e+00	0.00000e+00	0.00000e+00	0.00000e+00	0.00000e+00	0.00000e+00	0.00000e+00	0.00000e+00	0.00000e+00	0.00000e+00	0.00000e+00	0.00000e+00	0.00000e+00	0.00000e+00	0.00000e+00	0.00000e+00	0.00000e+00	0.00000e+00	0.00000e+00	0.00000e+00	0.00000e+00	0.00000e+00	0.00000e+00	0.00000e+00	0.00000e+00	0.00000e+00	0.00000e+00	0.00000e+00	0.00000e+00	0.00000e+00	0.00000e+00	0.00000e+00	0.00000e+00	0.00000e+00	0.00000e+00	
Factor	1.00000e+00	1.00000e+00	1.00000e+00	1.00000e+00	1.00000e+00	1.00000e+00	1.00000e+00	1.00000e+00	1.00000e+00	1.00000e+00	1.00000e+00	1.00000e+00	1.00000e+00	1.00000e+00	1.00000e+00	1.00000e+00	1.00000e+00	1.00000e+00	1.00000e+00	1.00000e+00	1.00000e+00	1.00000e+00	1.00000e+00	1.00000e+00	1.00000e+00	1.00000e+00	1.00000e+00	1.00000e+00	1.00000e+00	1.00000e+00	1.00000e+00	1.00000e+00	X	X	X	X	X	X	X	X	X	X	X	X	X	X	X	X	

B = Detector Channel
Val Type	B-AC1	B-AC2	B-AC3	B-AC4	B-AC5	B-AC6	B-AC7	B-AC8	B-AC9	B-AC10	B-AC11	B-AC12	B-AC13	B-AC14	B-AC15	B-AC16	B-DC1	B-DC2	B-DC3	B-DC4	B-DC5	B-DC6	B-DC7	B-DC8	B-DC9	B-DC10	B-DC11	B-DC12	B-DC13	B-DC14	B-DC15	B-DC16	B-Ph1	B-Ph2	B-Ph3	B-Ph4	B-Ph5	B-Ph6	B-Ph7	B-Ph8	B-Ph9	B-Ph10	B-Ph11	B-Ph12	B-Ph13	B-Ph14	B-Ph15	B-Ph16	

Term	0.00000e+00	0.00000e+00	0.00000e+00	0.00000e+00	0.00000e+00	0.00000e+00	0.00000e+00	0.00000e+00	0.00000e+00	0.00000e+00	0.00000e+00	0.00000e+00	0.00000e+00	0.00000e+00	0.00000e+00	0.00000e+00	0.00000e+00	0.00000e+00	0.00000e+00	0.00000e+00	0.00000e+00	0.00000e+00	0.00000e+00	0.00000e+00	0.00000e+00	0.00000e+00	0.00000e+00	0.00000e+00	0.00000e+00	0.00000e+00	0.00000e+00	0.00000e+00	-8.19876e+01	-1.12488e+02	-1.32334e+02	-1.83765e+02	-5.47796e+01	-7.96704e+01	-1.58050e+02	-1.62015e+02	-4.66416e+01	-8.78703e+01	-1.70682e+02	-1.70765e+02	-1.77608e+02	-1.76832e+02	-7.22374e+01	-1.49734e+02	
Factor	1.97146e-05	1.23164e-04	3.32636e-05	1.69880e-01	1.09298e-06	1.11543e-06	1.82340e-01	6.04400e-02	9.77201e-07	1.31635e-06	1.00421e-01	3.42866e-02	2.87001e-02	1.09200e-02	1.35373e-06	1.56389e-02	8.88536e-07	9.06807e-07	2.53891e-07	8.32282e-02	9.95797e-09	9.96105e-09	8.40902e-02	2.94902e-02	9.96807e-09	9.92728e-09	4.65780e-02	1.59708e-02	1.39218e-02	5.21665e-03	9.98655e-09	7.18501e-03	X	X	X	X	X	X	X	X	X	X	X	X	X	X	X	X	



#DISTANCE SETTINGS
A = Detector Channel
A-1	A-2	A-3	A-4	A-5	A-6	A-7	A-8	A-9	A-10	A-11	A-12	A-13	A-14	A-15	A-16	

2.5000e+00	3.0000e+00	2.5000e+00	3.0000e+00	2.0000e+00	3.0000e+00	1.5000e+00	3.0000e+00	3.0000e+00	3.0000e+00	3.0000e+00	3.0000e+00	3.0000e+00	3.0000e+00	1.5000e+00	3.0000e+00	

B = Detector Channel
B-1	B-2	B-3	B-4	B-5	B-6	B-7	B-8	B-9	B-10	B-11	B-12	B-13	B-14	B-15	B-16	

1.0000e+01	1.0000e+01	1.0000e+01	1.4400e+00	1.0000e+01	1.0000e+01	1.5100e+00	1.9400e+00	1.0000e+01	1.0000e+01	1.9900e+00	2.4900e+00	2.4100e+00	2.9000e+00	1.0000e+01	2.9800e+00	




#DATA BEGINS
time	group	step	mark	flag	A-AC1	A-AC2	A-AC3	A-AC4	A-AC5	A-AC6	A-AC7	A-AC8	A-AC9	A-AC10	A-AC11	A-AC12	A-AC13	A-AC14	A-AC15	A-AC16	A-DC1	A-DC2	A-DC3	A-DC4	A-DC5	A-DC6	A-DC7	A-DC8	A-DC9	A-DC10	A-DC11	A-DC12	A-DC13	A-DC14	A-DC15	A-DC16	A-Ph1	A-Ph2	A-Ph3	A-Ph4	A-Ph5	A-Ph6	A-Ph7	A-Ph8	A-Ph9	A-Ph10	A-Ph11	A-Ph12	A-Ph13	A-Ph14	A-Ph15	A-Ph16	B-AC1	B-AC2	B-AC3	B-AC4	B-AC5	B-AC6	B-AC7	B-AC8	B-AC9	B-AC10	B-AC11	B-AC12	B-AC13	B-AC14	B-AC15	B-AC16	B-DC1	B-DC2	B-DC3	B-DC4	B-DC5	B-DC6	B-DC7	B-DC8	B-DC9	B-DC10	B-DC11	B-DC12	B-DC13	B-DC14	B-DC15	B-DC16	B-Ph1	B-Ph2	B-Ph3	B-Ph4	B-Ph5	B-Ph6	B-Ph7	B-Ph8	B-Ph9	B-Ph10	B-Ph11	B-Ph12	B-Ph13	B-Ph14	B-Ph15	B-Ph16	aux-1	digaux	

7932.777	1	1	0	256	0.18194	0.31589	0.28005	0.068203	0.28827	0.19946	0.24059	0.12304	0.042018	0.19842	0.3718	0.094338	0.19226	0.24513	0.12251	0.19054	-2.025	-2.0479	-2.575	-2.1625	-2.2396	-2.5771	-2.0563	-2.3896	-2.5583	-2.0146	-2.5396	-2.3375	-2.2833	-2.5875	-2.0187	-2.4896	285.135	297.787	149.255	304.540	235.437	210.408	339.421	315.345	377.246	400.094	340.492	230.509	261.331	102.558	138.972	86.758	0.00053647	0.00068349	0.00015913	597.95	3.5896e-06	1.1755e-05	753	227.47	4.391e-06	1.1837e-05	340.06	147.1	88.826	45.716	1.2058e-05	80.891	0.00064169	0.00059268	0.00020644	621.7	7.0198e-06	7.1685e-06	770.01	235.16	7.6496e-06	7.4649e-06	352.32	148.27	91.834	45.884	9.397e-06	78.95	205.998	237.976	121.659	65.347	314.605	196.588	65.282	71.959	209.448	175.071	70.244	74.910	77.202	81.174	220.422	78.039	-8191	255	
7932.849	1	1	0	0	0.063268	0.26736	0.27823	0.064833	0.32321	0.13428	0.10245	0.1464	0.086761	0.078257	0.19559	0.27762	0.18189	0.27747	0.19562	0.20307	-2	-2.0104	-2.5125	-2.3729	-1.8375	-2.7333	-2.1167	-2.4479	-2.4083	-1.8958	-2.6104	-2.4667	-1.95	-2.6729	-2.1188	-2.3875	207.464	156.141	382.748	116.950	401.142	201.163	376.754	305.556	400.118	250.012	404.209	362.651	410.093	57.532	378.571	407.670	0.00062501	0.0010128	0.00025133	596.02	1.4305e-06	1.3441e-05	762.61	231.56	4.9945e-06	1.6543e-05	348.15	149.75	91.147	46.922	4.7494e-06	81.889	0.00072082	0.00073882	0.00024371	628.3	7.7335e-06	8.6897e-06	789.24	240.68	8.3121e-06	9.0919e-06	362.48	151.51	94.945	47.772	1.0053e-05	80.252	183.995	181.463	209.628	65.531	359.940	175.098	65.144	72.034	342.434	177.456	70.259	75.205	76.928	81.129	149.509	78.137	-8191	255	
7932.945	1	1	0	0	0.16838	0.12275	0.12562	0.18567	0.40043	0.18729	0.067626	0.17676	0.17408	0.20243	0.096167	0.25367	0.070792	0.21364	0.075534	0.10105	-2.1583	-1.8792	-2.4437	-2.6021	-1.9646	-2.6188	-2.325	-2.2833	-2.5875	-1.8958	-2.6396	-2.5667	-2.0146	-2.8083	-2.2062	-2.0687	104.400	389.474	235.444	325.373	235.494	187.383	82.850	370.603	216.003	300.955	257.563	114.712	351.321	385.788	282.334	98.552	0.00061371	0.0015882	4.6372e-05	595.84	4.5405e-06	9.2545e-06	760.47	232.7	1.3177e-06	1.3259e-05	347.42	149.76	91.374	46.477	5.2288e-06	81.263	0.00075146	0.00084829	0.00024241	626.65	7.6871e-06	9.2641e-06	783	239.48	7.918e-06	9.3105e-06	357.36	150.47	94.531	47.742	9.3043e-06	79.18	208.003	170.998	113.190	65.357	233.958	236.471	65.351	71.641	411.947	200.755	69.730	74.995	76.939	80.949	131.254	78.031	-8191	255	
7933.041	1	1	0	0	0.070242	0.11465	0.063782	0.12299	0.23855	0.119	0.25423	0.23907	0.24909	0.29197	0.27759	0.040468	0.21658	0.23489	0.17122	0.3027	-2.2792	-1.9375	-2.3917	-2.5333	-2.1667	-2.4854	-2.2562	-2.0062	-2.6813	-2.1063	-2.3688	-2.65	-2.0958	-2.7292	-2.3688	-1.9937	114.630	320.597	403.100	345.599	321.612	209.849	282.195	353.228	368.752	256.213	301.647	84.870	375.273	61.407	388.504	397.505	0.00063954	0.00047028	0.00015134	590.44	1.5636e-05	3.6204e-06	740.64	228.85	8.4502e-06	4.87e-06	343.1	148.17	90.387	46.339	4.9442e-06	81.556	0.00078146	0.00092485	0.00023413	620.76	8.4433e-06	1.0087e-05	766.17	236.54	8.573e-06	9.8355e-06	352.04	149.23	95.149	47.678	8.4746e-06	79.359	198.527	166.198	112.389	66.072	219.492	197.576	65.349	71.816	206.591	315.088	69.956	75.325	76.977	81.084	283.460	78.161	-8191	255	
7933.162	1	1	0	0	0.044859	0.43966	0.19395	0.13568	0.18953	0.19679	0.12432	0.2802	0.1774	0.17419	0.29784	0.22408	0.081721	0.098718	0.24207	0.22003	-2.0062	-1.9375	-2.0104	-2.6292	-1.9833	-2.6021	-2.4083	-1.9208	-2.6958	-2.0271	-2.2	-2.5375	-1.8854	-2.4688	-2.5542	-2.1396	88.830	141.303	243.393	196.499	359.073	77.798	407.007	272.781	281.821	314.165	394.915	92.659	372.958	387.384	147.136	389.955	0.00062012	0.00045395	0.0001158	591.57	1.0477e-05	5.6554e-06	753.2	230.39	8.7074e-06	7.1457e-06	351.99	152.02	93.321	47.636	5.5479e-06	84.342	0.00077882	0.00082995	0.00019894	615.03	8.2485e-06	8.7902e-06	769.08	236.03	8.3746e-06	8.5747e-06	353.88	150.86	96.416	47.86	7.3037e-06	80.87	198.227	224.086	331.617	65.773	198.143	316.614	65.774	72.129	214.494	184.793	70.458	75.066	77.403	80.711	143.985	78.505	-8191	255	
7933.256	1	1	0	0	0.15869	0.1822	0.16071	0.34707	0.26943	0.13704	0.40317	0.20088	0.15312	0.018427	0.2551	0.12879	0.29004	0.052327	0.1179	0.20625	-2.0104	-2.2479	-2.0667	-2.65	-2.1021	-2.4146	-2.625	-2.0062	-2.6688	-2.3854	-2.1604	-2.675	-2.0479	-2.5021	-2.65	-2.2188	387.447	162.597	181.979	57.344	91.087	278.262	342.503	369.508	130.793	205.185	70.331	226.175	173.668	232.478	354.464	348.642	0.00064161	0.00090947	0.00034043	607.06	8.2535e-06	1.0106e-06	779.33	239.05	3.9512e-06	4.9412e-06	359.73	155.83	94.857	48.609	6.4674e-06	86.445	0.00075493	0.00071937	0.0001773	619.65	8.2171e-06	7.6015e-06	780.98	241.32	8.2677e-06	7.6074e-06	358.41	154.47	98.234	48.292	6.7611e-06	82.569	198.184	284.663	142.841	65.533	280.060	280.314	65.180	71.615	161.808	390.997	70.266	75.420	77.287	80.737	148.704	77.982	-8191	255	
7933.354	1	1	0	0	0.25283	0.18942	0.12006	0.1287	0.20671	0.19189	0.17826	0.28532	0.1033	0.24049	0.35333	0.16052	0.11922	0.15856	0.30877	0.091695	-2.2104	-2.2729	-1.8833	-2.8354	-2.1875	-2.1729	-2.7542	-2.0604	-2.4792	-2.2562	-2.0563	-2.7562	-2.0333	-2.2812	-2.5729	-2.0104	193.688	69.325	174.326	352.907	73.083	83.603	69.497	326.232	87.306	71.737	404.490	397.336	119.739	401.993	108.836	313.308	0.00066066	0.0001012	0.00011611	610.01	6.1667e-06	2.0549e-06	786.36	241.28	2.1913e-06	4.7168e-06	364.32	158.49	95.863	49.153	4.9494e-06	86.316	0.00073629	0.00064891	0.00016212	625.84	7.8544e-06	6.7401e-06	783.03	243.91	7.672e-06	6.724e-06	359.8	156.21	98.044	48.29	6.3722e-06	82.826	204.127	88.607	353.163	65.539	392.732	393.766	65.220	71.709	339.489	152.028	69.774	75.180	77.200	80.971	180.191	77.888	-8191	255	
7933.473	1	1	0	0	0.15168	0.12486	0.11643	0.060374	0.082622	0.23641	0.19019	0.23365	0.12141	0.10133	0.36168	0.29705	0.11036	0.15262	0.10111	0.21493	-2.1625	-2.2208	-1.9521	-2.6146	-2.2188	-2.1542	-2.675	-2.0896	-2.3771	-2.5229	-2.0229	-2.6813	-2.0729	-2.3958	-2.7292	-2.0271	308.072	65.663	90.898	317.978	182.554	327.598	384.446	313.552	316.622	236.086	70.842	69.635	381.565	73.245	279.930	397.779	0.0006351	0.00021886	4.4938e-05	601.96	3.9377e-06	5.3038e-06	769.02	240.44	3.1181e-06	8.7305e-06	361.95	157.81	96.098	49.651	1.2813e-05	87.626	0.00070502	0.00063298	0.00016125	622.85	7.6334e-06	6.6339e-06	769.27	245.08	7.253e-06	6.5708e-06	356.15	156.86	98.026	48.592	6.4268e-06	84.133	199.605	209.796	139.739	65.545	173.528	143.332	65.383	71.904	319.490	219.633	69.983	74.764	77.054	80.828	197.344	77.845	-8191	255	
7933.545	1	1	0	0	0.20958	0.13544	0.037104	0.059015	0.18446	0.10802	0.046973	0.1359	0.15916	0.10008	0.051821	0.12036	0.16899	0.24431	0.2371	0.19028	-2.0208	-2.3937	-1.9438	-2.6146	-2.1146	-2.1771	-2.6875	-2.1292	-2.4167	-2.5687	-2.2583	-2.775	-2.4604	-2.1562	-2.6792	-2.0771	259.799	341.103	174.217	213.290	104.913	298.439	390.279	344.082	107.215	137.162	236.903	302.515	131.892	69.950	153.430	386.340	0.00069335	0.00050584	0.00025156	600.99	3.2162e-06	5.5306e-06	781.79	243.26	1.2576e-05	3.133e-06	366.08	161.2	97.928	50.724	1.6464e-05	88.7	0.00063508	0.00057956	0.00016153	623.97	6.742e-06	5.9144e-06	777.37	247.43	6.3476e-06	5.9474e-06	364.07	159.71	98.849	49.328	6.9072e-06	85.369	205.662	278.306	134.057	65.736	175.190	148.613	65.480	71.589	240.439	108.911	69.832	75.079	76.833	80.974	177.972	77.602	-8191	255	
7933.641	1	1	0	0	0.1289	0.2478	0.19413	0.24308	0.14198	0.18019	0.068939	0.1345	0.18397	0.16707	0.18561	0.11725	0.058208	0.37716	0.053775	0.16853	-1.8375	-2.4208	-1.9292	-2.575	-2.4125	-2.0604	-2.7125	-2.2229	-2.0792	-2.6083	-1.9375	-2.4688	-2.3937	-2.2	-2.6333	-2.3438	131.753	410.817	55.790	320.986	148.932	262.300	54.068	92.332	81.184	165.106	298.999	121.711	130.880	374.696	336.340	295.915	0.00073984	0.00049437	0.00035264	602.12	6.0819e-06	2.9911e-06	779.78	243.08	6.3125e-06	4.3319e-06	371.26	163.54	98.761	51.343	1.3278e-05	89.721	0.00061407	0.00057484	0.00018032	624.8	6.7164e-06	6.0366e-06	787.02	248	6.2958e-06	6.1019e-06	369.43	160.52	99.414	49.721	7.0639e-06	85.86	202.858	316.790	143.260	65.591	54.767	223.874	65.500	71.816	251.135	158.737	69.704	74.858	77.093	80.772	217.862	77.893	-8191	255	
7933.761	1	1	0	0	0.24077	0.19959	0.10419	0.31915	0.070707	0.059611	0.237	0.11143	0.51871	0.1222	0.096142	0.048686	0.083586	0.072983	0.15345	0.25477	-1.4542	-2.5625	-2.0208	-2.4333	-2.4167	-1.9604	-2.5979	-2.4062	-2.0812	-2.7208	-1.9813	-2.5542	-2.5187	-1.925	-2.5396	-2.3521	261.738	252.405	86.858	300.405	146.851	256.693	302.626	370.601	88.756	332.719	58.538	383.031	246.434	411.094	401.919	352.229	0.00068901	0.0016828	0.00027732	613.65	3.3014e-06	4.6985e-06	790.92	246.78	4.1055e-06	9.2423e-06	378.04	164.88	100.16	52.039	4.9863e-06	90.916	0.00055221	0.00053392	0.00017579	625.22	5.8951e-06	5.6425e-06	795.67	249.12	5.5474e-06	5.8058e-06	373.19	160.97	99.446	50.463	6.5102e-06	86.151	207.722	186.286	164.014	65.277	152.028	173.398	65.315	71.630	206.067	176.095	69.916	74.599	76.810	80.635	145.426	77.775	-8191	255	
7933.858	1	1	0	0	0.2122	0.33621	0.064853	0.2812	0.019462	0.2161	0.33769	0.16025	0.11919	0.045779	0.17497	0.09901	0.091391	0.10387	0.21382	0.11748	-1.5604	-2.6688	-2.0458	-2.2833	-2.5563	-1.8563	-2.4354	-2.4146	-2.0687	-2.6646	-2.3417	-2.2125	-2.7521	-2.0708	-2.4021	-2.4167	323.141	314.220	371.931	378.469	353.217	379.359	64.628	362.996	158.007	108.211	74.696	356.995	76.707	354.513	248.344	150.188	0.00066127	0.0012413	0.00014021	619.21	3.6775e-06	6.7386e-06	794.94	248.93	3.3071e-06	1.1802e-05	372.67	165.01	100.2	52.253	9.6814e-06	90.629	0.00048468	0.00052943	0.00016755	622.09	5.4508e-06	5.978e-06	793.47	249.47	5.4133e-06	6.411e-06	371.27	160.52	100.15	51.022	6.7367e-06	86.178	204.141	178.600	72.706	65.773	271.451	180.205	65.244	71.780	176.696	203.866	69.943	74.802	76.813	80.916	367.243	77.872	-8191	255	
7933.954	1	1	0	0	0.090841	0.18175	0.25467	0.21005	0.20554	0.067139	0.22071	0.17503	0.16411	0.22148	0.23869	0.1788	0.22034	0.25345	0.11686	0.12122	-1.7	-2.6125	-2.2	-2.1125	-2.4917	-1.8646	-2.5667	-2.5	-2.0146	-2.6896	-2.3688	-1.9604	-2.7812	-2.1146	-2.3812	-2.6542	170.353	249.579	64.225	349.860	307.787	310.815	406.090	82.416	353.979	176.126	403.804	413.424	284.425	331.236	371.315	202.440	0.00058754	0.00085663	9.6161e-05	613.68	9.4272e-06	7.3385e-06	792.76	251.73	4.3897e-06	1.0206e-05	376.39	165.39	101	52.25	1.0522e-05	90.542	0.00052008	0.00061394	0.00017078	622.72	5.8052e-06	6.8265e-06	792.8	251.23	5.7128e-06	6.9916e-06	372.94	160.86	101.04	51.561	6.4485e-06	86.402	200.231	157.429	107.404	65.381	252.652	257.409	65.176	71.847	290.444	162.768	69.696	74.866	77.183	80.515	76.052	77.786	-8191	255	
7934.074	1	1	0	0	0.079856	0.072818	0.34951	0.053556	0.26652	0.026614	0.1576	0.18251	0.0241	0.14473	0.13844	0.19978	0.40917	0.14526	0.18574	0.36861	-1.4312	-2.5521	-2.1729	-2.1562	-2.6042	-2.1125	-2.4688	-2.6333	-1.9667	-2.4188	-2.3667	-2.2646	-2.6437	-2.1688	-2.3396	-2.8792	182.733	290.481	194.024	376.105	347.746	180.793	382.654	396.270	322.643	112.163	90.284	327.152	92.717	58.722	272.209	347.993	0.00076151	0.00071477	0.000185	615.82	2.7454e-06	7.0753e-06	796.07	251.25	7.5219e-06	1.1688e-05	377.3	166.04	101.78	52.353	4.9586e-06	91.421	0.00055313	0.0006474	0.00016278	622.95	6.1803e-06	6.9868e-06	790.91	250.88	6.1431e-06	6.8953e-06	372.41	161.3	101.9	51.7	5.9516e-06	86.72	209.592	163.830	408.863	65.439	166.157	175.276	65.238	71.678	243.714	159.826	69.913	74.840	77.019	80.469	248.989	77.770	-8191	255	
7934.146	1	1	0	0	0.29258	0.23628	0.27935	0.17438	0.17269	0.15803	0.040724	0.31057	0.11142	0.16746	0.22678	0.051989	0.13432	0.14611	0.070739	0.094639	-1.7125	-2.5833	-2.3125	-2.2104	-2.775	-2.2208	-2.0417	-2.6188	-1.9875	-2.675	-2.5104	-2.0667	-2.6979	-2.0563	-2.1063	-2.8229	58.213	398.897	83.185	340.712	175.039	236.026	111.966	364.652	65.625	220.335	355.365	295.239	365.534	103.720	62.564	94.886	0.0006873	0.00041147	0.00023736	616.41	8.4592e-06	7.6386e-06	797.99	251.39	5.428e-06	2.2407e-06	380.57	166.65	101.95	52.195	4.4841e-06	91.493	0.0005881	0.00060103	0.00015036	617.97	6.384e-06	6.531e-06	788.78	250.63	6.4207e-06	6.3536e-06	372.01	161.58	102.69	51.442	5.5787e-06	86.561	214.476	287.693	185.129	65.184	207.637	288.882	65.322	71.691	202.588	377.359	69.741	74.704	77.035	80.690	354.176	77.773	-8191	255	
7934.242	1	1	0	0	0.088962	0.17979	0.11224	0.025415	0.023924	0.24415	0.11975	0.032693	0.18778	0.16543	0.072497	0.23866	0.063885	0.044816	0.14921	0.14093	-1.7271	-2.3542	-2.5646	-1.9083	-2.7104	-2.1833	-2.2562	-2.75	-2.1146	-2.3729	-2.6042	-1.9458	-2.6917	-2.2021	-2.225	-2.6104	279.465	364.897	66.800	325.602	205.691	156.260	387.413	82.628	404.315	344.235	393.147	338.554	279.300	169.639	219.321	379.191	0.0006814	0.00038967	0.00022125	617.02	4.8619e-06	3.051e-06	788.39	249.9	5.9004e-06	3.9873e-06	375.54	165.33	101.48	52.291	4.1719e-06	91	0.00060914	0.00055759	0.000144	620.68	6.6405e-06	6.1344e-06	781.68	250.55	6.6499e-06	6.0155e-06	368.2	161.41	102.7	51.261	5.3864e-06	86.662	212.008	174.213	188.645	65.325	245.696	238.105	65.364	71.817	267.699	129.451	70.354	75.010	76.671	80.909	194.584	78.129	-8191	255	
7934.337	1	1	0	0	0.13215	0.065107	0.3712	0.16791	0.088021	0.091436	0.029966	0.20541	0.076615	0.22128	0.23978	0.21596	0.31812	0.33335	0.098519	0.28655	-1.7875	-2.2792	-2.5667	-1.9396	-2.5979	-2.3021	-2.1167	-2.6854	-2.2875	-2.2417	-2.7292	-1.9417	-2.4938	-2.5125	-2.0479	-2.7896	142.226	239.790	329.281	388.433	110.335	312.679	212.295	70.221	193.164	129.806	68.474	395.623	356.955	70.334	151.718	403.433	0.00064031	0.00027748	0.00012333	618.12	7.2232e-06	6.5887e-06	790.58	250.21	5.0346e-06	1.6425e-06	374.06	165.47	102.32	52.469	1.6277e-06	91.232	0.00062051	0.00053575	0.00014189	625.15	6.6667e-06	6.0298e-06	782.74	252.97	6.815e-06	5.9293e-06	369.12	162.9	103.19	51.504	5.6358e-06	87.445	202.700	408.514	240.910	65.287	195.134	168.602	65.314	72.141	179.616	124.119	69.975	74.939	76.930	81.129	182.050	77.946	-8191	255	
7934.457	1	1	0	0	0.18421	0.18089	0.22169	0.050497	0.19093	0.1072	0.19532	0.34558	0.33696	0.20605	0.022034	0.12133	0.11585	0.19902	0.057549	0.42602	-1.7979	-2.1354	-2.6271	-2.1229	-2.3708	-2.4125	-1.9417	-2.5396	-2.2	-2.1292	-2.7729	-2.2083	-2.35	-2.7333	-2.0167	-2.6937	82.876	274.381	357.815	289.576	254.070	160.981	313.631	273.516	110.921	397.780	397.802	80.444	78.653	352.019	191.760	407.066	0.00051261	6.3355e-05	0.0001314	617.3	9.1852e-07	1.8008e-06	790.35	252.81	1.6261e-06	5.6806e-06	377.11	165.94	101.85	52.76	5.2077e-06	91.761	0.00062932	0.00054154	0.00014951	634.23	6.6475e-06	6.1166e-06	784.58	257.16	6.7439e-06	5.889e-06	372.53	164.57	103.28	51.8	6.1544e-06	88.024	205.516	215.271	228.189	65.719	68.274	391.475	65.654	71.960	345.905	188.054	70.157	74.948	76.789	80.879	236.249	77.829	-8191	255	
7934.553	1	1	0	0	0.12428	0.076316	0.12385	0.25517	0.14519	0.24466	0.17114	0.33618	0.16574	0.081105	0.13241	0.17379	0.18241	0.24097	0.09235	0.34196	-1.9125	-2.1729	-2.775	-1.9646	-2.3917	-2.6708	-2.2188	-2.6	-2.3958	-2.0563	-2.8542	-2.1188	-2.2958	-2.7812	-2.0333	-2.6021	230.954	219.498	99.721	371.100	411.225	94.905	365.037	334.963	399.513	298.121	60.585	385.842	124.316	56.729	169.717	368.025	0.00066646	0.00017006	0.00014699	625.04	3.1491e-06	4.6179e-06	799.34	256.82	4.7163e-06	2.7066e-06	383.12	168.37	104.07	53.599	1.247e-05	92.193	0.0006277	0.00055249	0.00016803	644.5	6.6845e-06	6.2788e-06	795.8	260.9	6.8055e-06	6.0713e-06	379.09	165.62	104.55	52.282	7.0737e-06	88.225	210.748	128.953	120.594	65.134	173.427	141.856	65.148	71.529	273.382	215.909	69.642	74.720	76.791	80.318	187.839	77.757	-8191	255	
7934.650	1	1	0	0	0.090273	0.22983	0.22676	0.24868	0.20134	0.30071	0.21021	0.26464	0.12484	0.18292	0.23375	0.2546	0.19422	0.13203	0.12533	0.055175	-2.0771	-2.1771	-2.5646	-2.2562	-2.1833	-2.5458	-2.1104	-2.4729	-2.375	-1.9583	-2.6792	-2.1708	-2.1333	-2.5438	-2.0229	-2.45	244.541	106.152	77.500	96.682	409.664	193.596	152.999	410.150	165.245	257.375	339.239	398.184	392.397	232.318	207.511	148.597	0.00052707	0.00056656	0.00011462	625.85	4.8362e-06	5.803e-06	797.27	255.18	4.8753e-06	1.0263e-05	380.58	166.99	103.96	53.301	1.0475e-05	91.768	0.00062151	0.00054891	0.00018457	643.62	6.4632e-06	6.2594e-06	799.49	259.3	6.6745e-06	6.0997e-06	379.28	164.52	103.82	52.166	7.6125e-06	87.462	208.315	182.178	169.461	65.100	134.329	137.315	65.260	71.434	166.251	182.498	69.703	74.934	76.572	80.437	183.716	77.573	-8191	255	
7934.746	1	1	0	0	0.14047	0.08961	0.33175	0.17295	0.086349	0.28627	0.24525	0.26013	0.15981	0.10147	0.2005	0.27619	0.14595	0.20961	0.32949	0.05032	-2.0104	-1.9042	-2.4667	-2.4583	-2.1188	-2.6042	-2.25	-2.3417	-2.4562	-1.9521	-2.5396	-2.3229	-2.125	-2.7292	-2.1542	-2.3479	382.895	267.672	80.134	403.644	252.150	108.298	296.977	309.436	239.669	301.130	53.784	353.298	64.182	174.654	276.798	275.415	0.0007021	0.00041061	0.00026181	627.26	1.251e-06	1.3985e-05	793.2	254.72	2.1876e-06	1.0145e-05	378.04	166.21	103.77	53.381	8.0966e-06	91.195	0.00061109	0.0005777	0.00019785	642.18	6.3423e-06	6.6838e-06	800.96	257.49	6.5409e-06	6.6392e-06	379.7	163.51	103.61	52.316	7.8942e-06	87.051	210.413	78.157	165.452	64.955	295.956	197.864	65.138	71.620	265.325	211.633	69.881	74.564	76.435	80.435	401.449	77.590	-8191	255	
7934.842	1	1	0	0	0.062776	0.30533	0.17035	0.44204	0.23179	0.33825	0.21592	0.087337	0.37374	0.22139	0.10005	0.20964	0.31055	0.29545	0.16942	0.50812	-2.1521	-1.9583	-2.6167	-2.45	-1.9042	-2.5792	-2.1333	-2.3708	-2.5896	-1.8375	-2.5896	-2.3438	-1.8375	-2.7458	-2.1729	-2.2229	302.878	254.414	84.418	69.564	137.916	219.730	102.560	204.601	365.112	128.865	73.519	54.279	410.337	299.245	398.805	329.598	0.00070894	0.0010162	0.00020631	622.64	3.7538e-06	5.404e-06	791.2	255.62	5.019e-07	9.5609e-06	378.28	165.59	103.69	53.414	5.1238e-06	90.721	0.00060268	0.0006413	0.00020004	638.21	6.3968e-06	7.427e-06	800.46	257.29	6.5691e-06	7.4821e-06	378.96	163.13	103.58	52.681	7.8408e-06	86.737	198.524	164.185	159.468	65.365	234.784	226.398	65.489	71.528	135.061	180.014	69.854	74.808	76.438	80.420	346.765	77.816	-8191	255	
7934.938	1	1	0	0	0.29664	0.17337	0.2646	0.26042	0.18317	0.05803	0.15305	0.14338	0.062571	0.24376	0.071842	0.18051	0.28912	0.15388	0.1213	0.27599	-2.2062	-2.025	-2.4	-2.4521	-1.9875	-2.6917	-2.2687	-2.0708	-2.55	-1.9708	-2.4021	-2.6792	-2.0312	-2.6875	-2.3875	-2.2062	170.741	195.364	290.194	369.076	271.991	347.270	319.781	324.016	405.376	74.541	145.974	348.505	384.918	303.194	343.059	72.389	0.00063863	0.00048886	7.3769e-05	623	2.9266e-06	9.7138e-06	788.58	254.1	4.085e-06	1.9662e-06	376.52	166.19	103.29	53.154	5.2031e-06	90.424	0.00061885	0.00071076	0.00019282	638.23	6.5235e-06	7.9377e-06	795.06	256.02	6.7193e-06	7.8366e-06	376.21	162.93	103.83	52.771	7.2891e-06	86.298	200.194	251.101	410.977	65.456	163.103	110.977	65.275	71.544	218.406	357.104	69.635	75.173	76.632	80.362	72.336	77.528	-8191	255	
7935.034	1	1	0	0	0.14193	0.08547	0.21626	0.26549	0.22424	0.22067	0.1143	0.12065	0.36999	0.27665	0.16166	0.15288	0.16324	0.18931	0.25362	0.28576	-2.3187	-1.8917	-2.0812	-2.4229	-1.9167	-2.5917	-2.4271	-2.1312	-2.5208	-2.0583	-2.4167	-2.6583	-1.8917	-2.5458	-2.3542	-2.0771	279.398	276.290	300.419	405.612	229.052	311.912	309.376	244.928	178.617	95.100	341.137	64.409	383.147	227.767	178.703	320.316	0.00069811	0.00030222	0.00015766	620.48	6.8661e-06	1.9026e-06	784.49	252.44	9.388e-06	5.957e-06	374.85	165.18	102.86	52.563	8.814e-06	90.371	0.00065033	0.0007303	0.00017988	631.79	6.9522e-06	7.8642e-06	790.06	254.1	7.1542e-06	7.6931e-06	371.28	161.42	104.01	52.24	6.6493e-06	85.928	201.686	106.744	394.516	65.439	163.794	181.641	65.047	71.618	265.235	212.523	69.882	74.999	76.811	80.521	137.893	77.483	-8191	255	
7935.155	1	1	0	0	0.066465	0.25578	0.19377	0.13569	0.1976	0.15588	0.12157	0.070686	0.2588	0.15309	0.12166	0.13523	0.20096	0.27022	0.078882	0.14355	-2.1583	-1.8896	-2.1688	-2.6417	-2.0667	-2.3083	-2.525	-1.9688	-2.5521	-2.1292	-2.1	-2.5396	-1.9583	-2.3479	-2.6146	-2.1167	109.248	269.160	390.495	373.079	388.124	319.679	367.920	286.642	329.921	384.101	338.329	70.595	352.942	411.407	339.094	249.055	0.00078969	0.00043469	0.00016628	617.51	1.2384e-05	4.4295e-06	780.92	251.58	5.6071e-06	6.0847e-06	373.26	166.19	101.57	52.381	1.1533e-05	90.886	0.00065835	0.00065941	0.00016049	624.23	6.9594e-06	6.9632e-06	782.31	251.07	7.1058e-06	6.7827e-06	367.89	160.62	103.02	51.615	6.0842e-06	86.049	208.469	80.397	127.721	65.547	222.784	134.465	65.138	71.410	198.388	405.441	69.878	75.182	76.687	80.475	196.654	77.857	-8191	255	
7935.249	1	1	0	0	0.088252	0.23702	0.089987	0.057818	0.036558	0.14958	0.2274	0.13867	0.32073	0.20785	0.24298	0.27332	0.14076	0.31554	0.1225	0.28804	-2.1104	-2.2375	-2.2354	-2.7167	-2.1562	-2.2458	-2.5792	-2.0396	-2.6208	-2.1667	-2.1125	-2.675	-2.1771	-2.3	-2.5708	-2.1937	359.493	207.313	372.438	255.357	88.565	120.149	372.743	315.616	343.693	123.971	354.925	298.026	55.084	372.672	385.864	385.583	0.00072957	0.00046799	0.00019232	615.03	2.3976e-06	1.8638e-06	779.19	249.19	6.0402e-06	5.1905e-06	376.34	166.45	101.64	52.477	7.6908e-06	91.143	0.00065092	0.00059191	0.00014696	621.9	7.0227e-06	6.3161e-06	778.58	249.81	7.0215e-06	6.2805e-06	366.65	161.55	102.41	51.18	5.6407e-06	86.673	204.247	391.334	295.579	65.168	104.139	198.724	65.078	71.629	242.096	82.728	69.857	75.064	76.658	80.321	185.945	78.214	-8191	255	
7935.345	1	1	0	0	0.015895	0.12395	0.13713	0.13621	0.035442	0.28809	0.14541	0.1949	0.14726	0.26844	0.076183	0.064735	0.34186	0.27397	0.18834	0.23558	-2.0146	-2.2687	-1.9729	-2.5646	-2.2917	-2.1583	-2.55	-1.9438	-2.4146	-2.4292	-2.1	-2.5917	-2.0396	-2.2104	-2.5375	-2.0667	164.848	106.657	73.164	299.548	403.332	392.612	371.236	353.579	75.270	57.650	184.681	400.116	397.418	244.958	353.096	328.087	0.00069224	0.00037082	0.00017965	610.8	3.1317e-06	4.6825e-06	784.33	248.26	3.5984e-06	8.0223e-07	375.58	164.61	100.16	52.11	6.1874e-06	91.41	0.00062636	0.00054581	0.00013594	621.81	6.6518e-06	5.7517e-06	777.41	250.47	6.4476e-06	5.8216e-06	366.45	161.71	100.91	50.739	5.509e-06	87.104	210.376	93.449	388.750	65.719	239.221	59.054	65.576	71.747	238.802	358.287	70.172	75.072	76.966	80.807	237.506	77.821	-8191	255	
7935.441	1	1	0	0	0.1507	0.31755	0.13044	0.20891	0.12034	0.32305	0.039251	0.096706	0.23566	0.31768	0.21727	0.27067	0.10451	0.12168	0.07258	0.23653	-1.7458	-2.4896	-1.9333	-2.6354	-2.0729	-2.1104	-2.725	-2.0042	-2.4083	-2.3771	-1.9688	-2.6771	-2.3833	-2.1667	-2.8083	-2.075	154.169	61.731	265.110	333.151	315.074	220.866	392.808	379.184	372.403	236.283	369.153	319.450	294.989	127.057	313.899	388.563	0.00056966	0.00079187	0.00022089	604.83	9.6427e-06	1.6673e-06	781.89	247.86	3.8897e-06	1.9402e-06	370.9	162.84	99.053	51.042	8.8852e-06	89.456	0.00058461	0.00052233	0.00013701	619.26	6.1501e-06	5.393e-06	775.16	249.34	5.923e-06	5.4541e-06	363.41	160.37	99.083	49.86	5.6692e-06	86.308	192.753	80.982	205.094	65.780	214.848	213.725	65.743	71.857	175.403	364.903	70.420	75.018	77.322	81.139	225.813	78.367	-8191	255	
7935.538	1	1	0	0	0.0079479	0.10203	0.24241	0.086478	0.15198	0.073433	0.17012	0.21581	0.1481	0.24626	0.20923	0.12581	0.055553	0.16894	0.060896	0.25972	-1.8438	-2.5812	-1.8125	-2.5979	-2.2667	-1.9083	-2.6063	-2.2458	-2.3396	-2.6979	-2.1854	-2.575	-2.3896	-2.1688	-2.6396	-2.2646	205.133	97.040	309.735	336.965	153.335	329.913	309.061	60.313	385.945	88.619	354.154	358.938	307.221	294.369	271.581	354.546	0.00067313	0.0012104	0.0005729	602.09	2.9594e-06	6.9711e-06	779.61	242.37	3.9586e-06	3.518e-06	373.62	164.41	99.116	51.696	6.2949e-06	91.079	0.00052987	0.00048726	0.00014403	615.34	5.7159e-06	5.1252e-06	774.7	245.91	5.4923e-06	5.2347e-06	364.93	160.14	98.439	49.843	6.1309e-06	86.467	195.846	208.119	132.538	65.546	330.959	171.901	65.421	71.737	184.170	213.646	69.871	74.897	76.798	80.718	148.983	77.706	-8191	255	
7935.634	1	1	0	0	0.22196	0.25384	0.26918	0.27573	0.32225	0.14802	0.12272	0.2137	0.19649	0.17329	0.134	0.14324	0.25281	0.20087	0.27824	0.38178	-1.7208	-2.6063	-1.8396	-2.4188	-2.5396	-1.9312	-2.7812	-2.1604	-2.2771	-2.5	-2.0042	-2.3937	-2.4562	-1.8979	-2.6604	-2.3542	292.176	334.615	327.394	413.633	349.541	402.968	340.811	347.198	248.301	198.297	374.020	201.585	354.080	80.953	325.652	397.907	0.00049607	0.00067121	0.0003515	609.29	7.8622e-06	2.5827e-06	784.21	245.45	3.8503e-06	7.5612e-06	369.82	164.28	98.797	51.619	3.0615e-06	90.604	0.00051147	0.00047943	0.00015791	613.91	5.6149e-06	5.2018e-06	781.54	246.09	5.3714e-06	5.3638e-06	366.02	159.62	98.081	50.004	6.4687e-06	86.522	200.146	208.114	148.579	64.878	193.506	177.916	65.516	71.787	313.093	172.130	70.009	75.150	76.773	80.872	127.353	78.148	-8191	255	
7935.754	1	1	0	0	0.12851	0.24075	0.1895	0.10241	0.068233	0.2249	0.28915	0.33286	0.17814	0.062825	0.26514	0.091756	0.2278	0.34146	0.13113	0.24112	-1.5833	-2.3438	-2.0167	-2.2396	-2.4688	-1.8271	-2.7354	-2.2417	-1.9375	-2.6333	-2.0917	-2.4125	-2.6188	-1.9542	-2.4458	-2.6292	208.174	406.936	146.003	368.795	94.972	365.471	196.233	392.099	369.922	138.514	111.053	387.966	385.918	398.129	71.205	288.141	0.00069529	0.00074662	0.00027913	603.38	5.1713e-06	4.4629e-06	779.71	243.05	2.7772e-06	1.7887e-05	367.57	162.02	98.218	51.3	3.4814e-06	92.027	0.00049705	0.0005136	0.00016715	610.96	5.4874e-06	5.6415e-06	781.49	245.24	5.3168e-06	5.9044e-06	368.1	159.49	98.051	50.328	6.5505e-06	86.78	206.936	143.096	173.540	65.735	348.583	208.560	65.681	71.654	101.197	199.162	70.050	75.102	77.156	80.753	186.607	77.851	-8191	255	
7935.851	1	1	0	0	0.17635	0.17392	0.12735	0.20804	0.06224	0.092865	0.20552	0.057924	0.047955	0.064634	0.15028	0.077351	0.34221	0.25145	0.012825	0.16057	-1.6917	-2.5854	-2.0604	-2.3167	-2.6458	-1.8229	-2.5625	-2.5583	-2.0187	-2.6542	-2.1312	-2.3229	-2.6354	-2.0167	-2.3083	-2.6167	116.399	134.524	164.194	341.341	248.068	127.823	364.850	246.544	316.479	277.081	81.075	57.900	287.739	385.275	67.961	97.037	0.00059809	0.0012157	0.00011586	593.69	4.7863e-06	2.2583e-06	772.44	241.83	4.7303e-06	1.0331e-05	365.92	162.35	97.204	51.017	8.1382e-06	91.928	0.00049504	0.00056225	0.00016622	603.5	5.4547e-06	6.2179e-06	775.8	242.92	5.262e-06	6.3779e-06	364.07	157.68	97.198	50.246	6.2615e-06	86.107	202.713	151.707	408.261	65.498	293.221	85.334	65.775	71.766	220.057	184.646	70.009	75.077	77.119	80.940	187.214	77.796	-8191	255	
7935.947	1	1	0	0	0.25591	0.17881	0.18726	0.049558	0.046219	0.32742	0.14035	0.37168	0.22321	0.043868	0.047153	0.13869	0.23443	0.19232	0.13138	0.21065	-1.5375	-2.4813	-2.1562	-2.1667	-2.6063	-1.9792	-2.4313	-2.5458	-1.9458	-2.5812	-2.3021	-2.0312	-2.6	-1.9604	-2.3167	-2.5646	216.188	56.721	211.017	234.035	115.922	323.716	284.886	391.679	294.807	157.585	358.819	132.073	402.649	75.187	370.080	324.783	0.00081707	0.00073476	9.6068e-05	599.81	1.5179e-05	3.9907e-06	776.35	242.7	6.4522e-06	7.8e-06	367.98	163.31	98.192	51.409	8.9501e-06	90.684	0.00050438	0.00060327	0.00015942	601.38	5.6664e-06	6.6503e-06	770.49	241.64	5.5988e-06	6.6925e-06	360.95	157.12	97.486	50.23	6.014e-06	85.476	210.579	169.877	384.569	65.193	229.099	147.080	64.881	71.576	233.490	74.880	69.561	74.493	76.600	80.375	153.503	78.020	-8191	255	
7936.018	1	1	0	0	0.26995	0.32457	0.15181	0.18329	0.2563	0.21295	0.15174	0.22456	0.13233	0.071833	0.098703	0.06574	0.020799	0.12069	0.14072	0.23978	-1.4167	-2.2125	-2.2792	-2.0563	-2.7167	-1.9854	-2.4208	-2.7396	-2.0687	-2.5167	-2.3937	-1.8937	-2.6708	-2.0417	-2.0458	-2.6354	204.631	245.124	69.603	301.675	105.053	242.559	362.264	72.803	130.152	300.011	348.970	410.468	206.212	130.463	74.434	373.706	0.00082896	0.00037413	0.00013513	599.9	1.1927e-05	5.9064e-06	783.69	243.73	6.7048e-06	6.2164e-06	369.65	163.24	98.678	51.425	3.9454e-06	91.377	0.00055292	0.00061643	0.00015497	600.38	6.2162e-06	6.7154e-06	768.3	241.45	6.1815e-06	6.5304e-06	361.37	157.2	98.501	50.144	5.6977e-06	85.934	199.163	239.673	64.417	64.938	232.929	106.357	64.960	71.510	204.125	280.542	69.358	74.623	76.599	80.377	166.314	77.204	-8191	255	
7936.139	1	1	0	0	0.20637	0.082056	0.089965	0.083458	0.27005	0.24394	0.30977	0.12514	0.19678	0.35163	0.20273	0.08546	0.34638	0.12634	0.074243	0.04187	-1.4625	-2.3292	-2.4229	-1.7437	-2.4083	-2.1875	-2.2583	-2.6896	-2.025	-2.4854	-2.6292	-1.8083	-2.4875	-2.3937	-2.1333	-2.9313	341.673	358.938	96.304	343.493	319.918	223.466	348.293	323.548	209.565	392.372	397.589	174.664	403.711	70.069	240.031	200.298	0.0007577	0.00072124	0.00024247	601.07	5.4081e-06	2.6223e-06	783.23	243.94	4.432e-07	5.5914e-06	370.69	165.12	98.483	51.373	7.9479e-06	91.784	0.00059048	0.00057558	0.00014635	600.62	6.5317e-06	6.3428e-06	767.25	241.85	6.5328e-06	6.1294e-06	362.21	158.43	98.95	50.17	5.4235e-06	86.441	197.674	132.159	100.641	64.775	388.339	136.038	64.535	70.762	119.876	59.007	69.137	73.961	76.210	79.886	213.296	77.453	-8191	255	
7936.233	1	1	0	0	0.21035	0.347	0.035659	0.17566	0.17925	0.21871	0.24087	0.17955	0.09304	0.20504	0.20523	0.17008	0.010114	0.18193	0.057274	0.3057	-1.4625	-2.3354	-2.4979	-1.9813	-2.5062	-2.1875	-2.2062	-2.6917	-2.0667	-2.1229	-2.3646	-2.0917	-2.4021	-2.4104	-1.9333	-2.6729	187.721	258.979	232.375	71.501	99.901	67.716	219.091	401.928	202.444	139.203	235.169	89.476	119.842	365.457	391.216	338.593	0.00071549	0.0004783	0.00029833	596.41	6.3297e-06	2.9834e-06	774.51	243.78	6.8084e-06	8.5189e-06	371.69	163.33	98.768	51.454	2.2588e-06	91.597	0.0006166	0.00054295	0.00014274	602.04	6.7238e-06	6.0439e-06	764.97	243.05	6.7197e-06	5.7979e-06	359.85	158.28	98.887	49.91	5.2326e-06	86.321	207.641	83.486	121.509	64.819	169.970	365.888	64.392	71.202	181.155	171.439	69.151	74.288	76.435	80.073	300.980	77.469	-8191	255	
7936.330	1	1	0	0	0.3078	0.19147	0.33257	0.25736	0.254	0.17549	0.28824	0.32779	0.080028	0.20522	0.2276	0.14137	0.23464	0.31219	0.10259	0.095375	-1.6208	-2.1708	-2.4854	-1.9208	-2.5167	-2.4854	-1.8646	-2.625	-2.2146	-2.0438	-2.6354	-1.9833	-2.5292	-2.7125	-1.9875	-2.5833	304.157	323.275	309.532	393.949	121.493	76.117	274.730	308.992	256.221	230.479	398.993	411.766	217.630	119.878	327.484	314.843	0.00049604	0.00015676	9.8452e-05	599.07	8.1329e-07	3.6399e-06	775.56	243.65	5.6192e-06	2.2404e-06	367.1	163.42	97.76	51.356	1.6819e-05	91.387	0.00059762	0.00051137	0.00013835	603.68	6.3119e-06	5.7291e-06	759.76	243.17	6.2212e-06	5.3963e-06	356.75	158.28	97.52	49.678	5.181e-06	86.375	202.128	167.739	118.751	65.088	264.159	200.373	64.664	70.746	210.524	213.559	69.147	74.157	75.949	80.199	177.712	76.984	-8191	255	
7936.426	1	1	0	0	0.23752	0.33207	0.09757	0.17344	0.2831	0.12358	0.10666	0.22289	0.34617	0.12076	0.077492	0.18771	0.14607	0.22958	0.13591	0.097225	-1.6542	-2.0896	-2.4938	-2.0208	-2.3333	-2.6417	-1.9833	-2.7125	-2.3167	-2.0312	-2.8604	-2.0583	-2.4292	-2.5062	-1.9062	-2.7146	187.828	211.296	372.200	180.446	256.187	216.298	312.688	376.289	282.539	377.106	134.479	393.438	170.694	385.847	70.107	383.715	0.00067087	0.00052038	0.00035596	599.84	5.25e-06	4.4281e-06	776.68	242.34	1.3035e-06	3.9038e-06	372.29	163.85	97.953	51.317	1.3472e-05	91.852	0.00055419	0.00048024	0.00013644	605.16	5.807e-06	5.3544e-06	761.03	243.25	5.7285e-06	5.0257e-06	359.12	158.97	96.924	49.466	5.4778e-06	86.737	211.173	94.359	169.672	64.625	328.453	252.918	64.927	70.737	341.747	141.412	69.531	74.303	75.981	80.082	213.416	77.089	-8191	255	
7936.546	1	1	0	0	0.10882	0.14288	0.073471	0.17706	0.13665	0.24327	0.29237	0.27853	0.17296	0.079314	0.28862	0.27362	0.15462	0.29122	0.13056	0.24556	-1.8396	-1.7625	-2.5812	-2.1854	-2.1833	-2.8083	-2.1188	-2.4125	-2.3833	-1.8875	-2.8333	-2.1875	-2.1958	-2.6958	-1.8563	-2.5479	126.290	291.819	122.732	103.840	308.957	338.843	412.735	287.914	122.864	111.098	328.401	55.169	54.686	364.344	394.039	268.100	0.00073085	0.00032549	0.00029234	600.45	4.6365e-06	6.1543e-06	780.49	242.66	1.2044e-06	8.8723e-06	372.02	163.76	98.246	51.427	1.179e-05	92.88	0.00051507	0.00045096	0.00014562	605.73	5.3884e-06	5.1184e-06	768.81	242.67	5.4557e-06	4.8338e-06	362.37	158.79	96.617	49.511	5.8267e-06	86.998	198.938	287.100	105.848	64.737	231.565	136.990	64.471	71.077	284.143	191.558	69.548	74.193	76.286	80.075	179.656	77.223	-8191	255	
7936.642	1	1	0	0	0.048938	0.048701	0.11661	0.19706	0.35938	0.18732	0.06949	0.33423	0.084801	0.26009	0.2633	0.20116	0.24658	0.22013	0.27848	0.082336	-1.9083	-2.0312	-2.6	-2.0583	-2.2313	-2.6437	-2.0958	-2.5083	-2.5521	-1.95	-2.6583	-2.4083	-2.1958	-2.6521	-1.8937	-2.4417	61.800	155.151	230.841	381.404	344.327	324.530	113.409	289.437	203.778	224.872	60.987	368.143	303.040	228.571	282.855	73.351	0.00067932	0.00033184	0.00026272	597.71	7.0406e-06	6.1993e-06	782.93	243.07	6.3759e-06	1.2029e-05	370.03	163.43	97.279	51.39	7.1051e-06	91.778	0.0004924	0.00044399	0.00015357	602.1	5.0766e-06	5.0942e-06	771.05	240.84	5.2475e-06	5.0267e-06	363.36	157.68	95.632	49.439	6.1397e-06	85.837	202.818	219.525	133.532	64.894	167.242	233.687	64.763	70.949	181.731	191.526	69.048	74.145	76.235	80.318	212.041	77.310	-8191	255	
7936.714	1	1	0	0	0.1099	0.24224	0.12929	0.21211	0.14302	0.041193	0.10138	0.30726	0.42435	0.13428	0.15517	0.1109	0.18906	0.30457	0.087633	0.13726	-2.0979	-1.9688	-2.5354	-2.2625	-1.9375	-2.6312	-2.2167	-2.2729	-2.4354	-2.1771	-2.4708	-2.4875	-1.9937	-2.8583	-2.0771	-2.4271	187.912	261.563	66.632	140.836	260.569	101.819	392.486	348.545	276.314	120.088	409.946	376.639	282.355	60.729	141.492	367.151	0.00059384	0.00056646	8.1158e-05	587.04	5.0092e-06	1.4146e-05	764.31	241.68	3.2251e-06	9.5908e-06	361.54	160.57	95.97	50.859	2.1944e-06	90.36	0.00048384	0.00048034	0.00015887	592.15	4.9411e-06	5.5386e-06	756.75	237.33	5.0473e-06	5.4675e-06	355.18	154.82	94.207	49.225	5.9831e-06	84.552	206.368	166.913	95.059	64.908	70.677	175.608	64.757	70.865	166.286	197.299	69.187	74.465	76.442	80.404	287.185	77.317	-8191	255	
7936.835	1	1	0	0	0.10605	0.22439	0.37195	0.17051	0.30999	0.080905	0.26218	0.13274	0.039075	0.13325	0.18202	0.29973	0.30194	0.069253	0.27345	0.15061	-2.2333	-1.9479	-2.3854	-2.5396	-2.1542	-2.6	-2.2729	-2.2313	-2.6688	-1.9396	-2.6979	-2.6375	-2.0271	-2.6417	-2.0958	-2.1375	263.443	371.175	287.128	304.944	335.283	390.853	341.724	383.787	301.503	322.963	78.248	326.847	380.274	179.666	140.287	161.507	0.00062958	0.001044	0.00020732	590.66	8.0318e-06	6.1048e-06	762.32	239.42	3.6144e-06	6.5712e-06	362.64	161.49	95.791	50.85	6.9403e-06	90.143	0.00046549	0.000515	0.0001487	589.1	4.8125e-06	5.8758e-06	752.97	236.1	5.021e-06	5.8137e-06	353.2	154.53	94.063	49.307	5.6502e-06	84.397	203.819	178.423	221.087	65.226	273.516	194.653	64.667	71.054	193.884	173.276	69.450	74.452	76.496	80.111	142.796	77.312	-8191	255	
7936.931	1	1	0	0	0.065758	0.081792	0.24481	0.23323	0.089998	0.36468	0.11311	0.15447	0.13142	0.048458	0.042574	0.15416	0.14675	0.066773	0.081402	0.15312	-2.2938	-1.9229	-2.4958	-2.5875	-1.8896	-2.5125	-2.5729	-2.0625	-2.6188	-2.0833	-2.225	-2.625	-2.1	-2.6854	-2.375	-2.1063	386.417	87.313	203.956	332.444	215.243	133.224	349.607	386.431	213.282	248.468	80.988	364.961	94.702	95.340	147.537	345.429	0.00075372	0.00038625	4.1426e-05	591.38	4.254e-06	4.6953e-06	768.74	240.88	5.7298e-06	5.0625e-06	364.24	161.06	96.011	50.69	3.063e-06	90.992	0.00047344	0.00054485	0.00013894	588.72	5.0244e-06	6.0124e-06	754.19	235.66	5.2383e-06	5.9059e-06	353.66	154.59	94.533	49.278	5.2539e-06	84.826	198.787	167.318	388.948	65.092	209.045	149.790	64.772	71.319	227.481	165.951	69.480	74.448	76.405	80.624	271.403	77.669	-8191	255	
7937.027	1	1	0	0	0.14104	0.22203	0.17965	0.16815	0.16149	0.037619	0.12905	0.19608	0.16533	0.057403	0.091442	0.11729	0.25348	0.20483	0.10202	0.36533	-2.2083	-2.0812	-2.2208	-2.7458	-1.9896	-2.3833	-2.4042	-2.0292	-2.4417	-2.1917	-2.1667	-2.9333	-1.9813	-2.5125	-2.2917	-2.0021	125.547	393.768	366.767	164.463	149.954	226.244	402.803	66.481	296.405	411.973	80.688	300.867	374.810	120.770	350.769	327.429	0.00066229	0.00042444	6.5833e-05	591.15	7.647e-06	7.1439e-06	769.34	239.45	4.2656e-06	5.6041e-06	364.32	160.97	95.632	50.462	6.0626e-06	90.05	0.00050073	0.00052908	0.00013021	588.51	5.3461e-06	5.7793e-06	754.71	234.97	5.5571e-06	5.7278e-06	352.14	153.98	94.971	48.828	5.1227e-06	84.105	204.317	401.590	271.612	65.074	174.905	242.796	64.979	71.111	285.034	219.779	69.275	74.369	76.555	80.552	135.882	77.449	-8191	255	
7937.123	1	1	0	0	0.10407	0.068547	0.11807	0.25046	0.13413	0.15422	0.19359	0.11813	0.078509	0.17011	0.115	0.27425	0.094913	0.12379	0.11018	0.32668	-2.2375	-2.1208	-2.0438	-2.7167	-1.8542	-2.3417	-2.5792	-2.0604	-2.6813	-2.2188	-2.3375	-2.6792	-2.0479	-2.4521	-2.525	-2.1479	168.676	262.048	84.470	325.334	172.523	68.307	403.317	369.936	298.836	262.281	187.550	366.387	289.655	250.552	70.001	356.497	0.00077385	0.00060251	0.00011336	585.67	7.6701e-06	4.9746e-06	753.79	236.82	6.0488e-06	1.0277e-05	356.52	156.92	93.662	49.639	9.8221e-06	88.017	0.00053958	0.00050924	0.00012611	582.11	5.8329e-06	5.4918e-06	735.88	232.46	5.9296e-06	5.4077e-06	342.88	150.56	93.565	47.996	4.9522e-06	82.473	200.386	114.219	79.680	65.332	196.045	56.653	65.195	71.437	210.978	195.579	69.506	74.364	76.651	80.496	274.876	77.738	-8191	255	
7937.244	1	1	0	0	0.039952	0.36552	0.13311	0.23104	0.16653	0.16385	0.29731	0.10418	0.32293	0.14671	0.061345	0.18651	0.16637	0.17744	0.13206	0.13384	-2.2958	-2.3063	-2.1854	-2.5083	-2.0083	-2.5	-2.6583	-2.0479	-2.6396	-2.475	-2.0917	-2.7354	-2.3208	-2.2042	-2.6562	-2.1604	87.078	294.885	406.596	336.990	338.419	163.497	337.459	222.045	364.388	82.424	286.039	402.763	374.658	389.697	211.781	309.447	0.0006879	0.00079065	0.0001031	584.31	7.2218e-06	2.8002e-06	742.46	235.53	2.6627e-06	1.5337e-06	353.25	156.44	93.389	49.383	4.6121e-06	88.219	0.00054722	0.00048106	0.00011905	582.4	5.841e-06	5.0721e-06	726.44	233.07	5.7948e-06	5.1622e-06	340.32	150.51	93.013	47.589	4.8136e-06	82.987	193.538	263.160	165.601	65.593	268.305	139.798	64.736	70.996	123.946	210.795	69.398	74.603	76.984	80.351	131.298	77.714	-8191	255	
7937.314	1	1	0	0	0.22327	0.0114	0.16163	0.15824	0.16764	0.12731	0.056651	0.22408	0.26756	0.20467	0.15153	0.30285	0.10356	0.049714	0.10809	0.22807	-2.0229	-2.1792	-1.7938	-2.5146	-2.15	-2.0458	-2.8	-2.1125	-2.3625	-2.25	-2.2583	-2.6188	-2.2833	-2.1458	-2.5646	-2.1375	105.223	310.453	387.845	57.216	360.658	81.007	225.859	371.454	108.984	118.066	362.003	399.802	54.036	370.141	235.736	71.963	0.00056198	0.00074345	0.00021355	580.65	5.0371e-06	4.5571e-06	746.53	236.02	5.6059e-06	3.5901e-06	355.13	156.49	93.951	49.697	2.625e-06	89.122	0.00052661	0.00046824	0.00011929	585.3	5.6049e-06	4.8782e-06	729.71	234.04	5.4487e-06	4.9777e-06	341.88	151.54	92.853	47.618	4.8989e-06	83.877	194.034	348.125	170.108	65.026	227.508	196.511	65.013	71.235	212.191	189.135	69.244	74.502	76.836	80.675	69.592	77.454	-8191	255	
7937.434	1	1	0	0	0.29653	0.28506	0.16339	0.083926	0.30891	0.10589	0.071159	0.25103	0.2432	0.24392	0.037236	0.13963	0.04799	0.17749	0.046835	0.049513	-1.925	-2.4792	-1.9229	-2.3625	-2.1562	-1.9625	-2.725	-2.0104	-2.1917	-2.55	-1.925	-2.6271	-2.2979	-2.1271	-2.6917	-2.1792	71.418	163.038	158.112	55.231	142.095	333.685	395.216	262.091	289.623	398.607	339.434	395.843	310.337	252.040	66.718	383.073	0.00052578	0.00083182	0.00031687	588.9	3.6168e-06	1.8009e-06	758.98	236.17	4.5704e-06	1.1311e-06	356.21	157.19	93.448	49.574	1.5178e-05	88.689	0.00048754	0.00044138	0.00012311	592	5.2074e-06	4.6291e-06	742.01	235.3	5.0816e-06	4.6802e-06	345.59	152.29	92.046	47.488	5.2508e-06	83.657	202.737	158.616	163.681	64.947	160.047	81.815	64.943	71.420	203.969	137.560	69.422	74.698	76.718	80.244	196.007	77.308	-8191	255	
7937.531	1	1	0	0	0.21045	0.057069	0.085338	0.29691	0.057519	0.09747	0.060592	0.43835	0.31252	0.04471	0.26788	0.27768	0.12463	0.20793	0.17473	0.11469	-1.8	-2.5708	-1.9854	-2.6188	-2.1542	-2.0021	-2.8333	-1.9979	-2.1312	-2.6229	-1.9375	-2.5729	-2.4917	-1.9771	-2.4396	-2.125	314.222	105.783	339.299	395.006	114.782	331.014	319.245	359.134	53.516	355.479	56.988	60.780	412.194	342.396	269.194	372.370	0.00053572	0.00044147	0.00019885	582.58	1.2937e-06	5.2496e-06	742.38	233.12	2.343e-06	1.0041e-05	352.67	156.02	92.569	48.951	3.5807e-06	87.203	0.00045818	0.00041837	0.00013247	584.48	4.9739e-06	4.4845e-06	731.39	231.88	4.7684e-06	4.6159e-06	342.28	149.75	90.977	46.913	5.4854e-06	82.21	204.235	243.592	124.185	65.341	342.160	185.635	65.098	71.114	161.422	181.943	69.544	74.454	76.613	80.833	197.101	77.682	-8191	255	
7937.627	1	1	0	0	0.29921	0.083417	0.075126	0.051112	0.14651	0.12977	0.073961	0.058387	0.22342	0.048242	0.08292	0.14025	0.17142	0.31305	0.12016	0.1211	-1.725	-2.4938	-1.9458	-2.5	-2.4604	-2.0271	-2.6417	-2.3417	-2.15	-2.6188	-1.9833	-2.2729	-2.7188	-1.9792	-2.5542	-2.3979	383.491	119.279	204.721	107.129	218.867	284.901	144.859	314.054	246.302	406.932	333.669	358.116	152.061	78.185	192.270	164.495	0.00056381	0.0011439	0.00014729	583.15	4.4092e-06	5.3841e-06	740.03	234.09	5.7375e-07	5.6408e-06	351.35	154.95	92.813	49.096	6.3162e-06	87.495	0.00043721	0.00042673	0.00014093	581.04	4.7937e-06	4.633e-06	732.78	231.58	4.6212e-06	4.8289e-06	343.55	148.82	90.869	47.131	5.6629e-06	82.152	210.932	156.843	116.844	65.153	140.174	133.297	65.271	71.164	135.384	146.470	69.651	74.592	76.822	80.699	178.651	77.275	-8191	255	
7937.723	1	1	0	0	0.095264	0.28247	0.24043	0.1431	0.096651	0.092117	0.12295	0.17419	0.10746	0.16807	0.20308	0.21966	0.26418	0.023027	0.070128	0.36834	-1.5417	-2.6167	-1.9333	-2.1646	-2.5771	-2.0542	-2.7938	-2.5583	-1.9813	-2.5854	-2.1479	-2.375	-2.6583	-1.9937	-2.5	-2.4521	131.640	324.934	269.602	409.516	70.213	254.469	270.388	87.322	351.652	252.737	123.058	410.635	392.962	55.698	351.697	375.196	0.00054899	0.0011501	4.8556e-05	580.25	2.8379e-06	7.464e-06	748.35	234.31	1.8367e-06	1.0454e-05	355.32	155.84	92.821	49.375	4.2441e-06	88.557	0.00042936	0.00046774	0.00014486	578.59	4.6614e-06	5.0581e-06	738.03	231.7	4.5187e-06	5.2492e-06	345.87	149.44	91.133	47.61	5.4257e-06	82.589	199.387	144.095	138.562	64.790	176.266	218.381	65.185	71.225	275.807	187.240	69.407	74.363	76.583	80.605	368.243	77.545	-8191	255	
7937.843	1	1	0	0	0.23219	0.36946	0.055472	0.16553	0.29094	0.17424	0.13709	0.084801	0.17974	0.20686	0.12555	0.20066	0.10327	0.16525	0.12476	0.19429	-1.5896	-2.7333	-2.0458	-2.2562	-2.6104	-1.9312	-2.4437	-2.5479	-1.8604	-2.4875	-2.1396	-2.1688	-2.7229	-2.1396	-2.3625	-2.7771	262.379	362.217	146.635	283.656	336.890	339.371	369.374	184.487	168.652	144.631	315.485	349.769	83.111	304.599	182.324	385.477	0.00054866	0.00038147	9.9426e-05	588.75	5.655e-06	4.5565e-06	754.35	239.67	2.3213e-06	1.136e-05	359.09	158.25	94.977	49.63	4.3248e-06	88.573	0.00041595	0.00048943	0.00013552	582.62	4.6061e-06	5.373e-06	742.83	234.58	4.4983e-06	5.4898e-06	347.86	150.93	92.397	48.072	5.0257e-06	82.708	202.381	214.911	92.059	65.191	238.949	215.181	64.703	71.472	259.033	165.451	69.341	74.888	76.588	80.703	290.412	77.858	-8191	255	
7937.940	1	1	0	0	0.081466	0.090357	0.15392	0.15877	0.45296	0.2148	0.06646	0.30206	0.16865	0.20946	0.13439	0.12885	0.14151	0.4354	0.080642	0.092783	-1.55	-2.5729	-2.2917	-2.1521	-2.6375	-2.1625	-2.4125	-2.7	-1.8146	-2.4396	-2.3458	-2.1083	-2.7771	-2.3021	-2.25	-2.65	406.339	388.082	408.550	188.539	72.901	143.447	206.089	84.031	399.410	306.552	307.014	65.796	341.059	360.543	246.299	366.221	0.00079725	0.00013482	9.7757e-05	588.91	7.1994e-06	6.8961e-06	744.96	236.37	5.7756e-06	7.7939e-06	351.74	155.34	93.797	49.444	6.2799e-06	86.706	0.00043975	0.00050899	0.00012928	584.09	4.8842e-06	5.5713e-06	731.53	232.54	4.9585e-06	5.5711e-06	340.86	147.82	92.308	47.785	4.8928e-06	81.035	198.833	322.343	78.824	65.243	206.742	243.512	64.699	71.313	229.975	241.731	69.115	74.505	76.947	80.368	87.371	77.599	-8191	255	
7938.011	1	1	0	0	0.038667	0.10815	0.19117	0.09142	0.2018	0.1803	0.055551	0.22445	0.23792	0.2318	0.2378	0.1127	0.16134	0.19257	0.25249	0.34575	-1.5167	-2.3167	-2.3875	-1.9562	-2.65	-2.1729	-2.2562	-2.65	-1.9083	-2.5646	-2.5146	-2	-2.5625	-2.3146	-1.9292	-2.6479	207.339	148.701	222.802	407.506	258.053	154.407	318.274	311.193	202.320	140.505	324.767	171.443	123.443	358.382	296.147	335.191	0.00073669	0.00051156	9.3922e-05	581.91	5.4261e-06	1.0534e-06	738.06	236.24	2.6821e-06	4.3948e-06	349.46	152.86	93.126	48.946	3.6723e-06	86.632	0.00048827	0.00050436	0.00012546	575.04	5.3508e-06	5.5329e-06	721.49	231.48	5.4885e-06	5.4766e-06	338.15	146.83	92.749	47.477	4.9044e-06	80.883	200.531	191.100	126.449	65.091	208.716	141.495	64.673	71.219	198.369	179.584	69.572	74.266	76.414	80.510	320.927	77.785	-8191	255	
7938.107	1	1	0	0	0.16872	0.066084	0.14873	0.066419	0.21934	0.16259	0.15722	0.38729	0.10312	0.12178	0.12327	0.3652	0.025586	0.13672	0.22288	0.30971	-1.6333	-2.5146	-2.5083	-2.025	-2.4437	-2.3646	-2.2792	-2.7646	-1.8625	-2.3312	-2.4521	-2.0771	-2.6875	-2.4021	-1.9208	-2.775	96.856	161.985	205.825	92.634	362.112	395.477	380.561	367.494	116.516	363.433	388.399	396.436	199.950	112.369	74.956	334.552	0.00067275	0.00044098	4.6331e-05	582.29	7.8206e-06	5.7187e-06	735.69	235.21	9.1386e-06	1.6577e-06	350.99	154	93.901	49.323	4.6539e-06	87.336	0.00053723	0.000496	0.00012734	577.11	5.85e-06	5.3606e-06	721.25	232.27	5.8916e-06	5.2672e-06	339.23	148.33	93.397	47.529	4.8267e-06	81.867	207.549	70.457	246.517	65.164	171.313	302.140	64.755	71.454	209.097	320.672	69.471	74.385	76.631	80.748	167.559	77.343	-8191	255	
7938.226	1	1	0	0	0.11589	0.18778	0.090467	0.43099	0.2281	0.090544	0.20383	0.28277	0.21403	0.1298	0.27786	0.13627	0.12763	0.50714	0.18021	0.28089	-1.5604	-2.0917	-2.4833	-2.1229	-2.4604	-2.3292	-2.1562	-2.6437	-2.0187	-2.1375	-2.7042	-2.0792	-2.5625	-2.5625	-1.9438	-2.6208	83.978	386.054	98.759	386.872	206.062	322.955	322.723	391.370	321.265	116.652	57.224	227.984	384.899	368.331	327.102	348.465	0.00061025	0.00020559	0.00019055	584.32	4.3856e-06	6.9057e-06	746.09	236.98	2.1331e-06	9.8185e-06	353.81	156.1	93.864	49.547	1.0601e-05	87.7	0.00054944	0.00047734	0.00012432	583.66	5.8823e-06	5.3073e-06	726.43	235.21	5.9155e-06	5.1624e-06	341.98	150.53	93.693	47.781	4.8778e-06	82.954	204.272	53.745	171.984	65.322	252.900	196.080	64.572	71.549	123.230	138.926	69.576	74.425	76.532	80.610	174.437	77.881	-8191	255	
7938.322	1	1	0	0	0.076721	0.25894	0.049318	0.19874	0.12124	0.04109	0.47684	0.0737	0.18453	0.20959	0.2908	0.086316	0.15317	0.14983	0.21088	0.25211	-1.6792	-2.125	-2.6312	-1.9521	-2.3729	-2.4521	-2.0958	-2.6854	-2.2396	-1.9771	-2.8458	-2.0771	-2.4521	-2.5146	-2.0354	-2.6604	256.854	56.192	305.365	356.999	210.531	155.977	319.132	135.763	160.687	190.385	74.403	366.517	403.252	128.526	177.052	329.160	0.00064518	0.0006621	0.00040254	584.42	5.005e-06	3.6236e-06	744.72	236.6	7.7666e-06	4.1043e-06	348.91	153.11	93.365	49.039	5.6664e-06	85.735	0.00054871	0.00047914	0.00013215	591.51	5.8786e-06	5.4332e-06	727.11	236.41	6.0297e-06	5.4033e-06	340.84	149.9	93.389	47.534	5.6598e-06	81.632	202.754	56.229	131.534	64.899	115.488	233.280	64.876	71.524	404.129	327.126	69.576	74.682	76.647	80.321	220.263	77.474	-8191	255	
7938.419	1	1	0	0	0.29356	0.30562	0.19782	0.22252	0.26033	0.10271	0.17977	0.20446	0.21084	0.11222	0.12784	0.43297	0.21901	0.2852	0.095181	0.32815	-1.8354	-2.0312	-2.6458	-2.1562	-2.4813	-2.5229	-2.0292	-2.6104	-2.2646	-1.9625	-2.7188	-2.2479	-2.0958	-2.6875	-2.0958	-2.5625	327.101	288.439	205.450	379.901	65.693	300.177	59.346	280.798	176.005	281.970	305.457	62.142	106.806	91.774	372.412	55.070	0.00038649	0.0004416	0.00027616	580.43	3.2322e-06	1.3461e-06	726.66	233.97	7.1638e-06	1.9352e-06	343.63	150.99	93.211	48.82	6.5885e-06	84.605	0.00056603	0.00049942	0.00015259	593.27	6.0959e-06	5.748e-06	719.77	236.59	6.3004e-06	5.6802e-06	340.06	148.81	93.166	47.432	6.7202e-06	80.815	205.952	155.508	109.703	65.188	94.715	273.363	64.826	71.249	200.195	198.179	69.672	74.361	76.304	80.767	224.311	77.643	-8191	255	
7938.515	1	1	0	0	0.097868	0.24455	0.17502	0.14727	0.068074	0.15255	0.19091	0.12321	0.052924	0.16183	0.052867	0.10794	0.069918	0.22681	0.25415	0.012365	-1.8521	-2.2354	-2.5417	-1.9667	-2.0979	-2.7792	-1.9146	-2.4375	-2.4042	-2.0229	-2.875	-2.2979	-2.1583	-2.7521	-1.9146	-2.6562	197.982	299.451	344.981	334.279	80.868	218.491	79.612	107.936	69.267	169.988	268.751	363.017	316.771	362.762	303.905	228.077	0.00065046	0.00056875	0.00017259	579.34	7.0396e-06	3.0717e-06	726.44	233.85	3.3749e-06	8.4171e-06	344.68	151.13	93.443	48.933	1.3644e-05	84.295	0.00059405	0.0005334	0.00017873	595.36	6.3295e-06	6.1638e-06	728.71	237.5	6.5675e-06	6.1105e-06	345.14	149.32	94.177	47.876	7.6404e-06	80.89	206.612	403.904	146.239	65.111	191.713	165.404	64.635	71.141	352.821	294.544	70.045	74.367	76.644	80.271	198.076	77.496	-8191	255	
7938.611	1	1	0	0	0.18839	0.21021	0.13121	0.1411	0.18414	0.16393	0.12151	0.38671	0.33562	0.13948	0.1927	0.1494	0.11035	0.23943	0.071964	0.23434	-2.1708	-1.9333	-2.5875	-2.2438	-2.0021	-2.7188	-2.1146	-2.3042	-2.6375	-1.9292	-2.5333	-2.4167	-2.1188	-2.8542	-2.1312	-2.4083	122.208	312.840	57.862	139.294	336.602	269.311	204.167	340.521	98.134	85.554	346.837	237.899	243.050	112.882	175.895	283.907	0.00065048	0.0013705	0.00011496	582.46	7.4712e-06	6.0584e-06	727.06	234.87	2.0594e-06	5.4568e-06	344.39	152.48	93.74	49.043	2.0877e-06	85.247	0.00062185	0.00059489	0.00020411	597.95	6.6598e-06	6.9996e-06	739.2	237.76	6.8143e-06	6.9488e-06	349.1	150.38	94.579	48.492	8.1506e-06	81.399	208.896	139.990	123.238	65.151	270.315	228.918	64.852	71.738	156.439	174.819	69.771	74.896	76.816	80.832	173.235	77.405	-8191	255	
7938.707	1	1	0	0	0.20908	0.30518	0.1563	0.10153	0.058314	0.15215	0.11835	0.22995	0.16194	0.041998	0.16777	0.2017	0.078394	0.19612	0.069955	0.098517	-2.1521	-1.9937	-2.5604	-2.5417	-1.9458	-2.75	-2.375	-2.3438	-2.5854	-1.9083	-2.4104	-2.3812	-1.9958	-2.6063	-1.8958	-2.2812	88.056	271.149	120.171	330.284	75.134	147.903	323.542	389.081	173.732	166.646	390.879	56.717	138.187	406.649	210.936	167.011	0.00066768	0.0018516	0.00016252	580.17	8.8018e-06	4.3255e-06	725.44	233.76	3.2469e-06	2.058e-05	344.51	151.03	93.553	48.878	2.0829e-06	83.796	0.00062836	0.00067736	0.00020883	598.93	6.6783e-06	7.8665e-06	740	236.89	7.0251e-06	7.9965e-06	347.56	149.67	94.577	48.771	8.1909e-06	80.499	211.445	149.558	283.044	64.943	196.827	104.294	65.037	71.473	154.300	168.982	69.643	74.765	76.638	80.879	264.249	77.748	-8191	255	
7938.803	1	1	0	0	0.080322	0.13984	0.30294	0.2168	0.17739	0.21578	0.3322	0.22635	0.064823	0.066927	0.1556	0.045705	0.11681	0.2365	0.17213	0.049146	-2.1604	-1.8896	-2.2708	-2.5062	-2.0625	-2.625	-2.2062	-2.1	-2.675	-1.8563	-2.4958	-2.6312	-1.9896	-2.5667	-2.1875	-2.1312	312.749	188.066	77.223	218.389	221.986	123.350	79.851	351.124	395.795	127.811	91.378	365.301	328.169	108.540	221.871	284.342	0.00065245	0.00022655	0.00026793	571.61	8.3022e-06	6.8713e-06	700.18	230.67	1.0113e-05	3.2069e-06	336.06	148	92.871	48.492	2.9821e-06	82.582	0.00065057	0.00075229	0.00020288	591.48	6.9786e-06	8.4448e-06	722.26	234.86	7.372e-06	8.526e-06	340.69	147.66	94.714	48.775	7.9656e-06	79.183	205.268	129.420	374.957	65.594	214.148	194.773	65.337	71.321	241.177	218.130	69.044	74.327	76.329	80.260	142.632	77.258	-8191	255	
7938.924	1	1	0	0	0.12194	0.14826	0.1289	0.15031	0.021187	0.10721	0.17664	0.1899	0.15558	0.12535	0.17178	0.17757	0.24115	0.16725	0.08641	0.083208	-2.1646	-2.1125	-2.1625	-2.3708	-1.8583	-2.4792	-2.3937	-2.1292	-2.6917	-2.0729	-2.3937	-2.6958	-1.8417	-2.475	-2.325	-2.0646	277.175	219.115	345.082	79.379	107.154	104.488	400.120	235.790	224.523	197.500	357.191	357.351	322.246	258.210	271.653	59.378	0.00057503	0.0002403	0.00017216	570.69	9.0258e-06	2.5314e-06	708.61	230.52	4.5396e-06	5.6431e-06	336.48	149.29	93.495	48.38	1.2054e-05	82.837	0.00070766	0.00080377	0.00019958	590.98	7.804e-06	8.8511e-06	722.17	234.47	8.1619e-06	8.7001e-06	339.79	147.32	95.961	48.606	7.8791e-06	79.23	205.475	77.069	324.335	64.751	176.277	144.959	64.586	70.874	220.026	378.787	69.071	74.721	76.399	80.313	53.385	77.498	-8191	255	
7939.020	1	1	0	0	0.13171	0.052024	0.24204	0.032546	0.10617	0.14299	0.15171	0.22891	0.20672	0.14233	0.089122	0.14062	0.27104	0.23026	0.15518	0.23899	-2.2979	-2.1646	-2.2292	-2.7708	-1.9333	-2.5312	-2.4521	-1.8604	-2.6583	-2.2313	-2.1958	-2.7521	-2.0542	-2.4021	-2.475	-2.2104	170.268	65.245	99.594	345.280	67.939	345.981	60.937	296.134	196.938	101.585	322.214	109.914	352.665	340.174	384.690	349.581	0.00052462	0.00069435	0.00018808	576.28	1.2217e-05	4.3805e-06	709.5	231.88	5.7231e-06	3.6865e-06	337.13	150.31	93.793	48.524	6.9238e-06	83.529	0.00078616	0.00080098	0.00019607	593.47	8.6875e-06	8.6458e-06	722.13	235.23	8.8173e-06	8.4648e-06	339.52	148.39	97.052	48.533	7.501e-06	79.92	207.282	71.580	100.823	64.924	207.995	342.898	64.260	71.018	203.543	307.490	69.105	74.515	76.462	80.032	184.478	77.298	-8191	255	
7939.116	1	1	0	0	0.14264	0.091216	0.17692	0.21147	0.23038	0.058872	0.20533	0.16113	0.10103	0.046259	0.045263	0.26803	0.14967	0.13561	0.063137	0.12237	-2.0167	-2.0563	-2.1437	-2.6583	-1.9083	-2.1521	-2.3583	-1.8083	-2.6437	-1.9729	-2.1312	-2.5792	-2.1333	-2.3229	-2.5875	-2.0563	67.639	252.010	197.427	217.719	90.191	86.066	348.208	240.636	72.957	207.323	378.004	309.034	347.553	141.454	404.108	258.200	0.0006567	0.0004263	1.4175e-05	575.07	4.1031e-06	5.8411e-07	714.98	233.29	4.3646e-06	7.618e-06	340.3	150.49	92.812	48.295	4.2384e-06	83.497	0.00080377	0.00073311	0.00018379	595.62	8.8121e-06	7.8917e-06	723.4	237.06	8.7341e-06	7.7907e-06	339.94	149.11	96.788	48.115	7.2166e-06	80.222	205.227	299.646	153.661	65.356	249.347	398.309	64.756	71.016	154.654	189.122	68.686	74.346	76.332	80.002	310.701	77.329	-8191	255	
7939.212	1	1	0	0	0.3238	0.16335	0.23112	0.10827	0.26351	0.018154	0.1974	0.075153	0.17306	0.049318	0.15163	0.31214	0.29728	0.065099	0.172	0.34265	-2.1125	-2.3375	-2.0042	-2.6521	-1.9917	-2.1271	-2.6188	-1.8458	-2.2708	-2.3	-2.0708	-2.8021	-2.0729	-2.2625	-2.5083	-1.8792	303.046	68.307	162.573	157.912	165.657	164.743	320.085	388.680	170.472	157.121	380.945	336.614	384.498	170.709	65.784	121.336	0.00054542	0.001335	0.00031359	573.46	4.9814e-06	7.7231e-06	711.14	232.87	3.3976e-06	6.1438e-06	335.89	148.79	92.542	48.149	6.7371e-06	82.176	0.00078336	0.00069187	0.00017493	596.68	8.3949e-06	7.3041e-06	713.38	237.77	8.1635e-06	7.3527e-06	334.25	148.24	95.606	47.673	6.9643e-06	79.639	202.843	127.054	205.251	65.205	239.341	107.703	64.740	70.837	366.785	263.505	69.198	74.218	76.663	80.425	206.204	77.201	-8191	255	
7939.307	1	1	0	0	0.10396	0.066762	0.073407	0.26543	0.22119	0.02612	0.23949	0.1808	0.1332	0.047871	0.37271	0.15033	0.17959	0.29894	0.10914	0.097247	-2.175	-2.4375	-1.7917	-2.5667	-2.1063	-2.0563	-2.6333	-2.2146	-2.4938	-2.5417	-2.1104	-2.6271	-2.3063	-2.1875	-2.6104	-2.1646	277.932	148.067	168.020	386.987	70.805	105.965	348.884	394.395	268.848	368.702	98.717	96.935	341.062	350.659	120.338	354.748	0.00051822	0.00039098	0.00038185	572.67	3.4879e-06	4.9038e-06	708.6	229.99	3.9757e-06	1.331e-05	339.45	148.41	92.615	48.3	8.5986e-06	82.604	0.00071463	0.00065302	0.00017226	596.98	7.717e-06	6.8421e-06	710.29	237.48	7.4837e-06	6.9824e-06	336.59	148.32	94.571	47.427	7.2108e-06	80.045	212.997	251.969	130.446	65.038	213.433	150.809	64.694	70.820	337.962	162.077	69.425	74.464	76.779	80.353	197.423	77.182	-8191	255	
7939.403	1	1	0	0	0.15915	0.11976	0.19168	0.16164	0.031718	0.24994	0.15019	0.13431	0.32466	0.29226	0.20907	0.1387	0.11838	0.089316	0.12301	0.10784	-1.9396	-2.4688	-1.9021	-2.4521	-2.1083	-1.8833	-2.7812	-1.9604	-2.1188	-2.6312	-1.9604	-2.4437	-2.2896	-2.2021	-2.575	-2.2188	401.828	113.282	149.673	391.997	364.912	241.888	79.725	398.367	261.444	313.378	348.120	274.365	338.530	214.729	402.105	371.890	0.00056374	0.00043776	8.9289e-05	571.72	2.2921e-06	2.8529e-06	712.26	230.9	4.0146e-06	5.6719e-06	338.15	150.27	92.517	48.384	1.6738e-05	84.237	0.00065825	0.00060873	0.00018099	594.79	7.1869e-06	6.4074e-06	719.22	236.82	6.9338e-06	6.5089e-06	340.4	148.97	93.952	47.528	7.5701e-06	80.94	207.775	80.459	117.880	64.903	240.025	157.495	64.700	70.807	136.998	246.596	69.383	74.459	76.571	80.306	200.576	77.285	-8191	255	
7939.499	1	1	0	0	0.39577	0.10611	0.14858	0.097029	0.24621	0.12169	0.10954	0.012356	0.26362	0.076759	0.12578	0.3125	0.1063	0.17395	0.16418	0.21889	-1.7625	-2.5187	-2.0625	-2.5229	-2.4208	-1.9292	-2.7292	-2.3667	-2.2562	-2.6625	-2.1479	-2.7292	-2.5958	-2.1021	-2.8125	-2.3979	206.024	112.918	335.128	238.464	247.583	345.093	259.681	407.880	98.693	344.000	227.983	395.120	389.470	355.937	240.459	308.282	0.00058005	0.0010186	0.00021607	572.71	3.1997e-06	4.6302e-06	718.8	231.81	4.3488e-06	1.509e-05	340.97	150.08	93.056	48.871	1.2498e-05	84.895	0.00061394	0.00059053	0.00019181	591.17	6.733e-06	6.3102e-06	729.09	236.18	6.5607e-06	6.5671e-06	344.65	148.84	93.86	47.834	7.9294e-06	81.086	202.582	116.627	171.531	64.940	209.320	194.749	64.844	70.903	254.624	184.458	69.389	74.496	76.543	80.186	133.629	77.508	-8191	255	
7939.620	1	1	0	0	0.19889	0.18986	0.36772	0.16399	0.24185	0.10573	0.15405	0.10741	0.22442	0.2212	0.054224	0.19267	0.16487	0.19354	0.10686	0.23198	-1.7396	-2.7583	-2.0396	-2.2979	-2.5979	-1.9104	-2.5354	-2.3833	-2.0812	-2.7125	-2.1479	-2.1146	-2.7667	-2.1312	-2.6167	-2.5125	356.507	151.836	230.690	383.212	282.860	98.071	278.943	392.144	288.373	200.895	331.717	272.902	234.521	332.729	361.710	392.022	0.00062823	0.00047894	0.00016544	571.37	8.7939e-06	3.5938e-06	711.31	230.6	6.2022e-06	7.6126e-06	336.51	147.98	91.405	48.44	1.4704e-06	83.146	0.00060276	0.00062865	0.00020288	587.03	6.6723e-06	6.8704e-06	721.89	234.32	6.4097e-06	7.1324e-06	340.42	146.03	92.627	47.617	7.9075e-06	79.589	209.391	220.810	219.793	64.816	181.020	279.925	64.696	71.271	244.451	209.899	69.578	74.441	76.339	80.286	151.851	77.460	-8191	255	
7939.716	1	1	0	0	0.17884	0.36224	0.1921	0.0987	0.26834	0.20057	0.16236	0.061203	0.15941	0.12495	0.26708	0.093719	0.16261	0.20188	0.25414	0.12784	-1.5417	-2.6354	-2.2146	-2.2812	-2.4354	-1.8042	-2.6396	-2.3688	-1.8208	-2.5896	-2.0354	-2.2562	-2.7333	-2.0583	-2.4479	-2.5771	202.801	129.999	97.081	222.741	186.125	87.262	353.403	307.259	386.287	174.106	290.537	148.522	316.831	107.513	389.492	92.396	0.00065213	0.0015366	0.00020646	560.39	1.8341e-06	1.1789e-05	700.09	228.05	2.1136e-06	9.0565e-06	332.84	147.58	91.014	48.032	8.1593e-06	82.874	0.00058817	0.00068975	0.00019888	578.1	6.5676e-06	7.5337e-06	710.95	231.34	6.3294e-06	7.7413e-06	336.12	144.77	92.294	47.897	7.4276e-06	79.022	200.416	141.787	316.333	64.762	214.134	202.867	64.964	71.199	57.248	212.421	69.793	74.371	76.845	80.275	215.016	77.528	-8191	255	
7939.812	1	1	0	0	0.23425	0.16291	0.093286	0.15307	0.22223	0.18376	0.1153	0.28138	0.28795	0.20694	0.10331	0.071981	0.21609	0.13974	0.06538	0.23249	-1.4479	-2.4417	-2.0292	-2.1292	-2.7042	-1.9958	-2.4604	-2.4979	-2.0292	-2.4542	-2.3917	-2.1146	-2.7271	-2.1562	-2.2542	-2.7146	145.617	354.680	410.594	131.394	90.985	331.690	338.616	363.317	215.734	254.227	246.499	285.712	185.155	67.015	378.375	277.456	0.000608	0.00044508	0.00010189	565.03	1.054e-05	7.4888e-06	702.72	228.36	4.4301e-06	8.3658e-06	332.81	148.1	91.314	48.059	8.1205e-06	83.176	0.00059301	0.00071515	0.0001888	574.88	6.7048e-06	7.9048e-06	709.04	230.42	6.6276e-06	7.8812e-06	335.19	144.68	92.598	47.793	6.8605e-06	79.425	211.355	132.010	306.381	64.618	247.574	199.740	64.509	70.978	178.781	343.213	69.250	74.180	76.866	80.346	275.096	77.661	-8191	255	
7939.884	1	1	0	0	0.21327	0.13136	0.07389	0.13843	0.25354	0.15901	0.11864	0.034443	0.12132	0.26213	0.30368	0.20977	0.046385	0.22073	0.047144	0.18991	-1.4688	-2.4646	-2.3667	-2.15	-2.7083	-2.025	-2.2083	-2.5187	-1.8312	-2.5187	-2.4333	-1.95	-2.7729	-2.0187	-2.0917	-2.7208	364.000	235.463	68.494	316.135	326.461	74.229	72.337	183.875	184.829	110.331	203.909	382.653	216.183	77.167	163.857	348.722	0.00076307	0.00021573	0.00016342	563.11	3.995e-06	5.0091e-06	711.71	229.43	7.0932e-06	4.4147e-06	338.21	148.97	91.573	48.416	7.2084e-06	84.677	0.00062805	0.0007005	0.00017342	572.89	7.082e-06	7.5427e-06	710.03	230.17	7.0644e-06	7.3875e-06	335.74	145.32	93.511	47.801	6.3706e-06	80.197	202.349	120.058	366.264	64.952	216.525	119.098	64.917	71.084	267.798	399.624	69.476	74.435	76.723	80.254	196.230	77.575	-8191	255	
7940.004	1	1	0	0	0.28069	0.1838	0.15128	0.10843	0.07026	0.16231	0.17014	0.20718	0.20224	0.14339	0.26981	0.35477	0.23067	0.050232	0.24662	0.39958	-1.4438	-2.2667	-2.3167	-2.0208	-2.4354	-2.4333	-2.275	-2.6729	-2.1667	-2.525	-2.7229	-2.2062	-2.7104	-2.2333	-2.0083	-2.725	93.057	87.714	390.362	276.608	139.386	112.792	84.902	331.342	252.742	387.138	290.777	343.809	211.482	95.573	238.211	383.399	0.00077931	0.00024857	0.00019983	567.78	8.8087e-06	7.28e-06	710.39	228.54	4.536e-06	3.0312e-06	334.81	148.12	91.473	48.01	4.4265e-06	83.485	0.00065708	0.00064527	0.0001626	574.15	7.2588e-06	6.9125e-06	705.47	229.85	7.2924e-06	6.7168e-06	332.07	144.41	93.373	47.269	6.0605e-06	79.283	209.206	180.829	410.584	65.056	256.592	177.587	64.744	71.265	240.985	120.324	69.468	74.516	76.355	80.456	133.625	77.473	-8191	255	
7940.100	1	1	0	0	0.12133	0.075852	0.12843	0.10882	0.098589	0.18989	0.36688	0.38591	0.070006	0.21914	0.13904	0.046907	0.23831	0.24836	0.10089	0.15428	-1.5479	-2.3667	-2.5563	-2.0583	-2.6292	-2.3875	-2.1917	-2.6792	-2.1167	-2.2542	-2.6937	-1.9833	-2.6896	-2.5417	-1.9958	-2.8792	56.344	70.245	198.957	241.310	348.906	326.363	355.179	289.579	370.272	70.842	352.027	398.758	357.653	363.693	290.852	114.723	0.0005819	0.00017158	4.8228e-05	554.95	4.7767e-06	5.229e-06	692.54	226.37	2.5886e-06	8.2264e-06	332.01	146.71	90.259	47.616	3.0613e-06	83.025	0.00069217	0.00060806	0.00015981	567.6	7.515e-06	6.7288e-06	690.39	228.9	7.4264e-06	6.4326e-06	328.25	144.21	92.455	46.861	5.9247e-06	79.481	205.270	229.054	177.027	65.180	232.245	328.370	65.172	71.367	149.681	132.954	69.691	74.255	76.977	80.589	208.326	77.495	-8191	255	
7940.197	1	1	0	0	0.18893	0.052756	0.053373	0.10471	0.3015	0.18342	0.035187	0.13157	0.17064	0.25949	0.20924	0.15894	0.041039	0.17105	0.20555	0.17016	-1.6854	-2.3604	-2.6021	-2.2146	-2.5667	-2.4938	-2.3354	-2.7958	-2.1958	-2.0812	-2.6813	-2.2375	-2.4437	-2.5417	-1.975	-2.8812	176.378	323.798	302.785	322.426	212.061	60.500	383.046	128.969	350.268	244.789	376.478	343.894	306.486	386.980	321.109	322.736	0.00054014	0.00060029	9.9216e-05	555.21	2.0016e-06	6.1239e-06	700.62	227.18	3.5991e-06	7.6113e-06	331.91	147.94	90.454	47.87	1.3609e-05	83.732	0.00067007	0.0005796	0.00015608	574.92	7.19e-06	6.5216e-06	694.83	230.98	7.2601e-06	6.3747e-06	329.26	146.25	92.352	46.855	6.194e-06	80.063	206.656	186.579	56.528	65.023	302.177	53.903	64.849	71.516	243.538	247.300	69.779	74.386	76.422	80.689	231.342	77.483	-8191	255	
7940.315	1	1	0	0	0.25356	0.17874	0.14313	0.28406	0.087475	0.23464	0.23446	0.14257	0.2199	0.37315	0.05687	0.074734	0.078945	0.11278	0.12072	0.20221	-1.8271	-2.0708	-2.6771	-2.1188	-2.3688	-2.6375	-1.9833	-2.6396	-2.2958	-2.0521	-2.7521	-2.0833	-2.2292	-2.6771	-2.0354	-2.8042	130.646	82.225	227.194	337.529	108.759	180.648	330.745	150.439	323.068	120.971	395.880	101.245	136.926	351.147	225.405	308.854	0.00048388	0.0001252	0.00020331	560.72	9.7082e-06	2.7417e-06	706	227.92	3.3413e-06	4.08e-06	334.52	148.13	90.585	47.996	1.0654e-05	83.935	0.00065149	0.00057227	0.00016502	582.22	6.9149e-06	6.4771e-06	706.52	234	7.0617e-06	6.2772e-06	335.45	147.71	92.674	47.164	6.9667e-06	80.554	204.719	397.334	101.809	65.483	173.430	125.634	65.259	71.158	133.399	140.505	69.970	74.772	76.986	80.676	181.729	77.494	-8191	255	
7940.412	1	1	0	0	0.16325	0.19082	0.30515	0.27139	0.23291	0.10234	0.24203	0.20978	0.24192	0.24198	0.32764	0.20309	0.092937	0.03909	0.15858	0.3706	-2.1771	-2.0833	-2.6646	-2.3521	-2.3583	-2.7646	-1.9542	-2.55	-2.3417	-2.1208	-2.8167	-2.3542	-2.3521	-2.7438	-2.0583	-2.6833	271.350	149.610	346.525	367.140	383.354	231.026	346.293	306.761	84.507	81.649	210.489	412.683	329.059	186.721	56.612	390.316	0.00059701	0.00095443	0.00023213	564	2.6732e-06	6.0955e-06	709.23	228.43	7.4141e-06	6.4229e-06	339.49	149.19	91.581	48.152	4.8521e-06	83.347	0.00064376	0.00057205	0.00018643	586.83	6.7561e-06	6.4213e-06	715.62	233.98	6.8618e-06	6.2115e-06	339.39	147.48	92.594	47.034	7.4704e-06	79.774	204.047	183.680	190.891	65.188	283.929	357.945	65.025	70.975	203.273	220.034	69.287	74.228	76.070	80.369	272.128	77.326	-8191	255	
7940.485	1	1	0	0	0.22649	0.28354	0.22385	0.10706	0.30628	0.067415	0.12102	0.30696	0.11719	0.14194	0.13195	0.18973	0.109	0.13391	0.12348	0.24142	-1.9125	-2.0583	-2.65	-2.2854	-2.1917	-2.5875	-2.05	-2.5375	-2.5229	-1.9542	-2.7521	-2.475	-2.3521	-2.7188	-2.1437	-2.4604	136.038	94.633	74.466	407.948	211.112	260.564	258.903	393.624	83.788	190.445	295.319	350.428	378.000	74.913	229.988	407.414	0.00056277	0.00064033	0.00035503	564.31	1.4854e-05	1.9749e-06	705.19	227.26	1.6183e-06	9.006e-06	330.68	146.75	90.258	47.367	1.944e-06	82.305	0.00061497	0.0005609	0.0001916	581.07	6.2488e-06	6.3311e-06	712.89	230.49	6.4545e-06	6.3687e-06	335.3	144.62	90.891	46.652	7.6247e-06	78.556	202.043	169.144	129.660	64.780	204.626	63.401	64.911	71.288	105.090	192.936	69.234	74.005	76.275	80.097	162.963	77.277	-8191	255	
7940.604	1	1	0	0	0.32704	0.25513	0.19251	0.15821	0.21761	0.22586	0.12313	0.12056	0.16198	0.07992	0.078916	0.33741	0.23888	0.11776	0.16727	0.24228	-2.1937	-2.0292	-2.5312	-2.3812	-2.075	-2.8229	-2.1708	-2.4229	-2.7583	-2.1104	-2.4958	-2.4688	-2.0312	-2.6271	-2.0938	-2.2729	108.420	361.175	386.692	69.593	79.734	233.536	54.848	339.570	337.537	371.696	374.122	98.480	373.782	378.479	159.397	285.658	0.00059104	0.00056878	0.00030248	554.63	7.2584e-06	1.1561e-05	697.71	225.03	4.2831e-06	1.9099e-05	331.2	146.3	89.449	47.192	5.2066e-06	82.696	0.00058508	0.00060014	0.00019542	571.26	6.0136e-06	6.8694e-06	707.57	227.59	6.2969e-06	6.9472e-06	334.56	144.13	90.069	46.847	7.7732e-06	78.845	195.159	71.848	377.109	65.372	145.091	209.471	64.758	71.029	228.799	169.967	69.302	74.594	76.225	80.584	325.388	77.136	-8191	255	
7940.700	1	1	0	0	0.14837	0.25364	0.090404	0.296	0.28824	0.1152	0.20578	0.062188	0.063361	0.13334	0.14562	0.070905	0.1801	0.094165	0.0405	0.30928	-2.3375	-2.1229	-2.4458	-2.5563	-2.0583	-2.6771	-2.2729	-2.1646	-2.6688	-1.9771	-2.5292	-2.9208	-2.1646	-2.6417	-2.1813	-2.0812	256.308	239.264	214.362	366.366	180.124	170.285	269.264	256.267	260.004	401.074	401.920	296.737	227.101	409.179	244.728	333.486	0.00073994	0.00054874	0.0001582	551.33	6.5824e-06	3.6094e-06	695.07	222.86	8.1057e-06	1.5822e-05	329.21	147.73	88.873	47.394	4.5007e-06	83.444	0.00060576	0.00069744	0.00019828	567.87	6.5192e-06	7.9283e-06	706.41	225.23	6.777e-06	7.9148e-06	333.14	144.94	90.089	47.164	7.5312e-06	79.472	199.828	143.519	348.732	65.087	275.944	128.319	64.672	70.932	256.723	168.955	69.363	74.360	76.734	80.288	168.152	77.345	-8191	255	
7940.796	1	1	0	0	0.1108	0.21139	0.24378	0.08837	0.03807	0.26905	0.26678	0.19375	0.098577	0.17027	0.026018	0.14347	0.30283	0.18843	0.17095	0.18815	-2.2062	-1.7979	-2.4354	-2.6375	-2.2479	-2.6396	-2.375	-2.3417	-2.6917	-2.0438	-2.4458	-2.6958	-2.1521	-2.6	-2.3063	-2.3208	176.180	229.823	128.147	158.966	273.673	352.124	352.073	309.792	78.744	321.272	302.113	58.872	377.330	374.086	116.663	408.272	0.00079726	0.00052459	0.00011715	555.7	7.9044e-06	2.0488e-06	705.15	222	3.1015e-06	5.4142e-06	335.57	148.31	88.988	47.171	2.548e-06	84.993	0.00064046	0.00073979	0.00018815	569.16	6.8687e-06	8.1202e-06	708.65	223.73	7.0428e-06	7.8198e-06	332.98	145.32	90.483	47.157	6.7203e-06	80.277	207.193	406.244	236.834	64.961	234.557	349.144	64.896	70.754	301.674	157.981	69.139	74.559	76.175	80.342	330.667	77.455	-8191	255	
7940.917	1	1	0	0	0.061267	0.23109	0.13073	0.12548	0.13679	0.09687	0.23529	0.22574	0.10013	0.20421	0.24181	0.20261	0.065248	0.1808	0.17644	0.10133	-2.3	-2.1479	-2.2979	-2.5958	-1.9729	-2.5479	-2.3792	-2.0979	-2.7854	-2.2083	-2.15	-2.8479	-1.9958	-2.6312	-2.5646	-2.1937	392.416	190.348	215.495	369.563	198.432	90.922	373.799	389.558	295.970	122.966	304.712	364.730	345.697	298.048	380.849	343.805	0.0005913	0.001061	0.00034578	551.77	7.8697e-06	1.68e-06	703.34	219.99	5.5761e-06	4.6497e-06	332.2	148.95	88.89	47.497	7.8681e-06	85.094	0.00063719	0.0006732	0.00016252	560.54	6.8699e-06	7.1941e-06	702.4	220.57	6.9847e-06	6.9325e-06	328.19	144.7	90.119	46.757	6.0447e-06	80.48	204.285	196.103	112.530	64.961	227.563	142.517	64.606	71.028	171.295	321.443	69.709	74.240	76.242	80.678	275.389	77.029	-8191	255	
7941.013	1	1	0	0	0.079074	0.11611	0.11185	0.093465	0.15055	0.18424	0.18838	0.20384	0.17694	0.16762	0.09248	0.18175	0.2204	0.29313	0.23703	0.26431	-2.3937	-2.3438	-2.1875	-2.6417	-1.7687	-2.4667	-2.6583	-2.0042	-2.525	-2.4917	-2.1729	-2.7417	-1.9917	-2.2729	-2.4208	-1.9667	294.561	216.541	89.656	372.550	192.661	407.686	368.241	59.910	198.275	118.032	334.324	336.392	60.395	314.690	90.024	249.256	0.00064737	0.00066307	0.0001782	553.09	8.6581e-06	2.6086e-06	705.43	221.04	2.2458e-06	2.0766e-06	334.75	150.65	88.909	48.315	8.1672e-06	87.093	0.00063044	0.0005856	0.00014525	559.07	6.7427e-06	6.1689e-06	699.73	220.45	6.6243e-06	6.0232e-06	326.76	145.5	89.816	46.858	5.4124e-06	81.882	198.477	164.359	148.765	64.936	198.745	180.941	64.849	71.176	198.269	259.808	69.110	74.586	76.425	80.375	203.332	77.301	-8191	255	
7941.109	1	1	0	0	0.11588	0.23615	0.28316	0.16364	0.29609	0.13107	0.10934	0.24071	0.1607	0.11175	0.18694	0.12518	0.28734	0.03236	0.16362	0.33664	-2.2333	-2.3167	-2.0125	-2.7562	-1.9146	-2.3167	-2.6583	-2.0229	-2.575	-2.3042	-2.0729	-2.6833	-2.1771	-2.35	-2.5354	-1.95	296.535	406.765	59.102	261.806	67.206	195.109	277.780	108.357	193.485	210.281	298.359	377.832	387.222	382.424	183.136	391.265	0.00073765	0.00050997	0.00013468	560.89	4.5821e-06	4.189e-06	722.86	226.34	3.5258e-06	5.9853e-06	344.16	152.91	90.411	49.083	9.044e-06	89.042	0.00059454	0.0005198	0.00013045	566.65	6.2548e-06	5.4009e-06	708.24	225.05	6.047e-06	5.3265e-06	332	147.59	90.123	47.157	4.8419e-06	83.37	199.926	333.793	63.152	65.143	142.923	149.273	64.869	70.930	228.449	184.672	69.170	74.450	76.688	80.628	208.631	77.343	-8191	255	
7941.181	1	1	0	0	0.33345	0.16151	0.11097	0.28308	0.12505	0.30571	0.10626	0.15733	0.34229	0.157	0.10844	0.077841	0.18689	0.37304	0.072515	0.24459	-1.9833	-2.3812	-1.8792	-2.6479	-2.1625	-2.0667	-2.6562	-2.1417	-2.4146	-2.3146	-2.0438	-2.7833	-2.2375	-2.0542	-2.6792	-2.2208	385.724	90.072	191.863	367.026	373.078	226.836	287.167	146.661	87.229	156.404	140.879	338.503	408.815	332.548	313.971	371.767	0.00060597	0.00065195	0.00011899	577	2.7243e-06	3.9289e-06	739.38	231.14	6.604e-06	5.8774e-06	347.86	154.74	91.524	49.566	1.246e-05	89.907	0.0005218	0.00045949	0.0001176	578.24	5.4862e-06	4.8048e-06	721.26	229.7	5.3419e-06	4.8539e-06	336.98	149.79	90.566	47.712	4.9329e-06	84.666	203.758	124.381	131.735	65.167	218.748	228.112	64.937	70.781	114.547	122.017	68.948	74.195	76.516	80.479	200.871	77.499	-8191	255	
7941.300	1	1	0	0	0.20322	0.05818	0.063625	0.22668	0.032677	0.10011	0.49571	0.18573	0.10906	0.14311	0.15141	0.11537	0.029747	0.15362	0.061071	0.12104	-2.0708	-2.6271	-1.9854	-2.5771	-2.3333	-2.0104	-2.8521	-1.9854	-2.3792	-2.5938	-1.975	-2.6667	-2.425	-2.0521	-2.5333	-2.2875	331.628	70.873	353.247	362.445	99.018	79.074	362.550	369.735	386.771	130.525	326.657	111.602	366.188	359.524	280.848	276.930	0.00049616	0.00048957	7.97e-05	575.84	1.2216e-06	5.9862e-06	728.95	229.57	1.3702e-06	5.3344e-06	343.58	152.43	90.294	49.578	4.5752e-06	88.725	0.00048857	0.00044029	0.00012634	581.23	5.2805e-06	4.7177e-06	718.21	229.26	5.1455e-06	4.8048e-06	333.29	147.91	89.333	47.512	5.4385e-06	83.526	218.201	148.894	73.797	65.129	85.391	203.078	64.885	71.202	165.634	189.575	69.354	74.541	76.431	80.234	210.501	77.532	-8191	255	
7941.396	1	1	0	0	0.088707	0.16029	0.042186	0.23023	0.16607	0.27872	0.096961	0.20666	0.23076	0.33331	0.062597	0.28576	0.28156	0.17165	0.12694	0.10522	-1.8583	-2.4771	-1.8333	-2.6521	-2.2271	-2.0292	-2.825	-2.175	-2.1667	-2.6688	-1.9562	-2.6542	-2.5	-2.1063	-2.7604	-2.4417	398.318	147.679	398.263	243.080	276.068	189.816	388.842	84.518	83.837	389.030	379.954	90.207	408.105	244.163	393.284	63.262	0.00066691	0.000814	0.00038094	568.58	8.7744e-07	3.7056e-06	710.9	228.38	3.0923e-06	6.9519e-06	336.25	150.68	89.747	49.42	1.031e-05	88.017	0.000475	0.00043687	0.00014089	574.62	5.2062e-06	4.7053e-06	703.89	227.16	5.0131e-06	4.8259e-06	330.54	145.9	88.851	47.304	5.8326e-06	82.97	202.433	80.072	138.641	65.436	197.894	178.490	65.081	71.273	195.975	249.528	69.498	74.482	76.926	80.585	216.867	77.278	-8191	255	
7941.492	1	1	0	0	0.22198	0.075537	0.17407	0.20965	0.093796	0.124	0.2053	0.042324	0.38991	0.1456	0.31016	0.48894	0.22624	0.26644	0.17168	0.17021	-1.8146	-2.6708	-2.0354	-2.2938	-2.5833	-2.0083	-2.6646	-2.4042	-1.8813	-2.6208	-2.0812	-2.2583	-2.625	-1.9854	-2.5062	-2.4771	308.423	233.120	188.301	377.791	289.392	378.704	318.926	129.204	257.044	288.587	404.160	396.876	378.252	376.774	246.389	355.169	0.00059719	0.0010578	0.00014169	572.29	1.1715e-06	1.0268e-05	720.72	229.9	1.9892e-06	8.4436e-06	339.63	152.03	90.006	49.751	6.1849e-06	89.577	0.00045491	0.00044696	0.00014693	571.58	4.9295e-06	4.8682e-06	711.13	227.22	4.7215e-06	5.0119e-06	334.18	146.26	88.827	47.927	5.7892e-06	83.772	206.840	161.543	146.196	64.671	81.820	190.864	64.933	70.913	382.726	217.020	69.364	74.713	76.223	80.331	142.948	77.603	-8191	255	
7941.588	1	1	0	0	0.23026	0.24793	0.18269	0.33404	0.28786	0.1391	0.44001	0.22397	0.16634	0.084514	0.22258	0.071136	0.071808	0.26254	0.2141	0.25621	-1.6208	-2.6063	-2.0083	-2.4979	-2.3937	-2.0958	-2.6375	-2.3708	-2.0333	-2.5375	-2.0125	-2.3375	-2.5625	-2.2208	-2.5563	-2.4938	216.723	264.729	90.362	301.007	314.795	220.047	336.216	56.872	167.822	272.002	206.556	145.247	385.646	406.631	243.329	320.700	0.00065294	0.00099159	0.000232	577.64	2.9855e-07	3.7913e-06	723.38	229.89	3.7082e-06	3.8076e-06	348.82	152.97	91.301	50.778	4.9045e-06	91.316	0.00043735	0.0004741	0.00014551	574.12	4.6728e-06	5.1456e-06	716.64	228.08	4.484e-06	5.2674e-06	338.64	147.43	89.433	48.712	5.3127e-06	85.109	218.192	168.541	136.184	64.838	395.233	189.748	64.853	71.220	274.128	181.784	69.217	74.442	76.361	80.679	274.931	77.441	-8191	255	
7941.709	1	1	0	0	0.17246	0.068664	0.13141	0.16462	0.095625	0.22055	0.076256	0.19229	0.15545	0.067169	0.10054	0.1855	0.20544	0.15107	0.49069	0.07017	-1.4604	-2.7062	-2.1375	-2.1917	-2.6854	-2.05	-2.5458	-2.5354	-1.9083	-2.6521	-2.2208	-2.2479	-2.6771	-1.9083	-2.4958	-2.6667	405.541	386.178	178.362	107.783	310.186	72.450	55.117	351.081	134.987	273.769	354.367	96.436	397.690	402.176	349.488	121.791	0.00070401	0.0015174	0.00017837	580.7	6.247e-07	6.9568e-06	731.43	232.97	4.7344e-06	1.5146e-06	349.56	155.08	92.501	50.648	2.1984e-06	91.403	0.00042061	0.0004857	0.00013415	575.88	4.5466e-06	5.3096e-06	722.68	228.94	4.474e-06	5.4167e-06	338.53	148.26	90.025	48.876	4.8376e-06	84.904	205.994	163.899	164.161	65.267	324.353	173.720	64.737	71.394	198.145	404.970	69.683	74.345	76.963	80.499	397.788	77.445	-8191	255	
7941.780	1	1	0	0	0.28306	0.19481	0.075642	0.19636	0.18055	0.11663	0.30567	0.26727	0.083315	0.24874	0.34792	0.18176	0.055825	0.096841	0.18739	0.45344	-1.5187	-2.4521	-2.2562	-2.2417	-2.7021	-2.075	-2.2708	-2.7083	-2.0208	-2.5146	-2.4771	-2.0229	-2.7271	-2.0417	-2.0875	-2.7104	381.740	265.128	222.009	373.881	53.382	72.580	311.430	281.181	398.604	166.853	363.947	148.209	169.309	267.779	266.055	67.807	0.00064871	0.00046381	0.0001171	578.3	7.8506e-06	4.6154e-06	723.69	232.28	8.5996e-06	3.666e-06	345.24	153.26	91.63	50.186	4.9933e-06	90.141	0.00042881	0.00048729	0.00012232	571.05	4.7343e-06	5.3301e-06	711.1	227.57	4.7546e-06	5.2807e-06	332.92	146.08	90.205	48.447	4.5663e-06	83.773	208.657	126.675	405.284	65.008	237.397	162.397	64.976	71.194	258.767	161.422	69.180	74.145	76.571	80.371	195.906	77.574	-8191	255	
7941.877	1	1	0	0	0.07862	0.12901	0.15374	0.14223	0.32443	0.10753	0.10101	0.25985	0.12699	0.16301	0.19787	0.23883	0.28833	0.083305	0.13246	0.246	-1.65	-2.3187	-2.4208	-1.9375	-2.6167	-2.0375	-2.1208	-2.7188	-2	-2.4833	-2.4083	-2.0208	-2.5771	-2.2458	-2.0833	-2.725	341.277	232.941	375.846	79.857	155.275	238.084	327.068	58.826	371.729	175.181	183.137	405.057	284.423	218.981	176.875	172.609	0.00071399	0.00061689	2.6155e-05	578.17	7.5509e-06	6.3897e-06	722.22	234.44	6.231e-06	5.2253e-06	345.87	153.33	92.255	50.338	7.8461e-06	90.819	0.00046052	0.00046863	0.00011706	568.57	5.0543e-06	5.1e-06	708.02	228.18	5.101e-06	4.9543e-06	333.33	146.3	90.993	48.503	4.4225e-06	84.33	203.490	115.250	84.227	65.369	205.013	122.383	64.817	71.215	300.028	177.711	69.474	74.513	76.715	80.645	91.363	77.688	-8191	255	
7941.997	1	1	0	0	0.28872	0.092268	0.092201	0.28342	0.14506	0.073228	0.12292	0.21531	0.17102	0.11072	0.18568	0.19085	0.18636	0.069885	0.12619	0.09517	-1.5938	-2.4	-2.5687	-1.8937	-2.4521	-2.2354	-2.0917	-2.6083	-2.0229	-2.1354	-2.3875	-2.0812	-2.4104	-2.3396	-1.9958	-3.0104	272.914	118.718	340.242	336.253	68.363	391.347	354.995	353.401	280.457	301.306	105.516	330.034	62.866	100.012	330.000	76.868	0.00073696	0.0008633	0.00017797	582.33	6.0189e-06	2.4222e-06	730.34	235.94	1.6832e-06	5.6665e-06	350.23	155.22	92.543	50.823	2.9687e-06	91.343	0.00049119	0.00044063	0.00011378	576.52	5.2875e-06	4.7713e-06	712.32	230.13	5.1991e-06	4.614e-06	335.37	148.11	91.353	48.646	4.1567e-06	85.298	207.756	103.715	172.567	65.575	189.261	91.528	64.509	71.433	235.157	196.939	69.190	74.489	76.342	80.493	127.033	77.548	-8191	255	
7942.093	1	1	0	0	0.15554	0.13461	0.11099	0.25981	0.19606	0.092693	0.095462	0.062654	0.072752	0.25851	0.22263	0.14503	0.061831	0.031974	0.067123	0.15634	-1.85	-2.1646	-2.5438	-2.0333	-2.4646	-2.3458	-2.0333	-2.6104	-2.0208	-2.1854	-2.5958	-2.0458	-2.2354	-2.4417	-1.9479	-2.7271	206.514	332.800	181.260	319.693	284.966	106.126	350.546	136.763	349.979	255.424	84.273	211.997	369.837	306.616	316.183	380.656	0.00066292	0.00043935	0.00017092	591.57	4.5744e-06	4.3908e-06	745.33	238.43	3.1808e-06	3.5949e-06	355.05	156.16	93.515	51.143	4.3292e-06	91.287	0.0004813	0.00040615	0.00010726	585.2	5.017e-06	4.4884e-06	720.08	234.19	5.0085e-06	4.3383e-06	338.1	149.53	91.676	48.723	4.0722e-06	85.502	206.101	190.751	80.480	65.505	110.528	238.327	64.766	70.958	130.613	289.075	69.374	74.668	76.225	80.654	246.247	77.626	-8191	255	
7942.189	1	1	0	0	0.086108	0.047666	0.17289	0.083305	0.060795	0.096536	0.12471	0.2358	0.21379	0.21443	0.1101	0.21643	0.20477	0.15233	0.082246	0.19615	-1.7917	-2.0792	-2.6479	-1.9	-2.5354	-2.5167	-1.9312	-2.5104	-2.2146	-2.2771	-2.7125	-2.1083	-2.3875	-2.7	-1.9271	-2.5833	114.000	193.113	229.671	105.297	379.614	183.064	389.600	403.948	204.737	204.856	370.786	368.512	404.808	362.793	114.642	356.137	0.00066424	0.00026195	8.5462e-05	594.53	6.1899e-06	2.9518e-06	739.15	239.62	3.8231e-06	4.33e-06	350.22	154.64	92.739	50.833	9.5599e-06	90.001	0.00045368	0.00038775	0.00010725	589.29	4.7336e-06	4.2742e-06	717.75	235.65	4.6902e-06	4.1399e-06	335.79	148.35	90.812	48.427	4.2935e-06	84.456	196.031	242.369	137.628	65.095	245.840	249.915	64.815	70.941	213.116	59.241	69.583	74.500	76.560	80.478	204.083	77.554	-8191	255	
7942.286	1	1	0	0	0.22246	0.15826	0.050266	0.21859	0.076333	0.13018	0.054985	0.17878	0.040127	0.094927	0.19372	0.071677	0.1901	0.26353	0.17147	0.30063	-1.9708	-1.9292	-2.5896	-2.2062	-2.2333	-2.6792	-1.9646	-2.7	-2.2604	-2.1146	-2.9542	-2.0667	-2.1729	-2.7104	-2.0938	-2.6021	178.866	228.576	304.591	137.312	372.047	188.063	255.462	386.248	232.024	315.055	392.587	267.728	287.222	380.962	398.234	379.817	0.00063765	0.00035234	0.00028204	588.52	5.5005e-06	5.7974e-06	731.98	236.98	1.3446e-06	1.0231e-06	347.89	153.66	93.372	51.02	1.3003e-05	90.879	0.00042737	0.00036935	0.00011285	585.02	4.3927e-06	4.1374e-06	711.34	233.63	4.4258e-06	4.0051e-06	335.48	147.73	90.563	48.425	4.7175e-06	84.653	202.235	135.424	147.898	65.620	171.001	164.780	64.883	71.018	133.512	54.144	69.529	74.417	76.476	80.682	174.347	77.509	-8191	255	
7942.380	1	1	0	0	0.12233	0.23503	0.090897	0.17837	0.26131	0.056923	0.21187	0.30661	0.15337	0.026992	0.17584	0.085748	0.18249	0.26133	0.11731	0.14751	-1.9958	-2.0083	-2.5375	-2.2229	-2.0396	-2.7021	-1.9354	-2.5875	-2.3771	-1.8792	-2.8333	-2.3583	-2.1104	-2.7	-1.9792	-2.5187	297.913	69.678	112.414	55.209	265.724	383.821	340.884	371.179	65.670	326.096	319.204	394.009	72.047	82.773	99.393	354.888	0.00062878	0.0005036	0.00030657	586.48	3.8614e-06	2.6864e-06	731.38	236.92	3.4157e-06	3.1883e-06	348.45	154.33	93.307	51.403	8.709e-06	91.721	0.00040956	0.00036353	0.00012282	583.36	4.2801e-06	4.1472e-06	716.52	232.82	4.289e-06	4.0162e-06	337.9	148.18	90.313	48.907	5.0605e-06	85.513	196.720	124.168	69.850	65.408	225.515	170.531	64.664	71.288	56.862	237.524	69.545	74.502	76.508	80.686	123.428	77.247	-8191	255	
7942.476	1	1	0	0	0.14714	0.054335	0.12329	0.18381	0.072856	0.10151	0.17706	0.23793	0.16348	0.019248	0.3227	0.34513	0.071296	0.38088	0.12548	0.1294	-2.1708	-1.9375	-2.7271	-2.3979	-2.1437	-2.7333	-2.0354	-2.2208	-2.55	-1.8167	-2.4333	-2.4125	-2.0438	-2.7438	-1.9813	-2.3917	67.443	238.699	325.799	100.905	62.088	311.593	263.769	249.608	349.073	66.168	74.768	360.645	56.374	67.731	253.285	338.118	0.00063704	0.0005524	0.00024856	584.48	2.4798e-06	6.5501e-06	740.19	237.85	3.6118e-06	5.9188e-06	353.9	157.77	93.795	52.202	5.7161e-06	93.575	0.00040183	0.00038211	0.00012778	582.13	4.0517e-06	4.3256e-06	725.05	232.24	4.0477e-06	4.2407e-06	342.22	150.18	90.619	49.589	4.8447e-06	86.606	200.255	170.854	108.051	65.171	307.395	153.891	65.120	70.848	212.835	180.355	69.255	74.528	76.422	80.672	171.648	77.387	-8191	255	
7942.597	1	1	0	0	0.14992	0.32241	0.054626	0.18921	0.21325	0.18131	0.011236	0.3716	0.084111	0.10602	0.26811	0.19216	0.39542	0.10994	0.14314	0.057728	-2.0833	-1.7271	-2.3896	-2.375	-1.8104	-2.6625	-2.125	-2.35	-2.5229	-2.0125	-2.5521	-2.4917	-1.8479	-2.6708	-2.1562	-2.3688	355.005	104.738	139.516	328.693	92.725	161.623	367.999	362.236	320.984	159.710	380.935	172.678	309.288	382.467	242.661	352.991	0.00057961	0.00070603	0.00021482	594.25	2.3562e-06	2.0439e-07	746.31	239.34	5.6908e-06	7.5936e-06	354.93	156.92	94.146	51.352	6.3081e-06	92.28	0.0003723	0.0004018	0.00012093	583.31	3.7997e-06	4.539e-06	726.28	232.93	3.9412e-06	4.561e-06	340.5	149.35	90.602	49.46	4.5736e-06	85.691	208.004	165.077	324.516	65.481	262.007	161.609	64.977	70.980	181.804	237.619	69.358	74.381	76.658	80.475	292.407	77.288	-8191	255	
#DATA ENDS
