BOXY.EXE: ISS Imagent and Oximeter Data Acquisition Program Version 0.80
Ascii Record File

#ACQ INFORMATION
2  Detector Channels 
16  External MUX Channels 
1  Auxiliary Channels 
5000  Waveform (CCF) Frequency (Hz)
1  Waveforms Skipped 
30  Waveforms Averaged 
1  Cycles Averaged 
16  Acquisitions per Waveform 
10.0806  Updata Rate (Hz) 

#FILE INFORMATION
TRUE -- External MUX Channel results are PARSED.
FALSE -- AC DC and Phase are NOT grouped.
TRUE -- Companion Program Settings File CREATED.
FALSE -- AC data not excluded
FALSE -- DC data not excluded
FALSE -- Phase data not excluded
FALSE -- Auxillary Chn. data not excluded
Tab delimiters

#CALIBRATION STATE
TRUE -- Waveform Calibration Values APPLIED.


#AUX CALIBRATION VALUES
Val Type	aux-1	

Term	1.0000e+00	
Factor	0.0000e+00	


#WF CALIBRATION VALUES
A = Detector Channel
Val Type	A-AC1	A-AC2	A-AC3	A-AC4	A-AC5	A-AC6	A-AC7	A-AC8	A-AC9	A-AC10	A-AC11	A-AC12	A-AC13	A-AC14	A-AC15	A-AC16	A-DC1	A-DC2	A-DC3	A-DC4	A-DC5	A-DC6	A-DC7	A-DC8	A-DC9	A-DC10	A-DC11	A-DC12	A-DC13	A-DC14	A-DC15	A-DC16	A-Ph1	A-Ph2	A-Ph3	A-Ph4	A-Ph5	A-Ph6	A-Ph7	A-Ph8	A-Ph9	A-Ph10	A-Ph11	A-Ph12	A-Ph13	A-Ph14	A-Ph15	A-Ph16	

Term	0.00000e+00	0.00000e+00	0.00000e+00	0.00000e+00	0.00000e+00	0.00000e+00	0.00000e+00	0.00000e+00	0.00000e+00	0.00000e+00	0.00000e+00	0.00000e+00	0.00000e+00	0.00000e+00	0.00000e+00	0.00000e+00	0.00000e+00	0.00000e+00	0.00000e+00	0.00000e+00	0.00000e+00	0.00000e+00	0.00000e+00	0.00000e+00	0.00000e+00	0.00000e+00	0.00000e+00	0.00000e+00	0.00000e+00	0.00000e+00	0.00000e+00	0.00000e+00	0.00000e+00	0.00000e+00	0.00000e+00	0.00000e+00	0.00000e+00	0.00000e+00	0.00000e+00	0.00000e+00	0.00000e+00	0.00000e+00	0.00000e+00	0.00000e+00	0.00000e+00	0.00000e+00	0.00000e+00	0.00000e+00	
Factor	1.00000e+00	1.00000e+00	1.00000e+00	1.00000e+00	1.00000e+00	1.00000e+00	1.00000e+00	1.00000e+00	1.00000e+00	1.00000e+00	1.00000e+00	1.00000e+00	1.00000e+00	1.00000e+00	1.00000e+00	1.00000e+00	1.00000e+00	1.00000e+00	1.00000e+00	1.00000e+00	1.00000e+00	1.00000e+00	1.00000e+00	1.00000e+00	1.00000e+00	1.00000e+00	1.00000e+00	1.00000e+00	1.00000e+00	1.00000e+00	1.00000e+00	1.00000e+00	X	X	X	X	X	X	X	X	X	X	X	X	X	X	X	X	

B = Detector Channel
Val Type	B-AC1	B-AC2	B-AC3	B-AC4	B-AC5	B-AC6	B-AC7	B-AC8	B-AC9	B-AC10	B-AC11	B-AC12	B-AC13	B-AC14	B-AC15	B-AC16	B-DC1	B-DC2	B-DC3	B-DC4	B-DC5	B-DC6	B-DC7	B-DC8	B-DC9	B-DC10	B-DC11	B-DC12	B-DC13	B-DC14	B-DC15	B-DC16	B-Ph1	B-Ph2	B-Ph3	B-Ph4	B-Ph5	B-Ph6	B-Ph7	B-Ph8	B-Ph9	B-Ph10	B-Ph11	B-Ph12	B-Ph13	B-Ph14	B-Ph15	B-Ph16	

Term	0.00000e+00	0.00000e+00	0.00000e+00	0.00000e+00	0.00000e+00	0.00000e+00	0.00000e+00	0.00000e+00	0.00000e+00	0.00000e+00	0.00000e+00	0.00000e+00	0.00000e+00	0.00000e+00	0.00000e+00	0.00000e+00	0.00000e+00	0.00000e+00	0.00000e+00	0.00000e+00	0.00000e+00	0.00000e+00	0.00000e+00	0.00000e+00	0.00000e+00	0.00000e+00	0.00000e+00	0.00000e+00	0.00000e+00	0.00000e+00	0.00000e+00	0.00000e+00	2.30140e+01	-1.20181e+02	-1.19907e+02	-1.83653e+02	-6.30298e+01	-5.18358e+01	-1.58195e+02	-1.62015e+02	-5.19289e+01	-7.20987e+01	-1.70726e+02	-1.70915e+02	-1.78976e+02	-1.76655e+02	-6.37239e+01	-1.49757e+02	
Factor	5.08546e-05	1.47758e-04	3.78023e-05	1.55087e-01	1.88521e-06	1.77159e-06	1.71671e-01	5.62650e-02	2.22537e-06	1.53002e-06	9.34834e-02	3.14727e-02	2.91465e-02	9.72571e-03	2.02248e-06	1.39640e-02	4.02956e-06	4.41231e-06	1.22925e-06	7.62458e-02	4.73918e-08	4.85632e-08	7.91440e-02	2.76715e-02	4.75700e-08	4.85441e-08	4.45230e-02	1.49399e-02	1.44346e-02	4.81122e-03	4.80407e-08	6.69290e-03	X	X	X	X	X	X	X	X	X	X	X	X	X	X	X	X	



#DISTANCE SETTINGS
A = Detector Channel
A-1	A-2	A-3	A-4	A-5	A-6	A-7	A-8	A-9	A-10	A-11	A-12	A-13	A-14	A-15	A-16	

2.5000e+00	3.0000e+00	2.5000e+00	3.0000e+00	2.0000e+00	3.0000e+00	1.5000e+00	3.0000e+00	3.0000e+00	3.0000e+00	3.0000e+00	3.0000e+00	3.0000e+00	3.0000e+00	1.5000e+00	3.0000e+00	

B = Detector Channel
B-1	B-2	B-3	B-4	B-5	B-6	B-7	B-8	B-9	B-10	B-11	B-12	B-13	B-14	B-15	B-16	

1.0000e+01	1.0000e+01	1.0000e+01	1.4400e+00	1.0000e+01	1.0000e+01	1.5100e+00	1.9400e+00	1.0000e+01	1.0000e+01	1.9900e+00	2.4900e+00	2.4100e+00	2.9000e+00	1.0000e+01	2.9800e+00	




#DATA BEGINS
time	group	step	mark	flag	A-AC1	A-AC2	A-AC3	A-AC4	A-AC5	A-AC6	A-AC7	A-AC8	A-AC9	A-AC10	A-AC11	A-AC12	A-AC13	A-AC14	A-AC15	A-AC16	A-DC1	A-DC2	A-DC3	A-DC4	A-DC5	A-DC6	A-DC7	A-DC8	A-DC9	A-DC10	A-DC11	A-DC12	A-DC13	A-DC14	A-DC15	A-DC16	A-Ph1	A-Ph2	A-Ph3	A-Ph4	A-Ph5	A-Ph6	A-Ph7	A-Ph8	A-Ph9	A-Ph10	A-Ph11	A-Ph12	A-Ph13	A-Ph14	A-Ph15	A-Ph16	B-AC1	B-AC2	B-AC3	B-AC4	B-AC5	B-AC6	B-AC7	B-AC8	B-AC9	B-AC10	B-AC11	B-AC12	B-AC13	B-AC14	B-AC15	B-AC16	B-DC1	B-DC2	B-DC3	B-DC4	B-DC5	B-DC6	B-DC7	B-DC8	B-DC9	B-DC10	B-DC11	B-DC12	B-DC13	B-DC14	B-DC15	B-DC16	B-Ph1	B-Ph2	B-Ph3	B-Ph4	B-Ph5	B-Ph6	B-Ph7	B-Ph8	B-Ph9	B-Ph10	B-Ph11	B-Ph12	B-Ph13	B-Ph14	B-Ph15	B-Ph16	aux-1	digaux	

29827.994	1	1	0	512	0.065905	0.15187	0.069226	0.14101	0.21946	0.17294	0.075333	0.085275	0.072392	0.10963	0.11035	0.14423	0.21089	0.17506	0.18111	0.27043	-4.3979	-4.1312	-5.15	-4.6062	-4.2417	-4.8958	-4.2396	-4.7167	-4.9708	-4.0729	-5.1188	-4.5771	-4.3354	-5.1583	-4.3063	-4.6375	416.432	174.658	91.921	74.832	424.285	142.607	411.607	352.715	334.126	122.989	169.238	303.856	406.476	120.932	427.885	300.648	0.0028171	0.0012412	0.0002643	955.54	2.8591e-05	1.6028e-05	1042.4	374.05	6.5237e-06	1.9838e-05	471.21	187.73	137.76	56.046	3.9827e-06	87.872	0.0077467	0.0084413	0.0023432	1004.9	9.0891e-05	9.3877e-05	1087	388.79	9.2209e-05	9.466e-05	508.47	195.82	149.89	59.883	9.3326e-05	91.903	324.733	157.777	363.029	86.906	284.135	228.996	85.266	91.535	318.019	259.742	89.194	93.952	95.687	100.383	335.504	96.903	-8191	255	
29828.115	1	1	0	0	0.13278	0.12712	0.11546	0.25438	0.10118	0.17954	0.21589	0.20648	0.33487	0.24536	0.14462	0.1098	0.012862	0.27443	0.42035	0.20178	-4.5771	-4.0604	-5.0479	-4.7417	-4.2063	-5.0146	-4.2896	-4.5333	-4.9	-4.0167	-4.9542	-4.6771	-4.15	-5.1813	-4.2542	-4.5583	288.755	207.476	413.790	87.702	278.586	404.754	294.513	419.059	99.745	122.383	416.548	427.610	104.289	381.709	121.991	397.129	0.0024839	0.00082303	0.00032602	969.83	1.4824e-05	1.368e-05	1052.7	377.01	1.9421e-05	1.0034e-05	466.87	184.99	134.23	54.821	2.4252e-05	85.684	0.007892	0.0084188	0.0023296	1012.3	8.9744e-05	9.1601e-05	1089	389.18	8.932e-05	9.1807e-05	503.13	193.63	147.86	59.027	9.2949e-05	89.983	301.006	201.833	238.116	86.952	266.396	285.688	85.393	91.081	112.237	222.465	89.526	93.922	96.336	100.318	208.403	97.002	-8191	255	
29828.213	1	1	0	0	0.16594	0.10015	0.16266	0.18665	0.23258	0.094963	0.19065	0.4292	0.087101	0.028494	0.34034	0.24874	0.17335	0.17413	0.079652	0.076134	-4.5979	-4.0375	-4.7542	-4.6937	-4.0104	-5.0437	-4.3187	-4.4208	-5.0604	-4.0542	-4.9021	-4.7958	-4.1583	-5.1083	-4.2958	-4.3375	410.576	267.000	411.972	328.481	304.848	125.996	415.479	368.637	122.107	187.463	402.422	373.043	422.289	386.612	252.665	252.449	0.0018555	0.0011502	0.0001315	952.55	1.3204e-05	1.3166e-05	1027.9	366.27	3.5603e-05	1.1207e-05	459.29	181.36	133.17	54.462	1.8286e-05	84.32	0.0078578	0.0085442	0.0023554	996.95	8.9813e-05	9.2753e-05	1067.3	379.63	9.1062e-05	9.2661e-05	494.84	190.2	145.96	58.484	9.217e-05	89.31	304.064	127.841	232.569	86.612	150.885	333.987	85.551	91.067	273.255	204.122	89.429	93.681	96.165	99.985	399.614	96.750	-8191	255	
29828.309	1	1	0	0	0.25745	0.12571	0.17677	0.13275	0.10983	0.087051	0.19122	0.41158	0.044101	0.25938	0.15734	0.44555	0.14499	0.24103	0.14798	0.063323	-4.7479	-4.0646	-4.775	-4.9667	-4.0083	-5.0125	-4.5771	-4.4208	-4.8167	-3.9875	-4.6375	-4.8187	-4.0458	-4.9271	-4.5917	-4.1854	85.930	404.994	83.963	354.573	201.404	239.793	425.635	346.434	168.781	162.057	373.913	416.261	316.876	429.404	101.389	287.144	0.0023003	0.0020058	0.00061403	947.92	1.755e-05	1.0692e-05	1026.8	364.81	1.2541e-05	1.3237e-05	462.36	182.68	134.45	54.865	6.4876e-06	85.913	0.0079073	0.0085978	0.0023824	996.86	9.2451e-05	9.4789e-05	1070.2	381.66	9.2026e-05	9.4336e-05	499.45	192.07	147.31	58.953	9.2995e-05	90.292	297.928	157.490	237.751	86.426	194.009	137.878	85.651	91.439	139.240	273.610	88.969	93.501	95.489	100.484	131.138	97.026	-8191	255	
29828.430	1	1	0	0	0.22816	0.090226	0.24955	0.085828	0.034871	0.17133	0.065868	0.34203	0.057361	0.074067	0.35733	0.27303	0.19066	0.094575	0.12936	0.26926	-4.7333	-4.0437	-4.4167	-4.9729	-3.9604	-4.7479	-4.5917	-4.2104	-5.0604	-4.1292	-4.4688	-5.0104	-4	-4.8729	-4.5042	-4.1	268.026	102.097	96.826	169.624	279.933	93.903	309.539	354.426	311.598	390.563	365.226	315.591	427.714	341.479	174.260	328.326	0.0023998	0.00012732	0.00088494	956.38	9.3488e-06	2.5191e-05	1036.3	370.62	1.0213e-05	1.2061e-05	468.68	186.29	136.19	55.474	4.3538e-05	87.191	0.0079602	0.0086821	0.0023904	1002.3	9.3009e-05	9.4448e-05	1078.9	385.2	9.2096e-05	9.4405e-05	503.72	194.56	148.89	59.534	9.212e-05	91.275	314.669	371.707	145.369	86.491	261.636	206.697	85.422	91.747	366.917	216.441	89.116	93.953	95.663	100.142	141.483	96.757	-8191	255	
29828.500	1	1	0	0	0.11542	0.11809	0.16226	0.19569	0.19529	0.20771	0.28938	0.033787	0.17208	0.11345	0.17483	0.28759	0.15918	0.090001	0.20726	0.017794	-4.7083	-4.1583	-4.2625	-5.0687	-3.8625	-4.7167	-4.7458	-4.0417	-4.9917	-4.3125	-4.2937	-4.8688	-3.9958	-4.7292	-4.6813	-4.1042	397.652	209.469	391.487	392.103	275.843	344.335	419.942	247.560	229.454	410.799	318.349	386.421	229.856	376.807	387.573	200.760	0.0020394	0.0013841	0.00029943	964.75	4.0206e-05	2.22e-05	1052.3	376.67	3.6772e-05	1.1424e-05	473.61	186.62	135.47	55.79	2.3419e-05	87.372	0.0078599	0.0085312	0.0023788	1010.8	9.2569e-05	9.5154e-05	1093	390.96	9.3955e-05	9.6872e-05	511.7	196.76	150.24	60.358	9.8058e-05	92.268	301.149	252.235	183.859	86.656	309.181	247.115	85.549	91.369	156.896	118.808	89.144	93.689	95.768	100.165	192.801	96.762	-8191	255	
29828.596	1	1	0	0	0.058935	0.099011	0.11471	0.05428	0.14571	0.18235	0.21449	0.18964	0.061627	0.12328	0.056243	0.01445	0.047382	0.24611	0.17069	0.14774	-4.6521	-4.2458	-3.9729	-4.9667	-4.0542	-4.525	-4.825	-4.05	-4.8708	-4.3458	-4.2438	-4.9896	-4.1104	-4.4563	-4.875	-4.1083	372.125	187.189	405.034	81.528	140.321	223.117	342.965	84.036	237.321	104.699	350.301	432.712	359.607	376.719	117.254	137.781	0.00093765	0.0022546	0.00022934	952.52	1.9756e-05	8.7905e-06	1029.8	367.36	3.4247e-05	9.1815e-06	462.66	182.94	133.15	54.287	6.0734e-06	84.736	0.0083029	0.0090685	0.0025005	1012.6	9.6053e-05	9.8462e-05	1083.8	385.1	9.5551e-05	9.7143e-05	502.3	192.97	147.86	58.82	9.4725e-05	89.528	302.176	122.782	275.566	86.672	183.260	376.504	85.698	91.563	217.243	168.970	89.550	93.764	96.028	99.917	353.425	97.056	-8191	255	
29828.715	1	1	0	0	0.13927	0.30671	0.19143	0.13814	0.07433	0.12809	0.14483	0.16349	0.021904	0.069402	0.020146	0.23101	0.1969	0.032706	0.16607	0.13251	-4.5208	-4.4688	-4.0417	-5.0167	-4.1271	-4.3812	-4.9812	-4.1854	-4.7958	-4.6062	-4.0396	-5.1042	-4.2521	-4.3979	-4.8417	-4.0687	349.736	417.002	272.024	432.962	82.485	215.601	349.964	117.408	356.281	335.668	142.630	353.011	116.895	89.468	350.353	347.850	0.0023383	0.00066961	0.00067926	943.82	1.9836e-05	2.1115e-05	1011.6	362.16	3.2985e-05	2.6804e-05	452.51	179.5	130.52	53.928	1.229e-05	83.821	0.0080729	0.0087265	0.0024104	993.38	9.3354e-05	9.4443e-05	1061.4	378.82	9.2419e-05	9.4427e-05	490.95	189.03	144.83	58.15	9.4012e-05	88.819	311.914	171.623	336.842	86.532	347.754	339.332	85.532	91.479	213.184	153.932	89.347	93.798	95.929	99.833	179.476	97.099	-8191	255	
29828.811	1	1	0	0	0.32639	0.083622	0.16198	0.038822	0.14886	0.022384	0.22342	0.096835	0.1852	0.12672	0.21806	0.3124	0.3762	0.16576	0.25195	0.12993	-4.4167	-4.6396	-3.9646	-4.8604	-4.2792	-4.275	-5.0312	-3.9854	-4.5854	-4.7729	-4.0292	-4.9563	-4.3729	-4.1896	-4.875	-4.1146	278.319	430.179	98.854	355.893	258.991	353.222	372.809	83.942	220.661	222.459	139.164	365.751	97.021	376.812	405.646	290.313	0.001712	0.0030344	0.00070233	942.7	3.2041e-05	3.7643e-05	1018.9	362.76	9.2447e-06	1.6261e-05	454.87	179.64	131.94	54.29	1.1613e-05	84.929	0.0080132	0.0087145	0.0024075	993.6	9.2676e-05	9.5372e-05	1062	378.1	9.2465e-05	9.5253e-05	493.56	189.49	146.29	58.414	9.3756e-05	89.49	325.319	195.541	168.191	86.980	93.536	271.393	85.569	91.678	315.324	181.436	89.316	93.725	96.393	100.054	128.420	96.904	-8191	255	
29828.908	1	1	0	0	0.031891	0.067689	0.10241	0.12134	0.17475	0.034603	0.30365	0.12349	0.22999	0.23814	0.17744	0.13695	0.13221	0.11431	0.045944	0.09615	-4.2208	-4.8438	-3.8833	-5.0417	-4.3125	-4.2	-5.1229	-4.2104	-4.4333	-4.7875	-4.1125	-5.1	-4.6896	-4.3167	-4.9417	-4.2333	185.090	406.552	399.486	373.096	354.205	415.477	405.464	336.576	82.057	175.651	334.924	329.250	370.322	386.802	118.880	305.579	0.0015016	0.0014154	0.00074127	937.79	1.2476e-05	5.8367e-06	1020.6	362.08	1.8125e-05	2.1758e-05	454.52	180	132.33	54.714	9.9466e-06	85.491	0.0079692	0.008604	0.0024028	993.26	9.3291e-05	9.5278e-05	1068.9	379.89	9.3899e-05	9.7074e-05	496.67	190.73	147.15	59.085	9.6966e-05	90.395	343.876	171.994	227.281	86.737	427.446	250.231	85.543	91.335	282.558	100.697	89.291	94.001	96.197	100.051	229.660	96.764	-8191	255	
29829.004	1	1	0	0	0.17351	0.069859	0.17976	0.14609	0.069076	0.094987	0.13325	0.27564	0.12736	0.093795	0.28068	0.1165	0.1779	0.12303	0.040577	0.095843	-4.2083	-4.7729	-4.0104	-4.9458	-4.5583	-3.9854	-5.1062	-4.3875	-4.2917	-4.9125	-3.9688	-4.7292	-4.7208	-4.0458	-4.9604	-4.4583	81.496	415.997	162.776	377.886	412.173	238.335	133.735	415.814	161.433	136.467	386.695	114.340	405.864	371.560	184.125	392.788	0.0020491	0.0018038	0.00022442	945.59	3.6664e-05	1.868e-05	1011.3	365.98	2.168e-05	3.4544e-05	462.45	181.62	132.39	54.497	2.3761e-05	85.091	0.0082477	0.0089362	0.0024979	1001.2	9.6369e-05	9.8673e-05	1072	383.11	9.759e-05	0.00010055	503.68	193.5	148.63	59.533	0.00010191	90.943	321.237	103.160	266.046	86.527	230.701	369.211	85.751	91.351	224.263	273.574	89.189	93.947	96.133	99.688	383.836	97.269	-8191	255	
29829.100	1	1	0	0	0.080877	0.16888	0.078778	0.22241	0.079426	0.15203	0.26045	0.10609	0.18701	0.14246	0.079601	0.11078	0.17045	0.10111	0.069141	0.086114	-4.0021	-4.9375	-4.025	-4.6979	-4.7396	-3.9875	-4.9646	-4.6	-4.2958	-4.9583	-4.2292	-4.7083	-4.8583	-4.1458	-5.0333	-4.6312	335.137	226.725	79.705	377.340	219.958	329.043	393.766	330.827	193.941	412.145	414.593	287.660	74.098	391.121	379.822	428.564	0.0019578	0.0027929	0.00036465	946.92	2.1994e-05	1.1687e-05	1028.3	364.25	1.6399e-05	2.6036e-06	458.17	180.45	131.31	53.884	2.0442e-05	84.338	0.0085629	0.0093268	0.002585	1010.3	9.8334e-05	0.00010138	1079.9	383.45	9.6718e-05	9.8401e-05	498.97	190.98	146.1	58.303	9.4974e-05	89.073	335.550	363.048	295.508	86.467	208.390	240.085	85.453	91.525	209.335	92.882	89.498	93.831	96.181	100.077	207.527	96.896	-8191	255	
29829.195	1	1	0	0	0.068389	0.15352	0.12125	0.054709	0.15988	0.097495	0.23586	0.19196	0.10983	0.10204	0.18624	0.19954	0.083321	0.027403	0.090872	0.19218	-3.8104	-5.0979	-4.0104	-4.6667	-4.7708	-4.0687	-4.9146	-4.5771	-4.0375	-5.0188	-4.1854	-4.4583	-4.8708	-3.9479	-4.7958	-4.5375	99.834	369.023	207.455	275.084	167.176	165.162	307.395	420.026	92.551	258.320	326.456	404.519	304.406	208.219	342.401	424.265	0.0020749	0.00029287	0.00039026	956.61	9.3229e-06	3.5785e-05	1025.8	363.35	1.0664e-05	1.9686e-05	455.41	180.73	133.21	54.302	4.8147e-05	84.937	0.0080849	0.0086622	0.0024469	1001.8	9.3064e-05	9.5828e-05	1072.9	380.46	9.2101e-05	9.3566e-05	494.36	190.26	146	58.321	9.1301e-05	89.193	303.987	175.291	129.367	86.445	360.602	332.899	85.390	91.442	242.438	257.430	89.408	93.630	96.084	100.005	182.001	96.622	-8191	255	
29829.293	1	1	0	0	0.070216	0.075424	0.11929	0.22487	0.058646	0.1392	0.19483	0.23083	0.21981	0.14863	0.095338	0.11002	0.16837	0.16817	0.091766	0.23345	-3.7938	-4.7667	-4.2396	-4.6292	-4.8479	-4.0625	-4.9229	-4.7167	-3.95	-4.9896	-4.1896	-4.3187	-4.7562	-4.1562	-4.5583	-4.7188	256.363	260.014	78.471	374.900	210.086	163.750	347.029	349.993	281.136	103.415	321.497	408.258	349.369	133.413	197.927	428.997	0.0013304	0.0015906	0.00030298	951.63	2.335e-05	4.6294e-06	1032.4	368.89	2.8871e-05	2.7316e-05	458.09	181.4	134.01	54.64	1.4683e-05	85.775	0.007756	0.008462	0.0023468	1000.9	9.064e-05	9.2785e-05	1074.6	384.27	9.1185e-05	9.4324e-05	498.42	191.25	146.9	58.849	9.281e-05	90.258	324.908	195.019	340.626	86.299	205.818	330.368	85.806	91.585	221.178	316.117	89.661	94.144	96.080	100.124	193.143	96.822	-8191	255	
29829.389	1	1	0	0	0.16285	0.053388	0.16688	0.17207	0.13135	0.22415	0.28835	0.18185	0.088154	0.28882	0.1588	0.17521	0.11206	0.053216	0.15346	0.30923	-3.55	-4.9375	-4.3021	-4.4354	-4.9917	-4.0083	-4.5938	-4.8	-4.05	-4.8417	-4.3938	-4.1333	-4.9667	-4.1542	-4.3479	-5.0417	259.151	366.938	385.666	91.090	153.386	86.591	313.117	118.934	172.033	93.621	406.624	369.159	364.701	302.950	398.785	401.734	0.0013253	0.0015489	0.00067412	953.79	2.4257e-05	7.3688e-06	1038.5	373.07	6.6101e-06	2.0662e-05	465.92	184.59	134.68	55.434	5.1646e-06	87.207	0.0078742	0.0084922	0.0023705	1003.5	9.0802e-05	9.3532e-05	1083	386.44	9.1121e-05	9.3332e-05	502.22	193.53	148.26	59.233	9.3142e-05	91.309	314.382	408.625	186.445	86.507	169.212	292.350	85.428	91.579	314.671	188.487	89.519	93.801	95.898	100.407	295.795	97.257	-8191	255	
29829.508	1	1	0	0	0.087868	0.22477	0.16242	0.18367	0.21596	0.098893	0.14152	0.22	0.21492	0.065623	0.24463	0.15812	0.25072	0.079025	0.32843	0.066524	-3.7042	-4.9708	-4.3771	-4.0833	-4.8646	-4.0521	-4.5292	-5.0083	-3.9792	-4.8458	-4.6646	-4.0854	-4.9771	-4.2229	-4.4	-4.9313	169.555	276.932	382.081	413.430	259.283	353.694	326.687	406.595	412.877	94.889	399.096	396.030	385.666	115.969	81.166	305.605	0.0018481	0.0015461	0.00068827	962.6	1.1666e-05	8.269e-06	1048.1	373.4	1.2891e-05	2.3101e-05	472.46	186.17	135.96	55.519	5.1399e-06	87.604	0.0079513	0.0086412	0.0024125	1011.4	9.233e-05	9.4231e-05	1093.7	389.61	9.2304e-05	9.3668e-05	509.74	194.98	148.76	59.254	8.9683e-05	91.061	318.066	163.963	230.418	86.649	264.137	133.788	85.609	91.675	409.254	268.225	89.365	93.542	95.982	100.177	268.374	97.055	-8191	255	
29829.604	1	1	0	0	0.35133	0.067036	0.15079	0.082152	0.18668	0.010407	0.28393	0.13917	0.1526	0.20668	0.076283	0.08824	0.10673	0.19932	0.20917	0.10552	-3.6771	-4.6917	-4.5771	-4.2937	-4.8542	-4.2479	-4.3625	-4.9979	-3.8708	-4.5813	-4.8458	-4.1875	-5.0104	-4.2833	-4.35	-5.1146	298.668	415.079	411.975	366.142	411.919	231.875	397.556	311.179	331.579	417.840	407.309	328.301	108.992	84.602	265.399	361.004	0.0012776	0.0010741	0.00041269	964.72	2.4831e-05	1.0723e-05	1037.7	370.02	3.2857e-05	1.3411e-05	465.31	181.65	132.43	54.415	2.9249e-05	85.245	0.0075996	0.0082392	0.0023021	1005.8	8.8091e-05	9.1304e-05	1076.2	383.74	8.8128e-05	8.9573e-05	496.51	189.7	144.86	57.902	8.6766e-05	88.659	324.875	241.418	271.699	86.326	295.222	388.804	85.074	91.519	257.105	157.270	89.583	93.543	96.039	100.305	217.918	97.184	-8191	255	
29829.699	1	1	0	0	0.18414	0.11183	0.051455	0.37536	0.10336	0.088185	0.079036	0.24529	0.13518	0.12169	0.30769	0.21082	0.15578	0.2071	0.071548	0.15076	-3.6771	-4.5813	-4.7896	-4.0813	-5	-4.2229	-4.3479	-5.0375	-3.95	-4.4167	-4.9	-4.1354	-4.9375	-4.5729	-4.1687	-5.0896	278.402	271.339	326.756	93.814	272.904	379.984	157.575	388.730	325.119	239.938	416.080	413.502	354.830	370.697	107.780	310.296	0.0011773	0.0027733	0.00047959	950	2.3136e-05	6.3861e-06	1034.4	365.42	1.6428e-05	9.8432e-06	458.89	180.43	132.5	54.453	2.3164e-05	84.891	0.0073449	0.0078765	0.0022156	990.48	8.5661e-05	8.6993e-05	1058.6	377.97	8.5426e-05	8.7128e-05	489.58	187.53	144.1	57.787	8.7195e-05	88.485	324.414	179.535	131.683	86.533	235.367	154.423	85.451	91.539	296.625	195.680	89.372	93.632	95.885	100.239	332.744	96.721	-8191	255	
29829.797	1	1	0	0	0.22853	0.16163	0.23966	0.082182	0.19537	0.17612	0.25207	0.19674	0.14236	0.21634	0.089011	0.10655	0.24259	0.36663	0.23611	0.1514	-3.8979	-4.5417	-4.8688	-4.1042	-4.8208	-4.5938	-4.0521	-5.1146	-4.1188	-4.4	-4.9792	-3.9271	-4.8542	-4.7479	-4.1792	-5.2542	146.005	252.955	316.965	113.292	344.253	223.798	293.369	341.708	274.293	269.964	407.454	219.121	361.662	378.766	125.712	189.436	0.0019018	0.0019478	0.00038951	946.48	2.1513e-05	1.3382e-05	1020	365.61	1.4373e-05	2.676e-05	458.73	180.01	133.25	54.121	2.9403e-05	85.023	0.0074425	0.008052	0.0022416	988.02	8.6231e-05	8.8622e-05	1055.5	377.8	8.6964e-05	8.8284e-05	489.62	188.12	144.34	57.906	8.721e-05	89.056	317.066	110.760	124.918	86.494	111.371	288.286	85.389	91.604	161.682	296.918	89.395	93.956	96.348	100.231	428.635	97.032	-8191	255	
29829.893	1	1	0	0	0.059607	0.14102	0.069011	0.243	0.21279	0.14062	0.10868	0.26013	0.13426	0.16027	0.1685	0.18201	0.045274	0.0063987	0.074918	0.16183	-4.1208	-4.2917	-4.9292	-4.2771	-4.7083	-4.6333	-4.2	-5.1562	-4.425	-4.1896	-4.9646	-4.0604	-4.7771	-4.8125	-4.0021	-4.8833	156.873	139.471	410.959	420.927	119.280	430.951	262.233	432.290	298.582	127.818	346.721	233.368	287.219	183.888	166.975	334.815	0.0020375	0.0018409	0.00030547	946.15	1.2977e-05	2.5327e-05	1024	366.21	2.2743e-05	1.6806e-05	457.68	181.68	133.1	55.022	9.0518e-06	86.526	0.0074823	0.008105	0.0022793	990.91	8.8113e-05	9.0141e-05	1064.4	380.03	8.9413e-05	9.1626e-05	495.57	190.96	146.07	58.798	9.059e-05	90.326	324.700	149.256	175.361	86.895	92.413	222.643	85.298	91.601	197.748	242.428	89.380	93.772	95.893	100.483	258.313	96.729	-8191	255	
29829.988	1	1	0	0	0.18172	0.21054	0.23718	0.062617	0.12499	0.26793	0.063318	0.047292	0.13146	0.05059	0.11001	0.17553	0.075061	0.21103	0.054133	0.23868	-4.0333	-4.0833	-4.9313	-4.1	-4.5521	-4.7375	-3.8896	-5.0292	-4.4417	-3.9958	-4.975	-4.1667	-4.4875	-4.9729	-3.9229	-4.9313	126.607	285.205	103.892	368.201	399.325	395.054	421.431	109.230	93.850	200.864	139.532	402.959	404.215	83.982	268.872	291.576	0.0024049	0.0022314	0.00054786	955.45	1.7029e-05	2.6429e-05	1041.6	371.4	1.5488e-05	1.8957e-05	470.11	184.45	135.19	55.149	3.1608e-05	87.155	0.0077253	0.0083615	0.0023379	1001	9.0481e-05	9.2431e-05	1082.5	385.77	9.1279e-05	9.2608e-05	503.39	193.53	147.63	59.239	9.0136e-05	90.717	290.645	214.743	145.474	86.457	244.643	137.152	85.658	91.491	252.927	157.626	88.982	94.042	95.890	100.686	133.714	96.978	-8191	255	
29830.109	1	1	0	0	0.24391	0.026121	0.062748	0.13923	0.11111	0.077395	0.10975	0.060832	0.16884	0.054468	0.27061	0.19371	0.069954	0.070486	0.20567	0.35505	-4.0958	-3.9958	-4.9021	-4.2375	-4.3417	-4.8812	-4.05	-4.9292	-4.5771	-4.1292	-5.225	-4.3208	-4.6354	-4.9375	-3.8271	-4.9458	372.171	269.469	428.598	385.043	351.022	328.547	294.014	281.453	189.676	129.314	387.457	332.054	427.957	431.500	388.615	345.603	0.0021042	0.00071058	0.00035528	960.55	2.1461e-05	2.8975e-05	1034.5	370.14	1.6858e-05	1.6538e-05	458.4	182.23	132.7	54.953	1.5553e-05	85.587	0.0076501	0.0083012	0.0023039	1002.3	8.866e-05	9.0606e-05	1071.9	381.94	8.7475e-05	8.9429e-05	493.72	190.13	145.07	58.268	8.8056e-05	89.014	313.627	203.232	102.398	86.714	188.772	175.659	85.329	91.407	258.697	163.375	88.815	93.461	95.925	100.286	229.705	97.024	-8191	255	
29830.205	1	1	0	0	0.14137	0.13611	0.082137	0.22565	0.10739	0.11677	0.20449	0.083567	0.22313	0.029193	0.23625	0.1244	0.15235	0.051014	0.082854	0.26038	-4.2917	-4.0729	-5.0813	-4.2333	-4.2042	-4.8333	-4.0938	-4.6771	-4.5604	-3.8833	-4.8146	-4.3167	-4.3021	-5.1979	-3.8854	-4.7917	383.814	240.608	287.539	89.185	156.406	407.771	289.880	258.563	169.012	83.542	385.249	179.061	389.539	178.686	290.679	362.071	0.0013049	0.0021683	0.00031011	938.71	1.7086e-05	1.444e-05	1021.1	363.38	2.9279e-05	3.5686e-05	454.48	181.07	132.09	54.415	1.0599e-05	84.746	0.0074574	0.0080721	0.0022657	985.22	8.772e-05	9.0147e-05	1056	376.65	8.8558e-05	9.0029e-05	489.41	188.84	144.53	58.107	8.8453e-05	88.905	308.261	209.431	398.806	86.800	293.828	279.404	85.491	91.436	288.191	240.128	89.731	93.903	96.554	100.240	301.809	96.785	-8191	255	
29830.301	1	1	0	0	0.038908	0.021224	0.19208	0.20448	0.071778	0.17285	0.10503	0.092636	0.1024	0.11605	0.13548	0.10112	0.20853	0.14575	0.10819	0.15236	-4.4542	-4.0833	-4.8646	-4.5354	-4.0271	-5.0583	-4.2604	-4.5625	-4.7333	-3.9938	-4.9146	-4.6104	-4.2604	-5.1125	-4.2667	-4.5813	169.124	202.564	337.540	252.127	262.430	401.278	110.426	120.344	181.833	108.447	129.380	82.821	409.449	405.106	206.975	303.969	0.0015215	0.0021542	0.00024046	945.04	1.0645e-05	1.1859e-05	1025.6	367.73	1.5763e-05	2.4994e-05	461.07	182.37	133.18	54.795	2.6219e-05	86.033	0.0075229	0.0081629	0.0022708	989.94	8.7214e-05	8.9731e-05	1063.2	380.27	8.8159e-05	9.0026e-05	493.79	190.63	146.23	58.661	8.9581e-05	90.036	302.739	134.468	98.119	86.452	184.701	166.400	85.681	91.341	217.815	232.846	89.177	93.811	96.189	100.425	159.435	96.734	-8191	255	
29830.373	1	1	0	0	0.099431	0.072049	0.24345	0.10408	0.12967	0.12682	0.2212	0.10923	0.096409	0.063172	0.23444	0.15827	0.32585	0.19714	0.040976	0.14247	-4.6646	-4.0312	-4.8146	-4.7521	-4.0708	-4.825	-4.3688	-4.3313	-4.9458	-4.0479	-4.9646	-4.7167	-4.2292	-5.0625	-4.3125	-4.375	78.591	336.801	256.936	326.589	340.532	404.004	282.193	380.424	99.361	101.263	394.931	241.836	80.657	385.616	140.490	387.982	0.0017771	0.0011981	0.00020884	956.2	2.0473e-05	1.5881e-05	1036.6	368.5	1.4069e-05	3.0838e-06	461.94	185.08	134.11	55.777	3.5863e-05	87.507	0.0076606	0.0083209	0.0023312	1001.5	8.9453e-05	9.1739e-05	1074.8	381.93	8.9668e-05	9.1819e-05	498.65	192.85	147.47	59.378	9.1921e-05	91.399	318.858	207.364	233.725	86.409	279.967	350.624	85.592	91.439	403.918	187.582	88.889	93.972	95.962	100.065	261.959	96.503	-8191	255	
29830.490	1	1	0	0	0.32135	0.032754	0.082587	0.088851	0.020537	0.087797	0.31481	0.19495	0.04082	0.18299	0.25536	0.12794	0.21476	0.24499	0.072013	0.032205	-4.5938	-4.0646	-4.7896	-4.7375	-3.9646	-5.0292	-4.4792	-4.45	-5.0375	-4.1896	-4.6708	-4.7854	-4.2063	-5.0396	-4.4354	-4.375	315.040	255.414	169.657	392.103	99.059	410.237	359.585	342.902	206.756	231.862	365.310	332.669	132.729	85.250	201.632	281.885	0.0018948	0.0012782	0.00052279	958.94	1.5383e-05	1.9455e-05	1040.9	369.06	5.3548e-05	2.8417e-05	461.85	182.19	133.25	54.691	4.4291e-05	85.874	0.0079077	0.0085814	0.0024083	1008	9.2892e-05	9.5766e-05	1084.4	385.27	9.295e-05	9.5755e-05	501.82	192.68	146.91	58.924	9.3921e-05	90.412	311.715	384.057	129.890	86.912	117.618	273.584	85.265	91.446	329.652	158.504	89.270	93.837	96.320	100.513	212.048	96.739	-8191	255	
29830.588	1	1	0	0	0.033466	0.11879	0.018757	0.27394	0.18555	0.15994	0.15945	0.24002	0.21377	0.059958	0.12826	0.021634	0.11233	0.10476	0.14906	0.06623	-4.6667	-4.2333	-4.55	-5.0333	-3.8854	-4.9021	-4.6292	-4.1167	-5.0604	-4.3208	-4.6396	-4.9271	-4.0542	-4.8792	-4.525	-4.2104	190.007	298.559	202.503	347.164	310.220	124.749	79.750	379.453	350.030	392.070	351.171	243.259	345.745	377.672	411.756	113.111	0.0018232	0.00010727	0.00035803	941.97	8.8883e-06	1.1148e-05	1028	361.55	3.4297e-05	2.1628e-05	451.65	179.81	131.75	53.88	4.3599e-05	84.013	0.00794	0.0085967	0.002389	993.75	9.16e-05	9.4064e-05	1063.1	376.65	9.0477e-05	9.3e-05	488.39	188.32	144.04	57.791	9e-05	88.313	301.013	77.348	211.920	86.444	214.209	222.139	85.469	91.504	107.884	212.334	89.809	94.119	95.808	100.087	252.333	96.861	-8191	255	
29830.684	1	1	0	0	0.16375	0.21439	0.039853	0.15382	0.073931	0.060629	0.16793	0.046332	0.12955	0.19987	0.05867	0.28613	0.16576	0.21179	0.17748	0.055878	-4.7708	-4.2479	-4.3125	-4.8313	-3.7917	-4.875	-4.6167	-4.2375	-5.075	-4.2958	-4.3646	-4.8896	-3.9271	-4.8083	-4.8313	-4.2021	432.270	423.707	129.836	162.188	147.218	228.341	350.060	350.806	214.978	429.643	362.082	419.188	386.589	378.984	76.919	137.732	0.0017612	0.0015912	0.00026223	935.63	1.659e-05	2.1806e-05	1013.3	361.36	2.6499e-05	4.5602e-06	451.58	180.34	131.73	54.339	3.9222e-05	84.272	0.0076413	0.0082925	0.0022844	981.77	8.8401e-05	8.9826e-05	1053.8	374.77	8.8152e-05	8.9465e-05	485.8	188.17	143.93	57.878	8.9398e-05	88.772	313.493	347.284	326.434	86.451	367.446	296.139	85.746	91.420	98.027	79.999	89.116	93.670	95.881	100.303	204.070	97.166	-8191	255	
29830.779	1	1	0	0	0.17354	0.17208	0.29184	0.11702	0.10704	0.040707	0.18912	0.20741	0.19487	0.095812	0.27337	0.047655	0.13448	0.31473	0.18466	0.20431	-4.5938	-4.2	-4.3833	-5.0583	-4.1375	-4.775	-4.8417	-3.9792	-5.0312	-4.4917	-4.3396	-5.1333	-4.1708	-4.6354	-4.8812	-4.0729	143.878	239.341	236.849	411.239	238.880	325.018	425.844	397.976	417.643	276.500	405.178	81.565	411.814	388.682	280.054	390.056	0.001926	0.0016931	0.00034276	937.82	3.3337e-05	8.6538e-06	1012.5	362.12	1.0455e-05	4.168e-05	454.8	181.03	131.74	54.35	2.5634e-05	85.442	0.0076101	0.0082317	0.002311	983.43	8.8306e-05	9.0827e-05	1053.3	375.17	8.9127e-05	9.1055e-05	488.82	189.47	144.46	58.279	9.0619e-05	89.695	286.698	210.841	200.541	86.776	265.335	227.440	85.806	91.204	168.550	165.294	89.096	93.688	95.952	100.009	143.021	97.144	-8191	255	
29830.900	1	1	0	0	0.037674	0.076758	0.13872	0.090128	0.14223	0.18333	0.27078	0.15479	0.13277	0.093887	0.45123	0.33119	0.13431	0.091595	0.10884	0.093686	-4.5375	-4.3729	-4.2625	-5.0604	-4.25	-4.475	-5.0979	-4.1333	-4.75	-4.3729	-4.275	-5.2312	-4.0958	-4.5563	-4.8521	-4.2167	308.323	150.552	337.545	331.853	398.202	206.568	414.042	354.779	208.443	265.328	365.978	109.208	130.142	347.325	323.775	402.477	0.0010816	0.0011962	6.6103e-05	944.61	1.7644e-05	7.6694e-06	1027.3	364.14	2.7314e-05	9.8465e-06	459.72	184.26	133.73	55.244	4.8844e-06	87.315	0.0076848	0.0083425	0.0023196	987.57	8.9704e-05	9.2198e-05	1064.6	380.33	9.0509e-05	9.2976e-05	496.69	192.35	146.95	59.358	9.2506e-05	91.303	314.924	158.203	114.200	86.673	273.653	242.707	85.522	91.602	212.768	229.579	89.539	94.004	95.994	99.873	148.748	96.909	-8191	255	
29830.996	1	1	0	0	0.12624	0.010851	0.16025	0.084084	0.18411	0.15423	0.10841	0.14884	0.099433	0.17788	0.29753	0.27849	0.1877	0.12773	0.08781	0.091945	-4.5396	-4.4938	-4.1312	-4.9458	-4.275	-4.2479	-5.0917	-3.9688	-4.7083	-4.6	-4.0687	-5.0687	-4.3833	-4.2771	-4.9417	-4.0167	124.296	223.529	292.714	414.391	386.169	282.058	367.674	376.018	165.648	281.501	365.310	388.260	95.332	304.150	115.579	244.930	0.002364	0.00081418	0.00036381	952	1.0409e-05	1.9567e-05	1043	368.8	2.3563e-05	9.1883e-06	465.81	184.31	133.89	54.984	2.0001e-05	86.02	0.0079741	0.0086439	0.0023874	1004.1	9.2192e-05	9.3733e-05	1083.4	383.54	9.0329e-05	9.1828e-05	499.08	192.93	146.41	58.707	8.994e-05	90.135	312.809	161.756	268.088	86.364	344.938	412.205	85.602	91.351	168.988	297.463	89.476	93.921	96.062	100.220	214.632	96.743	-8191	255	
29831.068	1	1	0	0	0.1368	0.10674	0.051184	0.11203	0.19243	0.21539	0.25788	0.20248	0.12439	0.17271	0.19544	0.082315	0.17859	0.1862	0.26515	0.21925	-4.3458	-4.6417	-3.9271	-5.0521	-4.2312	-4.1771	-5.0563	-4.0104	-4.5125	-4.8792	-4.1125	-4.9708	-4.4187	-4.3625	-4.8604	-4.2729	373.570	360.286	229.520	104.613	274.295	204.368	385.343	336.917	249.865	209.988	402.658	422.297	387.641	151.545	192.481	349.364	0.0019763	0.0019677	0.00039104	946.96	2.8537e-05	1.6971e-05	1025.1	361.47	2.0778e-05	9.8335e-06	452.02	178.58	129.97	53.395	1.2811e-05	83.794	0.0077461	0.0083029	0.0023356	993.82	9.0273e-05	9.1629e-05	1062.4	375.62	9.0505e-05	9.1557e-05	486.25	187.8	143.53	57.545	9.1379e-05	88.125	319.140	136.813	422.288	86.684	315.195	177.431	85.450	91.586	113.241	74.877	88.985	93.552	96.281	100.546	305.816	96.791	-8191	255	
29831.189	1	1	0	0	0.046922	0.11567	0.07979	0.27681	0.1536	0.18542	0.22587	0.23391	0.17195	0.23022	0.14367	0.18329	0.29212	0.2473	0.23589	0.032947	-4.1667	-4.8104	-3.8604	-4.8938	-4.5646	-4.2021	-5.125	-4.3771	-4.4604	-4.9625	-4.0104	-4.8375	-4.7979	-4.0833	-4.9896	-4.3438	143.694	367.031	315.524	161.411	230.162	247.276	330.788	418.813	364.357	111.313	161.400	393.401	75.324	328.184	309.797	294.937	0.0016888	0.0011345	0.0004028	928.79	2.6313e-05	1.3804e-05	1006.2	357.71	1.3458e-05	1.8502e-05	450.79	178.95	130.82	54.231	2.2342e-05	84.129	0.0077637	0.0083748	0.0023364	978.79	8.9819e-05	9.1555e-05	1047.8	372.62	8.9186e-05	9.153e-05	485.36	187.39	143.39	57.811	9.0073e-05	88.681	316.231	202.766	203.059	86.520	263.725	298.003	85.670	91.549	419.893	140.714	89.336	93.488	95.835	99.934	186.644	96.967	-8191	255	
29831.285	1	1	0	0	0.11341	0.063179	0.1685	0.12634	0.40405	0.051653	0.191	0.051144	0.14557	0.17474	0.13328	0.17896	0.016772	0.14615	0.18879	0.19958	-3.9771	-4.9479	-3.9688	-4.7667	-4.5708	-4.0563	-5.1083	-4.3854	-4.1937	-4.8792	-4.2042	-4.7771	-4.9	-4.1021	-4.8646	-4.4625	273.310	385.809	100.389	392.873	431.068	228.140	378.307	357.776	407.199	392.008	306.896	390.795	322.450	73.999	129.022	214.475	0.0018145	0.0019378	0.0005441	936.71	3.097e-05	1.7377e-05	1017.5	362.41	2.9982e-05	1.2903e-05	452.2	181.03	132.23	54.31	2.1571e-05	85.52	0.0076853	0.0082909	0.0023093	986.29	8.8619e-05	9.056e-05	1058.1	375.92	8.9475e-05	9.0862e-05	488.87	189.19	144.62	57.95	9.0623e-05	89.466	336.167	124.392	182.572	86.544	223.314	242.266	85.704	91.635	276.500	139.385	89.259	93.805	96.264	100.143	225.435	96.874	-8191	255	
29831.381	1	1	0	0	0.048769	0.16239	0.19588	0.22536	0.06382	0.29268	0.03955	0.2075	0.16599	0.11095	0.11171	0.097022	0.068665	0.29941	0.1857	0.16651	-3.7333	-4.9458	-3.9437	-4.6208	-4.7708	-3.8708	-5.1167	-4.4563	-4.0646	-4.9062	-4.0979	-4.6042	-4.6562	-4.075	-4.9083	-4.7438	382.483	121.718	141.436	120.854	417.575	117.431	245.517	389.698	349.539	243.289	158.804	82.519	180.078	413.168	347.630	343.830	0.0021969	0.0024834	0.00044074	938.15	2.5936e-05	1.3068e-05	1022.2	361.19	1.41e-05	1.1034e-05	457.45	182.63	133.14	55.172	2.5571e-05	86.393	0.0076612	0.0083271	0.002317	988.58	8.9506e-05	9.1879e-05	1065.1	377.65	8.9972e-05	9.2393e-05	492.93	191.46	146.19	58.917	9.1888e-05	90.663	317.804	135.715	212.954	86.436	295.803	389.250	85.270	91.596	222.493	318.533	89.510	93.527	96.102	100.267	169.771	96.950	-8191	255	
29831.477	1	1	0	0	0.083526	0.11534	0.12554	0.21189	0.14416	0.029416	0.018822	0.21849	0.26708	0.19503	0.22915	0.20934	0.06652	0.35354	0.19219	0.243	-3.7542	-4.9833	-4.1792	-4.5375	-4.7562	-3.8917	-4.7771	-4.5938	-4.0521	-4.9771	-4.1	-4.4792	-4.8458	-3.9333	-4.7271	-4.8583	236.921	179.908	372.969	422.170	97.339	392.110	380.832	433.170	347.128	130.097	432.692	74.849	344.169	83.609	171.644	349.364	0.0027173	0.00071422	0.00035356	953.29	3.1944e-05	1.2273e-05	1041.5	367.66	3.4385e-06	1.9191e-05	459.87	184.3	131.95	54.894	2.3803e-05	85.996	0.0077986	0.0083951	0.0023573	998.84	8.9336e-05	9.1659e-05	1074.9	380.11	8.8119e-05	9.0486e-05	493.07	191.12	145.3	58.492	8.8943e-05	89.613	331.558	113.940	224.230	86.628	262.177	146.473	85.828	91.571	356.597	281.213	89.443	93.574	96.348	99.811	248.609	96.810	-8191	255	
29831.596	1	1	0	0	0.1137	0.2662	0.043494	0.28719	0.0492	0.32781	0.049932	0.21002	0.11444	0.10346	0.23887	0.11997	0.10701	0.12079	0.10317	0.11701	-3.7292	-4.925	-4.3708	-4.6229	-4.8917	-3.8875	-4.8313	-4.8604	-3.9729	-4.9396	-4.3562	-4.2479	-4.9604	-4.0375	-4.4625	-4.8313	209.173	80.991	412.800	411.580	311.439	223.912	336.307	412.452	114.124	129.514	364.308	395.452	163.056	354.710	386.668	313.944	0.0017756	0.0019003	0.00065004	946.24	3.3096e-05	1.8483e-05	1022.1	361.23	4.4417e-05	1.3695e-05	447.54	180.04	132.02	54.512	1.2871e-05	84.907	0.0074982	0.0080848	0.0022522	987.14	8.5858e-05	8.8104e-05	1055.2	372.99	8.4828e-05	8.6635e-05	481.53	187.08	142.92	57.633	8.6022e-05	88.332	302.788	194.943	115.651	86.309	229.241	248.340	85.595	91.196	263.224	285.922	88.606	93.982	96.124	100.072	147.310	97.019	-8191	255	
29831.668	1	1	0	0	0.12567	0.12987	0.13454	0.16049	0.15209	0.2113	0.099541	0.32757	0.13051	0.14898	0.1479	0.23964	0.17879	0.11819	0.11883	0.30716	-3.6458	-4.775	-4.2812	-4.2208	-4.9812	-4.1604	-4.6375	-4.8438	-3.9479	-4.8667	-4.4875	-4.2604	-5.1771	-4.0875	-4.3792	-4.9542	167.893	163.517	186.308	410.113	243.671	107.040	161.831	339.322	383.649	273.546	331.962	373.037	108.852	404.210	422.903	350.174	0.002346	0.0011607	0.00063222	939.8	6.8842e-06	4.258e-06	1018.7	358.62	3.3713e-05	6.0846e-06	450.41	180.12	131.04	54.359	1.5315e-05	85.684	0.0073309	0.007931	0.0022216	982.41	8.5413e-05	8.825e-05	1053.5	371.66	8.6804e-05	8.9283e-05	484.24	187.77	143.71	57.902	8.7867e-05	89.197	311.346	225.546	139.743	86.181	250.280	309.910	85.293	91.710	157.431	194.631	89.082	93.542	96.218	100.451	323.412	97.075	-8191	255	
29831.789	1	1	0	0	0.1165	0.23143	0.12227	0.19882	0.23153	0.15668	0.26353	0.1882	0.046193	0.22232	0.20891	0.35156	0.28544	0.096754	0.051382	0.11524	-3.5771	-4.8146	-4.5521	-4.0125	-5.0667	-4.2604	-4.5062	-4.9583	-4.0583	-4.7021	-4.6813	-4.2292	-5.1312	-4.0792	-4.3667	-4.9667	321.860	144.573	412.350	393.818	196.113	111.227	398.170	376.289	112.086	83.563	85.456	398.600	106.101	399.207	223.942	337.100	0.0018307	0.00051041	0.00056033	939.38	2.7762e-05	2.1628e-05	1017.4	362.27	3.9977e-05	2.0487e-05	453.4	181.9	132.4	55.334	1.7341e-05	86.515	0.0074955	0.0080827	0.0022539	981.61	8.6364e-05	8.9047e-05	1055.4	375.03	8.6796e-05	8.9268e-05	487.5	189.46	144.47	58.57	8.7887e-05	89.945	305.839	233.396	177.749	86.622	102.607	97.601	85.427	91.454	196.773	254.614	89.433	93.710	96.075	100.340	316.836	96.918	-8191	255	
29831.885	1	1	0	0	0.2527	0.23743	0.18453	0.043435	0.2826	0.11223	0.23755	0.1945	0.039759	0.15004	0.37468	0.17026	0.093742	0.28109	0.12955	0.15394	-3.6312	-4.6396	-4.6896	-3.8854	-5.0792	-4.3104	-4.3438	-4.9979	-4.0333	-4.5437	-4.9146	-4.0292	-4.8979	-4.375	-4.0625	-5.0958	374.680	222.126	398.808	137.909	412.708	416.903	401.415	402.920	377.784	168.674	77.674	431.292	379.991	90.635	101.079	384.315	0.0024784	0.001143	0.00050661	952.51	1.3108e-05	4.1988e-05	1035.9	366.67	2.2312e-05	3.2011e-05	463.71	184.87	133.52	55.512	3.288e-05	87.661	0.0074682	0.0080621	0.0022606	990.44	8.6714e-05	8.8783e-05	1066.3	379.04	8.7234e-05	8.8556e-05	494.04	192.07	146.05	59.127	8.8273e-05	91.159	315.548	356.685	106.564	86.476	262.650	249.017	85.903	91.325	296.604	218.109	89.085	93.826	95.996	100.427	258.731	97.048	-8191	255	
29831.980	1	1	0	0	0.029524	0.21839	0.11613	0.3174	0.056171	0.10392	0.30589	0.21869	0.058312	0.28262	0.048028	0.025149	0.017115	0.08597	0.095334	0.19893	-3.6792	-4.3812	-4.7667	-3.9875	-4.7208	-4.4667	-4.2479	-5.125	-4.0875	-4.4896	-4.9208	-4.1833	-4.8875	-4.7375	-3.9167	-5.1	174.812	97.402	244.409	371.298	275.944	151.967	394.053	391.894	309.467	226.687	226.880	121.903	116.450	320.409	367.717	374.874	0.0014915	0.00039448	0.00023805	955.87	1.2454e-05	2.6224e-05	1034.8	366.51	2.574e-05	1.7026e-05	457.16	181.75	132.03	54.66	2.443e-05	85.536	0.0075859	0.0080405	0.0022565	992.83	8.6213e-05	8.8729e-05	1068.5	377.49	8.6462e-05	8.8077e-05	488.89	189.93	143.95	57.907	8.5467e-05	89.016	321.232	396.626	247.241	86.517	345.565	128.932	85.411	91.701	269.062	178.113	89.381	93.670	96.156	100.465	160.059	96.945	-8191	255	
29832.076	1	1	0	0	0.1514	0.17322	0.21799	0.17683	0.096244	0.27305	0.11603	0.081692	0.10761	0.17064	0.13693	0.030444	0.21053	0.17029	0.10906	0.13742	-3.9458	-4.2688	-4.9396	-4.0917	-4.8354	-4.575	-4.1021	-5.1042	-4.2146	-4.1542	-4.95	-4.1125	-4.9979	-4.6958	-4.0271	-5.0917	107.643	409.276	89.344	416.897	292.411	239.969	420.367	206.457	169.208	185.577	366.929	132.184	398.412	358.194	226.359	341.360	0.0016678	0.0014927	0.00014073	931.04	2.9773e-05	1.9481e-05	1013.6	357.62	1.9068e-05	3.7518e-06	447.15	178.15	129.89	53.87	6.6863e-06	84.359	0.0073011	0.0079082	0.0021818	974.31	8.3869e-05	8.6612e-05	1042.3	369.87	8.4057e-05	8.5813e-05	478.58	185.11	141.72	57.022	8.4227e-05	87.771	298.289	391.177	238.852	86.551	356.078	317.728	85.473	91.082	127.659	415.227	89.359	93.725	95.998	100.486	153.799	96.957	-8191	255	
29832.197	1	1	0	0	0.19414	0.12839	0.12765	0.3554	0.11167	0.078949	0.23453	0.072939	0.18208	0.28539	0.064393	0.24725	0.048711	0.22177	0.13618	0.15699	-3.925	-4.1687	-4.9625	-4.1333	-4.5104	-4.6312	-4.1521	-4.8979	-4.3417	-4.1542	-4.9104	-4.2438	-4.6646	-5.0188	-3.8583	-4.9083	154.633	324.064	297.740	374.021	415.459	347.919	293.470	309.694	391.866	203.058	105.135	387.917	387.686	411.744	223.977	226.747	0.0023364	0.0013043	0.00052077	945.18	2.5066e-05	1.2596e-05	1013.2	358.75	1.008e-05	3.0118e-05	450.55	178.33	130.02	53.664	1.86e-05	84.501	0.0071917	0.0076653	0.002146	975.05	8.2979e-05	8.5551e-05	1044.8	369.39	8.3906e-05	8.5575e-05	481.28	186.27	142.24	57.31	8.6635e-05	88.047	323.851	234.525	182.604	86.601	160.614	273.768	85.607	91.428	156.142	280.398	89.441	94.147	96.154	100.441	315.047	96.885	-8191	255	
29832.270	1	1	0	0	0.26741	0.11653	0.18136	0.2143	0.2576	0.27759	0.18865	0.20132	0.13689	0.14401	0.30715	0.17626	0.17038	0.15261	0.067199	0.31806	-4.0875	-3.9479	-4.9812	-4.3604	-4.3958	-4.8646	-4.1771	-4.7833	-4.4062	-4.075	-4.9313	-4.225	-4.5042	-5.0813	-4.0417	-5.0188	160.973	300.553	299.311	318.503	207.441	429.774	408.350	359.751	430.576	377.613	381.841	341.202	339.746	401.731	99.467	364.671	0.0019272	0.00090583	0.00033618	937.96	2.8776e-05	1.6987e-05	1017.7	359.8	8.3534e-06	1.015e-05	449.95	181.1	131.01	54.834	9.8539e-06	85.69	0.0074187	0.0079699	0.0022441	979.21	8.6204e-05	8.8882e-05	1051.1	372.03	8.6662e-05	8.8707e-05	484.14	188.6	143.94	58.247	8.7615e-05	89.585	318.261	241.302	168.975	86.513	260.925	194.500	85.288	91.555	219.239	355.608	89.145	93.723	95.910	100.319	376.608	96.796	-8191	255	
29832.365	1	1	0	0	0.22228	0.090344	0.087534	0.25532	0.11603	0.09744	0.28441	0.12411	0.19868	0.029153	0.10683	0.38255	0.069689	0.26234	0.08085	0.047038	-4.2396	-3.9771	-5.0792	-4.3375	-4.2625	-4.8708	-4.2146	-4.7146	-4.5687	-3.8667	-5.2229	-4.3	-4.3667	-4.8688	-3.8417	-4.7625	426.498	287.583	178.060	378.493	177.944	288.718	277.352	277.516	98.324	277.143	319.286	417.752	76.279	429.586	365.944	389.963	0.0021852	0.0011432	0.00036498	944.55	1.6231e-05	2.7914e-05	1032.7	364.09	4.5135e-05	1.0906e-05	458.45	182.94	133.23	55.487	1.553e-05	87.5	0.0074629	0.0080741	0.0022706	988.23	8.6883e-05	8.8692e-05	1069.1	377.72	8.7123e-05	8.9305e-05	493.23	191.9	145.61	58.985	8.9262e-05	90.941	301.324	267.607	169.422	86.240	243.227	180.632	85.419	91.388	202.822	405.015	88.776	93.822	96.170	100.233	216.146	96.909	-8191	255	
29832.463	1	1	0	0	0.1004	0.23556	0.077665	0.046815	0.17233	0.13879	0.18129	0.15351	0.23198	0.15899	0.21207	0.069639	0.030014	0.26409	0.27476	0.30035	-4.3417	-3.9833	-4.7646	-4.4979	-4.0687	-5.0042	-4.1271	-4.6417	-4.7125	-3.95	-4.9458	-4.5062	-4.1583	-5.1146	-4.1792	-4.6312	367.609	199.739	340.327	116.726	137.433	327.149	425.153	376.051	147.589	150.246	412.789	402.811	252.855	367.762	404.041	354.442	0.0010666	0.0013189	0.00051089	957.81	1.3364e-05	2.7999e-05	1032.9	363.85	8.7416e-06	1.0277e-05	454.21	181.92	131.51	54.575	2.8471e-05	85.391	0.0075474	0.0080922	0.0022456	991.88	8.6453e-05	8.8517e-05	1064.7	375.03	8.5986e-05	8.8028e-05	487.42	189.58	143.43	57.915	8.6575e-05	88.831	326.418	168.462	222.235	86.506	244.116	262.471	85.489	91.176	184.093	387.260	89.144	93.828	96.118	100.115	184.558	96.989	-8191	255	
29832.580	1	1	0	0	0.22843	0.1622	0.22044	0.17009	0.017415	0.087651	0.316	0.35998	0.13754	0.099317	0.16843	0.060883	0.18939	0.17808	0.10426	0.1021	-4.4479	-3.9813	-4.7708	-4.6312	-4.0146	-4.975	-4.3333	-4.5396	-4.8208	-3.9104	-4.7792	-4.7021	-4.1375	-5.1292	-4.2542	-4.3479	386.362	310.146	128.212	392.135	331.047	423.700	320.485	369.536	220.437	359.315	427.931	286.956	349.159	384.207	149.062	317.152	0.002024	0.0014866	0.00061622	934.78	1.4261e-05	5.194e-06	1010.2	357.65	1.5417e-05	1.0515e-05	447.56	178.29	129.61	53.949	2.713e-05	84.206	0.0073169	0.0079172	0.0022004	976.1	8.448e-05	8.6552e-05	1046	369.06	8.4712e-05	8.7264e-05	480.42	186.5	141.7	57.41	8.5482e-05	87.983	325.222	229.762	282.943	86.735	248.523	417.631	85.593	91.136	180.457	277.928	89.394	93.824	95.988	100.001	155.079	96.771	-8191	255	
29832.678	1	1	0	0	0.21658	0.19526	0.09413	0.23007	0.078859	0.067534	0.18134	0.26434	0.19368	0.16882	0.086625	0.13073	0.12758	0.16337	0.1531	0.29887	-4.6104	-3.9562	-4.6042	-4.7625	-3.975	-4.8729	-4.2979	-4.2167	-4.8354	-4.0813	-4.6708	-4.7521	-4.0312	-4.9354	-4.3938	-4.3104	75.558	200.551	262.054	403.545	133.146	184.585	111.768	259.656	258.840	236.827	433.398	203.933	402.886	422.023	369.771	427.970	0.0021444	0.0024079	0.0001325	932.51	2.0079e-05	1.1327e-05	1016.4	357.59	1.0302e-05	1.9021e-05	448.25	181.19	131.35	54.304	1.6609e-05	85.634	0.0072503	0.0078817	0.002183	974.73	8.4046e-05	8.5993e-05	1048.2	369.79	8.3983e-05	8.5333e-05	480.73	187.32	142.43	57.719	8.5025e-05	88.633	328.527	138.485	380.023	86.511	166.246	251.005	85.786	91.627	121.206	291.584	89.521	93.976	96.310	100.481	271.145	96.729	-8191	255	
29832.773	1	1	0	0	0.027717	0.1531	0.034807	0.17629	0.25203	0.14273	0.069808	0.17502	0.10904	0.10992	0.12379	0.079047	0.067833	0.23206	0.14741	0.091034	-4.7125	-4.0167	-4.5396	-4.8583	-3.8833	-4.8146	-4.3313	-4.1854	-4.8313	-3.9521	-4.6062	-4.9792	-4.0521	-4.7937	-4.4437	-4.3479	315.364	212.756	403.580	407.119	103.309	209.431	325.062	312.416	272.251	139.938	352.975	396.230	79.950	289.622	142.761	364.746	0.0021168	0.0012543	0.00039631	942.07	3.2379e-05	1.8007e-05	1022.5	359.86	1.6233e-05	2.1663e-05	454.74	181.21	133.34	54.768	9.9449e-06	86.414	0.0072857	0.0078933	0.0021813	984.56	8.4329e-05	8.6794e-05	1058	371.62	8.4937e-05	8.7283e-05	485.66	188.71	144.15	58.422	8.5873e-05	89.715	305.001	144.818	153.251	86.607	324.045	229.956	85.328	91.395	119.071	165.784	89.096	93.996	96.349	100.340	280.027	96.588	-8191	255	
29832.869	1	1	0	0	0.094277	0.08538	0.17165	0.14641	0.32317	0.072097	0.20387	0.14836	0.10277	0.23923	0.13975	0.19796	0.056552	0.0060852	0.10947	0.18858	-4.5333	-3.9979	-4.3917	-4.8104	-3.8333	-4.9125	-4.7167	-4.3396	-4.7625	-4.0229	-4.4729	-4.8854	-3.9437	-4.8333	-4.5417	-4.0875	140.521	266.818	290.034	388.394	222.342	215.546	405.080	88.497	397.167	252.290	415.273	77.791	328.595	328.196	85.984	354.418	0.0024375	0.0002338	0.0004526	949.05	1.9702e-05	2.4814e-05	1024.9	360.72	3.8886e-05	1.0692e-05	459.71	183.61	133.32	55.342	5.34e-06	86.857	0.0073382	0.0080257	0.0022338	989.79	8.5866e-05	8.8385e-05	1063.4	374.68	8.6723e-05	8.876e-05	491.03	191.79	145.4	58.771	8.6085e-05	90.163	316.207	431.488	166.100	86.890	269.255	339.208	85.464	91.822	231.651	304.651	89.331	94.025	96.154	99.969	304.638	97.034	-8191	255	
29832.965	1	1	0	0	0.060884	0.30467	0.071353	0.11214	0.15884	0.07987	0.15615	0.1347	0.042534	0.020624	0.059877	0.15781	0.1199	0.20365	0.044944	0.25853	-4.7208	-4.15	-4.1458	-5.0083	-3.9437	-4.5792	-4.7458	-4.2083	-4.8771	-4.1687	-4.1708	-4.9042	-4.0625	-4.6562	-4.6521	-4.0604	174.790	367.560	399.764	391.561	363.631	196.207	416.242	349.071	285.075	266.836	188.151	361.754	403.760	294.946	269.344	342.874	0.0021271	0.001214	0.00047173	956.44	1.427e-05	9.4062e-06	1024.8	361.31	3.9149e-06	4.1758e-05	450.77	181	130.98	54.559	1.9819e-05	85.177	0.0073338	0.0078759	0.0021832	987.83	8.4294e-05	8.6695e-05	1059.4	372.24	8.4737e-05	8.6342e-05	482.23	187.68	142.68	57.597	8.4509e-05	88.236	306.877	116.150	302.563	86.802	195.234	325.723	85.555	91.655	205.935	137.224	89.087	94.016	95.678	100.208	300.296	96.779	-8191	255	
29833.061	1	1	0	0	0.16156	0.23715	0.074117	0.23683	0.24892	0.15927	0.068583	0.32466	0.069884	0.052554	0.12206	0.057603	0.099711	0.19755	0.026559	0.13175	-4.6333	-4.4437	-4.2104	-5.1146	-4.05	-4.5542	-4.925	-4.1604	-4.9771	-4.5167	-4.2896	-4.9875	-4.0229	-4.55	-4.8208	-4.0521	359.747	362.992	197.613	78.749	410.466	179.149	370.194	394.062	370.282	236.634	308.382	92.337	168.472	423.554	75.228	340.721	0.0020472	0.0017964	0.00023235	936.35	1.8231e-05	1.5748e-05	1012.7	351.95	1.0444e-05	1.6622e-05	443.04	178.38	130.3	54.283	7.8309e-06	84.566	0.0071584	0.007744	0.002168	971.64	8.3311e-05	8.5053e-05	1040	365.33	8.2998e-05	8.4803e-05	475.33	185.12	141.76	57.134	8.3642e-05	87.491	321.754	162.286	425.746	86.849	83.829	284.567	85.591	91.354	286.753	295.674	89.253	93.388	96.124	99.775	411.634	96.802	-8191	255	
29833.156	1	1	0	0	0.1774	0.13736	0.1173	0.19942	0.055494	0.20632	0.14689	0.35738	0.24558	0.028526	0.11229	0.074291	0.16221	0.17508	0.097763	0.2736	-4.4208	-4.5604	-4.0667	-5.0875	-4.0958	-4.5229	-5.0271	-4.2167	-4.6042	-4.5813	-4.1396	-4.9479	-4.2708	-4.2896	-4.8896	-4.0354	87.597	318.738	347.371	98.902	105.077	187.777	374.134	330.222	296.264	428.132	216.938	97.078	364.376	375.248	397.344	355.775	0.0019634	0.0013427	0.00047242	937.14	3.9781e-06	2.5477e-05	1008.5	354.19	2.1169e-05	1.9943e-05	442.51	179.64	129.93	54.011	5.2812e-05	84.449	0.0071322	0.0077262	0.0021583	972.69	8.4071e-05	8.6537e-05	1044	366.36	8.4592e-05	8.6724e-05	478.19	186.84	142.29	57.542	8.74e-05	88.407	306.564	129.914	96.316	86.247	154.132	338.141	85.777	91.309	287.919	177.610	89.123	93.830	96.331	100.285	214.086	96.545	-8191	255	
29833.275	1	1	0	0	0.24292	0.12001	0.14741	0.18402	0.084986	0.10516	0.15424	0.10484	0.039856	0.03058	0.13758	0.037322	0.01217	0.094078	0.059489	0.16556	-4.425	-4.7354	-3.8729	-4.9688	-4.3562	-4.1396	-5.1917	-4.2542	-4.6271	-4.8146	-4.1146	-4.9896	-4.6	-4.4625	-5.0708	-4.1792	287.427	249.686	219.918	404.713	119.992	98.498	398.051	302.931	157.962	161.767	226.333	391.515	209.267	396.006	160.802	429.114	0.0014856	0.0019995	0.00086338	934.83	2.045e-05	1.2204e-05	1010.7	355.92	1.7543e-05	1.8392e-05	447.53	179.29	129.78	54.212	9.3185e-06	85.769	0.0074329	0.0081136	0.0022738	978.77	8.7581e-05	8.9981e-05	1054.1	370.35	8.8545e-05	9.0442e-05	485.93	188.55	143.92	57.979	9.0008e-05	89.615	329.541	196.924	164.437	86.752	218.776	117.501	85.322	91.540	282.259	171.243	89.414	93.778	96.168	100.165	192.410	96.955	-8191	255	
29833.371	1	1	0	0	0.13087	0.067853	0.26619	0.21273	0.1908	0.043223	0.087581	0.15933	0.23328	0.023355	0.31626	0.41482	0.28362	0.19021	0.18856	0.25522	-4.1979	-4.7958	-3.8667	-4.9875	-4.4896	-4.1542	-5.1292	-4.2521	-4.4708	-4.9146	-4.0167	-5	-4.5667	-4.1708	-4.7229	-4.3375	171.859	129.203	236.405	322.911	368.848	426.866	389.492	385.556	256.970	302.279	395.344	378.913	96.513	416.007	73.814	119.600	0.0017205	0.00052267	0.00013627	954.03	3.3995e-06	2.0056e-05	1032.4	361.59	3.4406e-05	7.724e-06	456.12	184.55	133.57	54.878	3.0889e-05	86.592	0.0075877	0.0082285	0.0022876	994.78	8.7954e-05	9.0452e-05	1070.1	376.23	8.8153e-05	8.9519e-05	491.08	191.62	145.31	58.405	8.7538e-05	89.877	323.325	341.683	264.719	86.539	97.126	383.652	85.808	91.485	328.308	382.651	89.464	93.699	95.968	100.496	191.787	97.003	-8191	255	
29833.469	1	1	0	0	0.17788	0.26182	0.12382	0.25551	0.21032	0.083997	0.18805	0.19855	0.11783	0.20514	0.21734	0.16531	0.21147	0.25356	0.14897	0.23602	-3.9792	-4.8688	-4.0687	-4.9938	-4.5437	-4.0938	-5.0167	-4.2312	-4.4417	-4.7875	-4.1917	-4.9021	-4.7021	-4.2542	-5.0021	-4.525	291.327	93.181	348.807	414.274	426.837	94.794	344.283	353.644	168.145	125.642	343.038	356.644	76.021	106.969	317.337	410.563	0.001492	0.00084939	0.00015611	950.87	2.2709e-05	1.1395e-05	1020.5	356.71	4.152e-05	3.4912e-05	445.94	180.34	131.03	54.007	3.4129e-05	84.321	0.0074024	0.0080433	0.0022449	988.11	8.6615e-05	8.8172e-05	1057.9	370.41	8.6475e-05	8.8148e-05	480.95	187.45	142.2	57.176	8.5397e-05	87.639	307.664	307.248	328.549	86.532	264.250	290.924	85.402	91.455	303.054	221.871	89.049	93.498	96.013	100.202	204.990	97.047	-8191	255	
29833.564	1	1	0	0	0.15524	0.10178	0.068389	0.099924	0.21447	0.071411	0.19456	0.17428	0.11798	0.25659	0.26102	0.055797	0.1159	0.14383	0.091284	0.13354	-4.1042	-4.9437	-4.0771	-4.7833	-4.7042	-3.9896	-5.0125	-4.3771	-4.0687	-4.8417	-4.2833	-4.7604	-4.8562	-4.1062	-4.8542	-4.4729	175.696	114.896	402.780	153.909	113.289	234.209	337.438	372.431	142.667	95.552	291.582	90.340	260.669	398.889	371.952	315.088	0.002029	0.0010267	0.00037247	936.09	1.4149e-05	5.2211e-05	1019.2	352.62	1.3872e-05	6.6831e-06	440.86	177.93	129.73	53.449	2.4097e-05	84.408	0.0072079	0.0078055	0.0021791	977.3	8.403e-05	8.7007e-05	1045	365.83	8.4869e-05	8.7222e-05	475.2	184.75	141.39	56.842	8.3531e-05	87.504	327.021	239.297	333.747	86.724	302.440	297.982	85.504	91.720	271.575	165.020	89.274	93.535	96.194	99.848	238.364	96.905	-8191	255	
29833.660	1	1	0	0	0.24577	0.070646	0.087805	0.20105	0.197	0.033794	0.38602	0.15118	0.18538	0.075632	0.23136	0.23931	0.33657	0.22224	0.16282	0.24426	-3.7875	-4.8521	-3.8917	-4.7604	-4.6771	-3.9042	-4.9187	-4.4167	-4.1	-5.0021	-4.1521	-4.525	-5.0521	-4.1937	-4.8125	-4.7625	283.890	307.801	94.377	384.239	234.808	379.436	365.454	420.859	202.947	368.208	382.608	88.600	372.416	340.631	167.196	327.285	0.001466	0.00052919	0.00032694	933.18	2.9671e-05	1.5732e-05	1012.4	354.09	1.3929e-05	2.2274e-05	446.14	179.23	130.3	53.711	1.2888e-05	85.216	0.0071134	0.0076695	0.002135	968.51	8.1737e-05	8.3376e-05	1038.8	363.22	8.194e-05	8.3962e-05	474.16	185.22	141.5	57.306	8.2755e-05	88.057	321.599	383.754	119.558	86.498	227.721	197.489	85.343	91.422	214.291	344.986	89.421	93.849	95.938	100.286	420.998	97.138	-8191	255	
29833.758	1	1	0	0	0.11692	0.2068	0.1348	0.15433	0.22773	0.21872	0.10362	0.22067	0.19185	0.15676	0.28577	0.24615	0.17948	0.094425	0.29369	0.063544	-3.7771	-4.975	-4.1021	-4.3	-4.925	-4.0479	-4.8833	-4.8562	-3.9542	-5.0833	-4.2396	-4.3354	-5.1417	-4.0875	-4.625	-4.7542	327.628	101.331	113.393	372.600	345.252	320.353	93.060	360.235	361.441	260.633	324.872	395.061	74.820	126.421	211.682	367.496	0.0012003	0.0010979	0.00032677	938.73	4.4633e-06	1.837e-05	1032.1	358.22	3.7069e-05	1.4537e-05	456.42	182.52	132.92	55.595	2.3266e-05	86.232	0.0070254	0.007613	0.0021289	973.56	8.0616e-05	8.365e-05	1051.2	367.4	8.0273e-05	8.2277e-05	480.55	188.12	143.3	58.203	8.1332e-05	89.418	314.617	293.452	239.050	86.466	220.944	320.763	85.401	91.344	265.611	400.209	89.188	93.663	96.483	100.059	304.539	96.899	-8191	255	
29833.879	1	1	0	0	0.12664	0.054735	0.21212	0.1059	0.19643	0.31485	0.15168	0.17318	0.07283	0.2313	0.069968	0.12852	0.056254	0.19164	0.15418	0.15243	-3.8667	-4.8542	-4.3187	-4.4	-4.9708	-4.0833	-4.8	-4.8708	-4.0188	-4.9667	-4.5813	-4.2146	-4.95	-4.2063	-4.5333	-4.9083	281.784	317.296	98.691	404.570	275.344	303.099	402.015	415.886	238.148	157.640	364.401	372.703	308.306	419.771	343.517	385.999	0.0015463	0.0020553	0.00010106	953.71	8.7109e-06	2.1647e-05	1035	362.18	2.2282e-05	9.2904e-06	454.18	183.18	132.46	54.989	1.9268e-05	85.798	0.0069279	0.0075899	0.0021158	984.34	8.2544e-05	8.431e-05	1060.5	371.5	8.2422e-05	8.4005e-05	483.83	188.99	143.2	57.917	8.2254e-05	88.953	327.785	114.712	200.412	86.431	338.248	423.310	85.506	91.339	218.430	219.741	89.340	93.292	96.119	100.047	244.437	96.955	-8191	255	
29833.973	1	1	0	0	0.10619	0.055027	0.071431	0.19893	0.040623	0.16111	0.27409	0.042997	0.11842	0.16387	0.11338	0.21097	0.081141	0.077214	0.21877	0.11574	-3.6208	-4.7479	-4.4563	-4.1562	-5.0729	-4.1479	-4.3979	-4.9146	-3.8646	-4.6375	-4.6146	-4.2729	-4.9646	-4.425	-4.2708	-5.0083	220.386	89.207	82.995	426.101	333.399	274.048	359.606	93.580	411.893	360.374	126.154	82.564	89.575	348.750	361.751	366.033	0.0026298	0.0019494	0.0001836	933.95	4.5749e-06	1.4877e-05	1006.5	351.22	1.6468e-05	2.4766e-05	443.91	176.49	128.68	53.09	2.1972e-06	84.123	0.0070934	0.0076777	0.002142	972.78	8.243e-05	8.5447e-05	1037.2	363.45	8.3701e-05	8.5052e-05	472.36	183.58	140.22	56.577	8.3249e-05	87.006	312.116	197.924	99.838	86.929	263.493	194.129	85.459	91.510	171.716	87.781	89.464	93.647	96.331	99.989	367.829	96.979	-8191	255	
29834.068	1	1	0	0	0.27848	0.13433	0.10841	0.26882	0.20218	0.028806	0.048913	0.050472	0.12731	0.088712	0.16482	0.14571	0.26594	0.15938	0.09608	0.21926	-3.7042	-4.7229	-4.5542	-4.1771	-5.0563	-4.2937	-4.4292	-4.9187	-4.0521	-4.5708	-4.575	-4.0729	-5.0208	-4.4375	-4.3938	-5.1083	128.743	232.296	297.052	394.740	170.943	90.773	364.286	401.135	430.742	289.355	369.884	381.633	407.118	412.391	420.981	372.059	0.0019571	0.0027466	0.00012571	923.21	2.5355e-05	1.935e-05	1004.3	352.19	1.3278e-05	9.7274e-06	441.98	178.04	130.17	53.682	1.7726e-05	83.618	0.0071068	0.0076393	0.0021284	960.03	8.0982e-05	8.3505e-05	1031.8	363.16	8.1541e-05	8.2973e-05	471.26	184.22	140.34	56.716	8.1608e-05	87.155	332.892	135.668	431.722	86.572	169.315	189.460	85.503	91.763	119.511	154.746	89.282	93.640	95.751	100.344	139.961	96.664	-8191	255	
29834.164	1	1	0	0	0.19075	0.11504	0.10645	0.20524	0.10044	0.096257	0.36908	0.085532	0.16483	0.23265	0.1888	0.11861	0.32832	0.14081	0.1534	0.19931	-3.6625	-4.5333	-4.6375	-4.2312	-4.7438	-4.4979	-4.2458	-4.9667	-3.9833	-4.5208	-4.9104	-4.0146	-4.9417	-4.4437	-4.0813	-5.1125	278.663	196.921	416.594	352.478	86.241	370.053	380.447	153.033	323.735	172.418	363.106	422.749	386.322	385.039	342.568	374.561	0.0015251	0.00080891	0.0004117	939.45	2.2376e-05	3.3524e-05	1014.5	356.46	7.7732e-06	7.8626e-06	444.81	178.69	130.81	54.26	2.5637e-05	84.561	0.0069654	0.0075132	0.0021001	970.67	8.0875e-05	8.3626e-05	1039.2	365.93	8.1579e-05	8.3133e-05	475.29	185.64	141.43	57.238	8.349e-05	88.261	312.593	201.555	208.297	86.422	251.903	147.473	85.328	91.525	99.920	181.182	89.194	93.500	96.113	100.416	219.331	96.772	-8191	255	
29834.238	1	1	0	0	0.094124	0.2073	0.15397	0.12138	0.071171	0.057986	0.50115	0.17767	0.26339	0.22073	0.20164	0.22533	0.19525	0.075933	0.142	0.23541	-3.8354	-4.3438	-4.9021	-4.1458	-4.7104	-4.5104	-4.1438	-5.0021	-4.0833	-4.3479	-4.8979	-4.0083	-4.7729	-4.6521	-4.1083	-5.025	404.420	289.612	220.697	412.054	273.506	86.565	333.421	314.429	162.337	244.510	359.071	126.154	179.133	131.609	338.132	329.338	0.001656	0.0012873	0.00031918	931.01	1.8061e-05	2.3308e-05	1018.3	357.55	1.1246e-05	2.039e-05	455.51	184.7	134.44	56.05	2.1207e-05	88.842	0.0071062	0.007674	0.0021177	962.93	8.1022e-05	8.1899e-05	1037.1	364.64	7.5478e-05	7.5526e-05	473.69	187.31	140.6	57.7	6.8177e-05	89.671	329.960	319.141	411.928	86.299	223.640	240.723	85.269	91.779	350.876	248.243	89.277	93.682	96.215	100.504	216.148	97.002	-8191	255	
29834.357	1	1	0	0	0.29753	0.11523	0.10768	0.10722	0.099288	0.1117	0.28563	0.17581	0.11418	0.09117	0.090451	0.12959	0.20037	0.12997	0.089829	0.083525	-3.9042	-4.4042	-4.7688	-4.1042	-4.475	-4.525	-4.1833	-4.9708	-4.4083	-4.2375	-4.975	-4.0042	-4.8646	-4.8292	-3.8958	-4.9854	333.315	295.795	127.626	126.389	200.172	391.215	326.121	280.429	323.120	233.683	260.222	410.939	405.255	409.247	153.179	351.358	0.0024182	0.0013844	0.00054546	954.51	2.2803e-05	3.3387e-05	1032.1	364.22	2.092e-05	2.1764e-05	455.82	185.19	133.97	56.908	2.3772e-05	88.502	0.0058067	0.0062684	0.0017203	961.64	6.675e-05	6.8774e-05	1037.3	362.99	6.6182e-05	6.7878e-05	470.16	187.04	139.69	57.864	6.6423e-05	89.475	320.186	212.528	420.458	86.737	382.224	240.672	85.284	91.507	255.971	169.867	89.273	93.406	95.594	100.148	132.271	97.003	-8191	255	
29834.453	1	1	0	0	0.16745	0.12306	0.11123	0.14991	0.2269	0.16209	0.27581	0.13205	0.025328	0.13596	0.2744	0.04466	0.010794	0.18128	0.10088	0.19453	-4.1542	-4.15	-4.9542	-4.1833	-4.675	-4.8625	-4.3104	-5.0521	-4.2771	-4.2979	-5.0521	-4.0271	-4.4146	-4.9625	-3.8604	-4.9	134.278	176.487	199.476	421.594	148.809	187.070	369.762	418.916	108.437	91.141	377.370	368.019	287.954	421.071	326.760	429.957	0.0021318	0.0015025	0.00052439	950.34	5.1995e-06	1.2792e-05	1020.8	356.36	4.0937e-05	3.1522e-05	446.49	180.61	132.67	55.363	1.4074e-05	86.969	0.0056681	0.0061059	0.0016968	955.01	6.4882e-05	6.6997e-05	1020.8	356.68	6.5571e-05	6.6649e-05	459.52	182.64	137.63	56.586	6.5112e-05	87.153	311.809	154.124	210.135	86.246	277.686	140.655	85.337	91.158	248.555	215.987	89.250	93.710	95.767	100.331	200.682	96.769	-8191	255	
29834.549	1	1	0	0	0.30691	0.13212	0.10949	0.25823	0.22319	0.22485	0.1234	0.2793	0.057301	0.096213	0.05168	0.013844	0.14593	0.053764	0.25968	0.22205	-4.2292	-4.1167	-4.8938	-4.2417	-4.4271	-4.9563	-4.1333	-4.9583	-4.5333	-4.2063	-4.9292	-4.2438	-4.3771	-4.9208	-3.9146	-4.7417	413.010	337.786	294.383	398.094	319.917	331.378	300.466	368.105	399.032	252.232	362.114	174.979	383.925	83.086	342.159	353.369	0.0015817	0.00086556	0.00039301	949.38	2.0355e-05	1.4834e-05	1023.6	350.97	1.308e-05	1.1011e-06	446.67	181.01	131.2	55.021	1.788e-05	86.425	0.0054924	0.0058946	0.0016484	949.32	6.3996e-05	6.5833e-05	1013.4	353.55	6.5501e-05	6.7881e-05	458.74	181.79	137.83	56.744	6.9955e-05	87.494	298.395	372.230	129.046	86.805	213.600	208.583	85.287	91.159	323.552	287.805	89.032	93.801	95.724	99.991	315.953	96.553	-8191	255	
29834.670	1	1	0	0	0.098153	0.28769	0.052578	0.20407	0.34842	0.13742	0.15069	0.1542	0.11851	0.092802	0.14633	0.14599	0.21715	0.30268	0.044772	0.092737	-4.3604	-4.0687	-4.9625	-4.4375	-4.425	-5.0125	-4.1396	-4.8146	-4.6292	-3.8708	-5.0958	-4.6354	-4.1708	-5.1292	-4.0354	-4.825	85.997	312.112	164.903	358.449	148.481	116.286	396.380	370.525	187.479	200.786	417.465	417.058	328.976	410.719	232.332	368.643	0.0025153	0.0018483	7.6573e-05	939.13	4.328e-06	1.8881e-05	1018.5	352.04	1.4877e-05	7.3555e-06	444.18	179.26	131.1	55.057	1.6585e-05	85.647	0.0060797	0.0065703	0.0018536	956.42	7.1268e-05	7.3543e-05	1027	357.26	7.319e-05	7.4828e-05	464.43	183.59	139.61	57.182	7.4769e-05	87.83	308.708	189.296	189.883	86.777	200.774	268.788	85.251	91.226	250.122	422.868	89.016	93.653	95.918	100.456	222.281	96.863	-8191	255	
29834.766	1	1	0	0	0.083402	0.097518	0.065743	0.17777	0.24609	0.21691	0.098208	0.25281	0.060998	0.02232	0.12658	0.20227	0.16598	0.24155	0.19093	0.10865	-4.4375	-3.9042	-4.7875	-4.7333	-4.1729	-4.9604	-4.4021	-4.5083	-4.8542	-3.9708	-5.0563	-4.5667	-4.2646	-5.2208	-4.2104	-4.6125	217.257	180.108	197.696	103.689	345.036	239.524	375.806	427.966	384.826	293.982	332.391	375.836	366.255	356.715	294.034	382.393	0.0017416	0.0015613	0.00092592	939.16	2.6101e-05	4.7225e-06	1021	354.07	2.95e-05	1.174e-05	448.98	182.49	132.44	55.133	2.1203e-05	86.798	0.0063962	0.0069211	0.0019136	961.83	7.3858e-05	7.5145e-05	1031	360.04	7.45e-05	7.5937e-05	471.27	185.78	141.22	57.568	7.7314e-05	88.82	321.081	207.740	188.054	86.456	234.774	420.891	85.442	91.227	160.633	405.677	89.036	93.916	95.822	100.033	292.787	96.500	-8191	255	
29834.838	1	1	0	0	0.077013	0.18879	0.27311	0.065932	0.12582	0.096335	0.14909	0.20072	0.14775	0.083353	0.2142	0.06203	0.17943	0.21954	0.20155	0.17193	-4.6521	-4.0771	-4.9208	-4.6875	-4.0458	-5.0646	-4.3542	-4.3292	-4.925	-4.025	-4.9771	-4.8771	-4.2812	-5.2542	-4.225	-4.475	184.014	111.833	368.401	382.458	419.694	137.683	86.909	345.112	148.212	397.191	399.756	408.866	232.994	398.563	402.506	95.273	0.0020064	0.0015678	0.00056807	949.52	1.9558e-05	1.4534e-05	1028.2	357.77	2.7426e-05	2.0655e-05	449.82	182.37	132.19	54.554	7.9781e-06	84.888	0.0067085	0.0072602	0.0020191	979.6	7.7968e-05	8.0454e-05	1049.5	365.36	7.8072e-05	7.967e-05	475.01	185.95	140.89	57.008	7.7938e-05	87.183	321.491	180.548	163.179	86.741	253.631	388.529	85.671	91.342	280.200	185.071	88.818	93.790	95.795	99.786	85.662	96.910	-8191	255	
29834.957	1	1	0	0	0.20181	0.18173	0.069769	0.13445	0.21772	0.094399	0.18678	0.27168	0.15917	0.096933	0.22704	0.13319	0.31644	0.12219	0.16206	0.23345	-4.7333	-4.1229	-4.6396	-4.7896	-4.0792	-5.0458	-4.5167	-4.5229	-5.0375	-4.1708	-4.6937	-4.9375	-4.1146	-5.0417	-4.4458	-4.4187	209.811	85.695	296.412	429.861	150.161	224.012	382.012	137.314	116.560	88.722	394.650	381.304	349.647	96.228	246.589	350.811	0.0018912	0.0021844	6.4285e-05	944.06	8.5606e-06	2.1169e-05	1010.9	351.02	5.4149e-06	1.2125e-05	438.82	175.42	129.7	53.59	2.7876e-05	82.851	0.0066654	0.0071737	0.0020046	967.05	7.6877e-05	7.8894e-05	1028.2	357.85	7.672e-05	7.9296e-05	462.08	180.92	138.36	55.932	7.7903e-05	85.467	307.826	209.665	87.755	86.671	286.266	251.489	85.546	91.485	281.079	112.547	89.425	93.578	95.898	100.196	98.557	96.958	-8191	255	
29835.053	1	1	0	0	0.2147	0.1614	0.22453	0.05245	0.11763	0.15573	0.13773	0.29861	0.10812	0.13244	0.17394	0.11509	0.23077	0.23417	0.049325	0.15366	-4.7583	-4.1396	-4.4958	-5.0104	-3.9583	-4.8812	-4.7771	-4.2875	-5.0188	-4.2167	-4.7979	-4.9375	-4.175	-4.9917	-4.5979	-4.2229	209.548	294.339	394.488	258.471	191.432	432.929	414.485	394.338	255.017	424.909	96.007	341.517	276.624	373.111	370.678	430.813	0.0014172	0.0021254	9.9152e-05	936.34	1.0054e-05	1.6187e-05	1000.1	348.54	1.9024e-05	6.0333e-06	436.09	174.98	128.78	53.297	3.2198e-05	83.125	0.0065585	0.0071782	0.0019932	960.31	7.7796e-05	7.9699e-05	1024.1	356.89	7.8079e-05	7.9825e-05	463.23	181.39	138.69	56.082	7.9895e-05	85.967	319.568	207.981	256.100	86.755	253.473	98.222	85.352	91.349	204.631	149.581	88.847	93.689	95.906	100.076	229.456	96.734	-8191	255	
29835.148	1	1	0	0	0.062471	0.01163	0.16533	0.14782	0.14531	0.062845	0.01261	0.15276	0.20015	0.41506	0.1789	0.19067	0.17609	0.080147	0.11576	0.27138	-4.7604	-4.3167	-4.2688	-4.9812	-3.9979	-4.675	-4.775	-4.2833	-5.0979	-4.4688	-4.4125	-5.1417	-4.0896	-4.7729	-4.7937	-4.2646	388.743	316.066	73.703	380.181	303.779	374.499	301.494	428.681	124.946	92.739	428.358	387.195	329.035	83.307	419.130	369.003	0.0017121	0.001426	0.00038177	926.76	3.8202e-05	2.62e-05	1008	347.09	2.201e-05	9.5081e-06	435.66	177.1	129.28	53.822	3.8498e-06	83.852	0.0068409	0.007376	0.0020565	961.93	7.9374e-05	8.1305e-05	1028.2	357.06	7.931e-05	8.1564e-05	463.59	182.47	139.52	56.553	7.9947e-05	86.658	321.920	109.709	174.204	86.564	186.748	352.293	85.549	91.352	181.083	226.984	89.362	93.778	95.996	100.245	119.948	96.824	-8191	255	
29835.270	1	1	0	0	0.11758	0.093399	0.17977	0.080989	0.16408	0.096297	0.089764	0.18502	0.20679	0.1106	0.078627	0.21097	0.27993	0.21383	0.10435	0.13833	-4.8167	-4.475	-4.3458	-5.0729	-4.1625	-4.575	-4.8479	-4.225	-4.9646	-4.4229	-4.3146	-5.0229	-4.2604	-4.5646	-4.7208	-4.1646	108.723	405.533	337.167	368.996	321.558	156.821	382.322	83.543	96.897	119.970	151.931	88.580	114.924	385.913	277.572	324.654	0.002145	0.0018881	0.00019673	942.01	2.3243e-05	1.4428e-05	1014.5	349.78	9.0592e-06	1.0723e-05	436.35	178.36	131.07	54.312	1.3472e-05	84.005	0.0068133	0.0074456	0.0020661	966.46	7.9812e-05	8.2202e-05	1039	360.7	8.0598e-05	8.3347e-05	469.42	185.01	141.27	57.205	8.2573e-05	87.556	327.538	108.585	212.506	86.564	291.203	151.578	85.758	91.416	292.310	85.638	89.192	93.912	95.853	99.863	267.116	96.609	-8191	255	
29835.365	1	1	0	0	0.15185	0.24122	0.15611	0.081048	0.17188	0.16113	0.012241	0.31199	0.046268	0.11585	0.14518	0.28058	0.098881	0.15454	0.050233	0.21344	-4.6396	-4.5396	-4.2792	-5.1438	-4.0667	-4.2708	-5.0188	-4.0417	-5.0146	-4.5188	-4.1979	-5.0687	-4.3833	-4.5292	-4.975	-4.0417	176.522	384.587	431.471	331.408	289.094	256.100	80.075	334.390	403.789	201.507	93.491	337.220	385.972	373.582	184.247	358.668	0.002256	0.00079539	0.00077819	933.7	1.5121e-05	1.1223e-05	1018	349.18	7.1055e-06	1.1953e-05	433.4	176.03	128.66	53.252	2.2682e-05	82.638	0.0070763	0.0076058	0.0021214	971.5	8.1343e-05	8.346e-05	1039.8	359.84	8.1675e-05	8.3726e-05	466.66	183.16	139.75	56.479	8.2539e-05	86.067	313.195	204.556	214.022	86.592	221.000	199.493	85.383	91.263	126.781	212.378	88.898	93.862	96.040	100.198	241.117	97.013	-8191	255	
29835.438	1	1	0	0	0.12409	0.063571	0.11362	0.30639	0.10257	0.024465	0.26824	0.17607	0.039274	0.18591	0.054279	0.038127	0.17851	0.10962	0.08465	0.052868	-4.5146	-4.6646	-4.1646	-5.0292	-4.2479	-4.4021	-5.0146	-4.1937	-4.7917	-4.7083	-4.1937	-5.0917	-4.4542	-4.4458	-4.8479	-4.0312	147.418	211.297	288.387	84.643	346.517	251.341	395.933	350.943	275.473	155.392	325.702	213.264	187.265	360.677	219.747	327.935	0.0012339	0.0017652	0.0003078	925.46	1.4101e-05	2.2164e-05	990.94	339.92	1.1523e-05	9.7455e-06	427.66	173.55	126.22	52.799	2.0757e-05	81.788	0.0070673	0.0076359	0.0021121	959.58	8.0928e-05	8.3178e-05	1020.5	352.71	8.0515e-05	8.2802e-05	457.57	179.39	137.47	55.486	8.1224e-05	84.889	301.599	206.146	233.385	86.586	353.012	223.067	85.511	91.507	350.113	284.246	89.212	93.987	95.809	100.287	225.380	96.609	-8191	255	
29835.559	1	1	0	0	0.13432	0.083521	0.085821	0.29396	0.2041	0.031499	0.29853	0.069342	0.12458	0.058022	0.23595	0.19286	0.21253	0.16432	0.18939	0.30664	-4.3313	-4.8313	-3.9146	-4.9979	-4.4875	-4.1625	-5.1896	-4.1479	-4.6208	-4.7958	-4.0729	-4.85	-4.5875	-4.3271	-4.9083	-4.3083	396.480	423.934	263.184	429.407	403.385	180.224	421.859	359.861	405.949	219.220	354.868	385.061	129.223	376.940	383.821	407.378	0.0019495	0.0024811	0.0001657	926.87	4.0365e-06	4.285e-05	998.1	342.2	3.1565e-05	7.5624e-06	428.03	175.36	127.57	52.794	2.8842e-05	82.723	0.0069292	0.0075002	0.0020879	955.73	8.0362e-05	8.2364e-05	1023.3	353.8	8.0416e-05	8.2258e-05	459.17	181.22	137.94	55.907	8.1144e-05	85.803	315.371	246.159	249.504	86.675	406.305	344.842	85.394	91.219	268.976	213.591	88.912	93.722	95.789	100.127	267.660	97.197	-8191	255	
29835.654	1	1	0	0	0.10563	0.09515	0.03141	0.21117	0.042581	0.23806	0.06149	0.13668	0.24513	0.054057	0.11399	0.028614	0.24729	0.32174	0.19274	0.1172	-4.1146	-4.8	-4.0896	-5.0167	-4.6979	-4.3229	-5.2292	-4.2542	-4.4479	-5.0375	-3.975	-4.9833	-4.6208	-4.2771	-4.9812	-4.2375	151.614	174.091	414.093	353.180	364.221	306.311	373.808	92.683	171.371	90.786	74.881	104.699	428.877	202.551	400.388	353.293	0.0017812	0.0030729	0.00041627	931.54	3.5875e-05	2.6327e-05	1008.5	345.87	2.2883e-05	1.117e-05	434.87	175.83	129.1	53.874	2.1785e-05	84	0.0069658	0.0074975	0.0020949	964.48	8.1365e-05	8.269e-05	1032.7	357.44	8.1151e-05	8.2828e-05	464.59	182.6	139.69	56.602	8.0557e-05	86.76	308.667	149.956	340.956	86.379	166.940	240.201	85.452	91.413	260.894	217.250	88.931	93.865	95.985	100.065	154.817	96.983	-8191	255	
29835.750	1	1	0	0	0.05134	0.21275	0.061916	0.28403	0.020868	0.077413	0.14873	0.26044	0.15508	0.11801	0.14767	0.17202	0.11056	0.024063	0.094957	0.26973	-3.9167	-4.7458	-4.1125	-4.7396	-4.6292	-4.0375	-5.0938	-4.3771	-4.3104	-4.9229	-4.3271	-4.925	-4.8562	-4.0542	-4.9479	-4.4396	348.377	388.633	200.395	408.828	156.892	111.801	374.128	120.024	311.985	156.228	234.253	237.879	99.737	358.251	344.453	271.644	0.0022093	0.0012724	0.0002254	939.59	1.64e-05	2.2106e-05	1023.9	354.62	3.2965e-05	6.0116e-06	447.68	180.51	132.23	54.753	4.9887e-05	84.879	0.0068277	0.007407	0.002046	969.23	7.8866e-05	8.078e-05	1044.2	361.67	7.8932e-05	8.0757e-05	473.12	186.06	141.89	57.35	8.0055e-05	87.893	318.223	391.329	368.954	86.477	307.806	107.370	85.829	91.238	184.027	218.876	88.893	93.471	95.926	99.945	265.714	96.832	-8191	255	
29835.846	1	1	0	0	0.14003	0.096521	0.14518	0.11172	0.072844	0.096006	0.29406	0.029352	0.10638	0.053764	0.21773	0.14525	0.13733	0.16202	0.027266	0.31141	-4.0188	-5.0229	-4.0021	-4.6333	-4.6937	-4.0062	-5.0604	-4.4042	-4.2167	-5.0021	-4.2104	-4.6646	-4.8688	-4.0437	-4.8854	-4.8063	429.108	103.805	390.643	355.487	90.368	323.625	367.996	391.369	111.587	386.600	389.041	363.752	372.561	253.827	391.430	382.928	0.0025072	0.0014191	0.00046404	947.58	1.7266e-05	1.4878e-05	1027.6	358.38	3.5295e-06	2.9176e-05	447.47	179.67	131.47	53.879	1.6897e-05	83.518	0.0067649	0.0073129	0.0020169	977.5	7.7774e-05	7.9617e-05	1048.2	363.97	7.7333e-05	7.8624e-05	470.42	184.52	139.91	56.385	7.7636e-05	85.718	327.417	94.734	181.427	86.391	237.751	242.073	85.652	91.407	296.834	178.554	88.928	93.526	95.788	100.043	348.951	97.192	-8191	255	
29835.941	1	1	0	0	0.054769	0.078973	0.23394	0.21361	0.24098	0.27463	0.14482	0.31165	0.06325	0.080533	0.14463	0.20275	0.11826	0.078464	0.11352	0.13398	-3.8604	-5.025	-4.0813	-4.5188	-4.7458	-4.0979	-4.9375	-4.7375	-4.0687	-4.8146	-4.3417	-4.5354	-4.8354	-4.1687	-4.725	-4.9583	82.489	315.135	425.082	388.857	209.763	198.727	375.532	353.076	86.419	300.832	197.362	384.247	392.452	433.568	421.469	355.843	0.0017466	0.0015764	0.00034501	941.21	5.5416e-06	1.3112e-05	1007.6	347.92	3.3236e-05	1.1159e-05	436.18	175.24	129.1	53.047	1.8423e-05	82.141	0.0065526	0.0070911	0.0019728	960.79	7.5756e-05	7.8e-05	1020.6	355.98	7.6224e-05	7.7443e-05	461.09	180.36	137.7	55.461	7.6546e-05	84.625	303.851	199.033	198.493	86.489	305.421	271.748	85.324	91.602	173.430	231.496	88.801	93.679	95.835	100.173	175.561	96.466	-8191	255	
29836.061	1	1	0	0	0.21952	0.128	0.15314	0.064981	0.29918	0.16473	0.22963	0.21523	0.23848	0.092652	0.13439	0.23588	0.15781	0.14616	0.2043	0.089205	-3.7833	-5.0833	-4.2771	-4.5271	-4.9146	-3.9208	-4.8771	-4.8917	-4.0375	-5.0125	-4.2812	-4.2188	-4.9417	-4.0687	-4.6958	-4.7979	198.646	422.157	233.266	158.124	352.687	343.440	337.541	345.921	236.716	327.225	197.170	420.240	388.875	401.920	118.292	410.744	0.0022317	0.0021921	0.00019828	924.34	1.2394e-05	2.3684e-05	1003.8	349.21	3.815e-05	3.0379e-06	438.96	175.59	129.24	53.382	2.5432e-05	82.689	0.0065028	0.0070136	0.0019671	951.9	7.4893e-05	7.7221e-05	1019.8	356.62	7.5539e-05	7.7566e-05	460.51	180.12	138.17	55.719	7.6598e-05	84.957	330.685	180.460	214.254	85.976	178.718	308.562	85.241	91.807	183.974	238.201	89.165	93.489	96.053	99.978	142.106	96.988	-8191	255	
29836.133	1	1	0	0	0.049164	0.21098	0.05039	0.079896	0.18902	0.24567	0.08309	0.1614	0.16374	0.049518	0.50369	0.15535	0.08223	0.198	0.03108	0.12668	-3.8042	-4.9229	-4.4229	-4.4021	-5.0292	-4.1188	-4.6042	-4.9125	-3.75	-4.9646	-4.5875	-4.1292	-5.0125	-4.3063	-4.5062	-4.8979	118.129	365.763	412.713	412.604	100.711	271.584	395.280	354.143	355.453	319.607	76.695	260.565	341.957	418.440	186.958	386.845	0.0018871	0.0036292	0.00030388	941.08	1.4547e-05	1.3603e-06	1013.4	354.06	1.8547e-05	1.1041e-05	443.28	179.08	131.48	54.281	1.0989e-05	84.348	0.006467	0.007029	0.0019467	959.37	7.4623e-05	7.6188e-05	1025.9	358.8	7.4159e-05	7.6066e-05	465.73	182.82	140.02	56.499	7.5922e-05	86.445	326.307	144.048	115.930	86.300	432.686	246.172	85.114	91.353	401.519	219.113	89.436	93.772	95.974	100.209	292.974	96.802	-8191	255	
29836.229	1	1	0	0	0.21844	0.043029	0.088927	0.15229	0.091196	0.23241	0.18628	0.11075	0.2684	0.33418	0.14947	0.051879	0.28433	0.15521	0.15508	0.15828	-3.675	-4.8167	-4.5188	-4.2896	-4.9167	-4.2771	-4.4333	-5.0146	-4.0146	-4.7583	-4.5833	-4.1583	-5.025	-4.2625	-4.3875	-5.1208	182.787	183.049	373.527	259.706	155.841	188.509	344.296	290.534	177.118	312.203	317.437	119.468	401.395	410.275	143.249	336.264	0.0016635	0.00047368	0.00090694	948.91	1.5993e-05	9.1832e-06	1030.4	357.6	2.5683e-05	8.8167e-06	450.91	181.49	132.53	54.921	2.4878e-05	84.976	0.0064565	0.0070028	0.0019616	970.24	7.5929e-05	7.8386e-05	1041.3	365.14	7.6812e-05	7.879e-05	475.66	185.75	141.21	57.244	7.8301e-05	87.455	317.969	99.473	175.363	86.685	227.858	339.809	85.324	91.445	284.628	261.029	89.230	93.506	96.354	100.029	283.818	96.661	-8191	255	
29836.350	1	1	0	0	0.088603	0.091357	0.12671	0.13214	0.2007	0.28888	0.047147	0.095434	0.076463	0.25578	0.1629	0.077893	0.14363	0.084613	0.24755	0.14987	-3.8208	-4.6417	-4.7667	-4.1979	-4.9437	-4.2792	-4.3729	-5.1125	-4.1104	-4.5625	-4.8958	-4.0833	-4.9458	-4.5687	-4.1271	-4.9979	312.375	297.167	129.035	338.800	306.214	150.953	283.073	406.724	382.114	187.253	416.305	416.841	362.231	333.651	198.444	164.179	0.0020161	0.0012396	0.00034021	947.12	3.1179e-05	2.8444e-05	1021.3	356.81	2.2294e-05	1.0058e-05	444.35	177.31	129.94	53.602	8.4459e-06	83.227	0.0066417	0.0070837	0.0019717	969.07	7.5545e-05	7.8029e-05	1040.3	363.85	7.6137e-05	7.7668e-05	468.39	182.71	139.34	56.189	7.7023e-05	85.605	319.896	93.522	169.959	86.741	266.005	104.268	85.376	91.131	199.451	279.365	88.869	93.401	96.177	99.851	151.026	96.916	-8191	255	
29836.445	1	1	0	0	0.1103	0.072835	0.07928	0.19216	0.14763	0.14789	0.25147	0.22719	0.16912	0.17976	0.13137	0.23422	0.18938	0.050674	0.039998	0.021376	-3.9	-4.5792	-4.825	-4.2375	-4.9083	-4.4854	-4.3708	-5.2937	-4.2208	-4.4604	-4.9917	-4.2042	-4.9688	-4.6125	-4.1687	-5.2	261.552	132.918	257.508	301.548	128.003	394.909	419.148	414.932	283.847	267.584	242.072	400.713	350.800	234.865	250.827	365.312	0.00093889	0.002155	0.0001649	935.77	1.8271e-05	1.2488e-05	1014.1	351.22	3.0276e-05	4.6241e-06	438.62	175.7	129.04	53.703	2.6556e-05	81.767	0.0065558	0.0070919	0.001963	958.32	7.5475e-05	7.7536e-05	1026.9	359.06	7.5318e-05	7.72e-05	464.52	180.25	138.12	55.923	7.5961e-05	84.96	285.668	134.522	206.144	86.612	409.385	98.260	85.232	91.751	205.399	242.351	89.402	93.390	95.764	100.328	195.470	97.065	-8191	255	
29836.543	1	1	0	0	0.042409	0.1534	0.26729	0.23104	0.32598	0.20579	0.29009	0.15035	0.27193	0.20554	0.24703	0.079579	0.031586	0.29782	0.11246	0.15912	-4.1208	-4.2812	-4.9667	-4.0125	-4.8729	-4.7521	-4.2292	-5.2188	-4.1854	-4.3875	-5.0646	-4.2354	-4.775	-4.7417	-4.0292	-5.1271	315.761	257.912	383.619	371.612	231.182	208.070	100.585	236.541	145.718	331.883	328.605	294.532	284.233	414.743	209.163	395.561	0.0020191	0.00074105	0.0004245	927.15	3.0242e-05	2.5685e-05	1002.8	348.72	3.741e-06	1.5852e-05	442.87	175.85	129.21	53.699	1.5416e-05	83.848	0.0065335	0.0070196	0.0019509	955.29	7.5879e-05	7.7941e-05	1025	358.09	7.6778e-05	7.864e-05	464.58	181.81	139.09	56.374	7.8633e-05	86.016	321.141	327.977	199.928	86.479	263.715	236.793	85.519	91.242	386.327	151.599	88.804	93.745	95.926	99.794	161.920	96.537	-8191	255	
29836.639	1	1	0	0	0.13446	0.13116	0.13301	0.020002	0.146	0.18358	0.1175	0.28405	0.19381	0.16616	0.055583	0.13193	0.11613	0.10369	0.20334	0.12768	-3.9938	-4.325	-4.9917	-4.3333	-4.6354	-4.7354	-4.1875	-5.1396	-4.3021	-4.3146	-4.9688	-4.2625	-4.5958	-4.9313	-4	-4.9583	166.387	147.609	408.749	282.375	378.635	347.019	370.248	407.138	242.034	138.918	252.644	417.374	431.783	86.484	99.083	159.657	0.0020405	0.00099076	0.00045411	940.5	1.5406e-05	8.6255e-06	1018.2	354.8	7.6199e-06	2.1049e-05	443.21	179.54	131.5	54.324	2.8959e-06	84.824	0.0066867	0.0071844	0.0020226	966.28	7.7564e-05	7.9466e-05	1038.5	362.81	7.7887e-05	7.9204e-05	470.58	183.92	140.71	57.053	7.8083e-05	87.139	321.397	100.695	112.802	86.697	319.790	396.432	85.614	91.689	383.045	398.748	89.292	93.637	95.623	100.347	286.059	96.814	-8191	255	
29836.734	1	1	0	0	0.15035	0.16941	0.33099	0.21448	0.088167	0.17188	0.1414	0.083582	0.20307	0.21652	0.032395	0.39984	0.25203	0.18987	0.31182	0.060655	-4.1813	-4.2188	-5.05	-4.1354	-4.3729	-4.7896	-4.0917	-4.9604	-4.5	-3.9583	-4.9833	-4.475	-4.4729	-5.1896	-4.1312	-4.8292	94.353	163.472	429.734	405.390	400.475	126.198	380.340	170.134	397.974	76.621	411.632	343.108	381.871	354.545	216.812	83.442	0.0019072	0.00081343	0.00053723	942.07	1.823e-05	8.6692e-06	1021.6	354.66	7.625e-06	1.7735e-05	448.45	181.35	132.41	54.968	1.2167e-05	84.458	0.0066729	0.0071715	0.0020054	971.56	7.7188e-05	7.9901e-05	1042.8	364.41	7.7607e-05	7.974e-05	475.22	186.51	141.73	57.268	7.8656e-05	87.405	299.697	96.349	210.438	86.757	91.209	152.093	85.710	91.876	421.912	260.442	89.101	93.666	95.894	100.363	130.611	96.709	-8191	255	
29836.830	1	1	0	0	0.14156	0.30866	0.11453	0.18285	0.041245	0.017658	0.11681	0.092203	0.32669	0.07032	0.19176	0.059234	0.18043	0.13699	0.094037	0.17935	-4.4167	-4.2083	-5.075	-4.5312	-4.3979	-5.0854	-4.2354	-4.7958	-4.6979	-4.2042	-4.9208	-4.3313	-4.2979	-4.8667	-4.1167	-4.6312	337.147	218.523	265.131	407.874	192.939	87.001	387.562	201.818	88.402	85.080	423.818	392.405	93.733	80.660	318.190	358.169	0.0023901	0.00091862	0.0002449	938.4	2.1347e-05	2.5049e-05	1020.5	350.67	2.2007e-05	8.2987e-06	440.86	176.25	129.3	53.127	1.3343e-05	82.62	0.0067147	0.0072655	0.0020144	965.24	7.7656e-05	7.9177e-05	1032.3	361.28	7.7322e-05	7.9699e-05	466.42	181.78	138.39	56.04	7.7697e-05	85.257	310.409	237.262	408.911	86.495	236.027	326.306	85.489	91.760	369.908	276.153	89.058	93.791	95.782	100.428	217.358	97.062	-8191	255	
29836.951	1	1	0	0	0.045334	0.15798	0.053221	0.24894	0.16473	0.22336	0.17852	0.13018	0.17683	0.23427	0.1767	0.049818	0.3282	0.46719	0.14178	0.25988	-4.5125	-4.0979	-5.0354	-4.5542	-4.2417	-4.8875	-4.1042	-4.6146	-4.7438	-4.1167	-5.0354	-4.7167	-4.15	-4.825	-4.2188	-4.7958	149.979	234.703	424.683	416.696	350.973	163.630	320.492	85.498	359.834	101.173	322.535	209.339	360.888	379.138	356.348	380.223	0.001684	0.0029915	0.00019146	935.27	5.4987e-06	2.5206e-05	1001.5	348.92	2.8267e-05	8.6128e-06	438.54	174.57	129.91	53.006	1.2857e-05	82.234	0.0065897	0.0070951	0.0019644	956.8	7.4786e-05	7.6564e-05	1019.8	355.67	7.4534e-05	7.5521e-05	460.29	180.2	137.99	55.629	7.5805e-05	84.626	323.806	120.632	97.845	86.384	210.816	264.362	85.058	90.840	267.438	125.164	88.878	93.537	95.746	100.062	321.450	96.404	-8191	255	
29837.045	1	1	0	0	0.16628	0.14724	0.18462	0.25107	0.13792	0.24754	0.14797	0.075261	0.13296	0.13234	0.29654	0.28781	0.2138	0.18745	0.17054	0.11647	-4.7646	-4.0979	-4.9062	-4.5583	-4.1542	-5.0938	-4.2792	-4.5604	-4.9458	-4.1375	-5.0396	-4.725	-4.2104	-5.2083	-4.3604	-4.6833	405.010	177.435	276.184	423.314	314.330	409.731	284.727	98.611	266.756	226.739	356.207	385.743	74.352	77.565	328.445	156.295	0.0010588	0.00073395	0.00027757	937.65	1.5742e-05	2.2447e-05	1013.4	347.42	2.9459e-05	1.4517e-05	438.58	175.96	129.51	53.553	6.102e-06	83.253	0.0064702	0.0069911	0.0019524	961.75	7.4572e-05	7.7054e-05	1029.6	357.12	7.5726e-05	7.7578e-05	464.13	181.44	138.82	55.996	7.7847e-05	85.229	319.468	253.640	105.649	86.968	197.355	333.626	85.391	91.133	135.860	148.055	89.065	93.464	96.189	100.199	243.276	96.649	-8191	255	
29837.143	1	1	0	0	0.11849	0.082953	0.075875	0.26793	0.12913	0.048847	0.043878	0.24224	0.20305	0.24397	0.256	0.2441	0.23097	0.13349	0.12864	0.27574	-4.6042	-4.1333	-4.6292	-4.9354	-4.0875	-5.0646	-4.2562	-4.2875	-5.0167	-3.9979	-4.9104	-4.8271	-4.2667	-5.0333	-4.4771	-4.325	428.159	283.286	217.016	324.355	79.154	264.171	342.943	403.272	117.437	408.831	357.873	87.067	355.380	354.893	391.995	408.973	0.0022981	0.0011707	2.8859e-05	938.83	4.3133e-05	1.2689e-05	1009.7	350.16	1.2215e-05	1.9794e-05	440.49	179.26	131.09	53.984	8.7413e-06	84.075	0.0066175	0.0072216	0.0020286	963.37	7.7872e-05	8.0143e-05	1030.1	359.34	7.8392e-05	8.0679e-05	467.14	183.76	140.42	56.87	8.0101e-05	86.667	320.658	203.102	328.926	86.643	241.220	285.751	85.293	91.511	316.766	170.086	88.797	93.763	95.732	100.238	176.662	97.067	-8191	255	
29837.238	1	1	0	0	0.15913	0.24435	0.25094	0.090868	0.13674	0.030767	0.21859	0.35353	0.11947	0.10756	0.17874	0.23102	0.058399	0.12779	0.085003	0.18644	-4.8479	-4.1354	-4.5437	-4.9417	-4.1104	-4.825	-4.5771	-4.2271	-4.8562	-4.1	-4.5875	-5.1	-4.2354	-4.8667	-4.5917	-4.1937	222.006	334.943	215.358	388.934	283.944	96.311	111.600	394.665	192.194	376.481	299.261	334.837	381.833	403.236	342.061	373.407	0.0022866	0.0012166	0.00030493	943.88	1.7876e-05	1.6058e-05	1016.8	353.82	1.9098e-05	3.4434e-05	443.35	180.37	131.36	54.322	1.1186e-05	84.483	0.0067212	0.0073321	0.0020438	967.15	7.9035e-05	8.1163e-05	1040.8	362.67	7.9362e-05	8.0679e-05	471.64	185.23	140.78	57.106	7.9288e-05	86.969	306.621	228.868	262.941	86.849	145.536	294.736	85.370	91.118	180.874	246.567	89.432	93.658	96.211	99.786	386.846	96.890	-8191	255	
29837.357	1	1	0	0	0.17163	0.030007	0.11842	0.21868	0.11104	0.10687	0.23358	0.17037	0.081594	0.25386	0.0724	0.039012	0.18368	0.24253	0.033091	0.18759	-4.8458	-4.2396	-4.6708	-5.0854	-4.1375	-5.0417	-4.7479	-4.3354	-4.9854	-4.2458	-4.5312	-4.9437	-4.1583	-4.8271	-4.6792	-4.2854	380.977	104.773	263.550	432.095	120.563	99.331	411.164	390.838	411.425	99.424	168.182	133.881	374.084	427.629	370.461	360.826	0.0013471	0.0015964	0.0006616	936.89	2.107e-05	6.688e-06	1007.7	351.31	3.4104e-05	1.3219e-05	440.74	175.31	127.22	53.56	1.6717e-05	81.922	0.0067487	0.0072826	0.0020263	962.6	7.828e-05	8.0435e-05	1029.3	358.91	7.8246e-05	7.9851e-05	462.96	180.95	138	56.103	7.8658e-05	84.895	321.151	152.374	196.979	86.732	312.687	178.817	85.661	91.118	374.610	408.320	89.002	93.876	96.400	100.036	130.123	96.825	-8191	255	
29837.430	1	1	0	0	0.27082	0.36963	0.071152	0.21616	0.2715	0.13793	0.091388	0.1489	0.14612	0.047333	0.20907	0.17548	0.19882	0.32081	0.17998	0.54654	-4.6771	-4.3646	-4.3229	-5.0083	-4.0208	-4.8083	-4.7542	-4.2542	-4.8146	-4.4167	-4.3229	-5.0875	-4.2104	-4.7583	-4.7188	-4.325	260.324	78.736	291.217	329.781	427.506	166.709	280.665	339.814	370.211	383.757	397.234	78.814	91.665	95.476	290.022	352.555	0.0026955	0.0018403	0.00037708	927.05	2.3503e-05	3.3026e-06	997.19	346.62	2.4914e-05	2.323e-05	437.69	173.27	129.19	53.511	1.4694e-05	82.595	0.0067541	0.0073373	0.0020427	955.05	7.8588e-05	8.0804e-05	1020.6	357.4	7.8313e-05	8.0485e-05	460.78	180.15	138.56	56.064	7.7836e-05	85.325	328.203	346.710	402.800	86.479	90.875	210.900	85.648	91.325	289.253	220.979	89.120	93.749	96.097	100.103	190.167	96.449	-8191	255	
29837.525	1	1	0	0	0.11666	0.18843	0.23482	0.026413	0.08731	0.19836	0.19511	0.068209	0.11311	0.23559	0.15316	0.10686	0.21667	0.065503	0.16473	0.2956	-4.5813	-4.5687	-4.1937	-5.1188	-4.0667	-4.4812	-5.1521	-4.1771	-4.7458	-4.5958	-4.2	-5.0583	-4.2792	-4.625	-4.7542	-4.1813	90.048	366.678	311.939	380.477	414.533	89.496	355.154	83.672	144.880	373.057	371.061	105.718	94.071	98.651	270.525	338.068	0.0015361	0.0020146	0.00067517	931.06	2.8918e-05	1.3372e-05	1009.1	349.66	2.4415e-05	2.0446e-05	439.59	177.2	130.63	53.793	2.6852e-05	83.51	0.0066636	0.0071621	0.0019822	960.01	7.6426e-05	7.8609e-05	1029.5	359.06	7.6407e-05	7.8757e-05	464.98	182.49	139.52	56.453	7.8077e-05	85.994	316.366	237.015	162.702	86.582	156.904	186.179	85.541	91.101	188.251	221.738	89.583	93.916	95.952	100.067	109.089	96.568	-8191	255	
29837.621	1	1	0	0	0.10076	0.062863	0.076242	0.39912	0.15961	0.083205	0.33968	0.11963	0.12879	0.034909	0.089237	0.47455	0.18536	0.042853	0.10129	0.17396	-4.6438	-4.3896	-4.1708	-5.0563	-4.1667	-4.4333	-4.9625	-4.0813	-4.8021	-4.6958	-4.1854	-5.0958	-4.2333	-4.3917	-5.1188	-4.1625	396.043	245.274	327.049	386.859	254.022	155.366	367.301	109.462	85.049	412.275	92.794	423.959	125.590	344.133	420.695	431.418	0.0012446	0.0024549	0.00055157	942.74	4.9996e-06	3.9926e-06	1018.3	357.55	1.8573e-05	4.6134e-06	444.12	178.95	131.82	54.429	1.7718e-05	84.081	0.0066123	0.0071763	0.0020111	968.35	7.7887e-05	7.9337e-05	1041.2	362.89	7.801e-05	7.9803e-05	470.88	184.73	141.7	57.186	8.0214e-05	87.063	337.926	182.521	91.895	86.607	184.089	326.598	85.702	91.352	99.136	105.720	89.470	94.042	96.144	100.132	160.313	96.721	-8191	255	
29837.742	1	1	0	0	0.15857	0.33016	0.080482	0.12871	0.11198	0.058593	0.17215	0.30315	0.11597	0.20301	0.10464	0.12452	0.17202	0.27841	0.16305	0.31803	-4.3438	-4.6562	-3.9708	-4.9292	-4.2854	-4.35	-5.0958	-4.0417	-4.5938	-4.675	-4.0271	-4.8125	-4.3229	-4.2333	-4.7625	-4.075	188.586	140.118	123.515	108.885	135.007	231.884	422.258	374.369	175.124	277.705	408.842	429.074	85.892	421.650	346.495	337.245	0.00222	0.00081226	0.0003085	946.84	2.6063e-05	1.8512e-05	1029.4	358.02	5.228e-05	2.3492e-05	446.8	180.73	132.17	53.86	4.2172e-05	84.311	0.0068684	0.0074058	0.0020952	979	8.1495e-05	8.2368e-05	1054	366.93	8.0504e-05	8.1252e-05	473.52	185.92	141.28	56.783	7.8404e-05	86.515	325.368	145.693	231.161	86.683	336.311	279.660	85.439	91.384	184.796	217.878	88.913	93.744	96.051	99.860	208.939	96.893	-8191	255	
29837.840	1	1	0	0	0.024083	0.087706	0.13664	0.36359	0.22601	0.13552	0.18204	0.098719	0.21045	0.18723	0.21943	0.13737	0.038505	0.061148	0.13814	0.16879	-4.3167	-4.7688	-3.9375	-4.9708	-4.425	-4.1042	-5.0979	-4.1687	-4.5375	-4.8187	-4.0333	-4.8688	-4.4417	-4.0854	-4.8875	-4.25	167.359	422.292	138.947	108.529	170.018	192.447	313.265	257.247	248.959	218.927	414.224	206.912	212.560	243.103	288.150	379.187	0.0022637	0.00059099	0.00046421	941.04	3.6372e-05	9.8528e-06	1004.5	348.97	1.5376e-05	8.8358e-06	433.32	175.6	129.07	53.089	1.8367e-05	82.384	0.006701	0.0072266	0.0020098	967.14	7.6813e-05	7.8397e-05	1029.4	357.25	7.508e-05	7.6759e-05	458.25	179.72	137.79	55.601	7.4009e-05	84.236	313.168	80.595	237.872	86.811	179.712	296.881	85.509	91.269	286.521	432.930	89.417	93.407	96.028	100.211	328.863	96.845	-8191	255	
#DATA ENDS
