BOXY.EXE: ISS Imagent and Oximeter Data Acquisition Program Version 0.80
Ascii Record File

#ACQ INFORMATION
2  Detector Channels 
16  External MUX Channels 
1  Auxiliary Channels 
5000  Waveform (CCF) Frequency (Hz)
1  Waveforms Skipped 
30  Waveforms Averaged 
1  Cycles Averaged 
16  Acquisitions per Waveform 
10.0806  Updata Rate (Hz) 

#FILE INFORMATION
TRUE -- External MUX Channel results are PARSED.
FALSE -- AC DC and Phase are NOT grouped.
TRUE -- Companion Program Settings File CREATED.
FALSE -- AC data not excluded
FALSE -- DC data not excluded
FALSE -- Phase data not excluded
FALSE -- Auxillary Chn. data not excluded
Tab delimiters

#CALIBRATION STATE
TRUE -- Waveform Calibration Values APPLIED.


#AUX CALIBRATION VALUES
Val Type	aux-1	

Term	1.0000e+00	
Factor	0.0000e+00	


#WF CALIBRATION VALUES
A = Detector Channel
Val Type	A-AC1	A-AC2	A-AC3	A-AC4	A-AC5	A-AC6	A-AC7	A-AC8	A-AC9	A-AC10	A-AC11	A-AC12	A-AC13	A-AC14	A-AC15	A-AC16	A-DC1	A-DC2	A-DC3	A-DC4	A-DC5	A-DC6	A-DC7	A-DC8	A-DC9	A-DC10	A-DC11	A-DC12	A-DC13	A-DC14	A-DC15	A-DC16	A-Ph1	A-Ph2	A-Ph3	A-Ph4	A-Ph5	A-Ph6	A-Ph7	A-Ph8	A-Ph9	A-Ph10	A-Ph11	A-Ph12	A-Ph13	A-Ph14	A-Ph15	A-Ph16	

Term	0.00000e+00	0.00000e+00	0.00000e+00	0.00000e+00	0.00000e+00	0.00000e+00	0.00000e+00	0.00000e+00	0.00000e+00	0.00000e+00	0.00000e+00	0.00000e+00	0.00000e+00	0.00000e+00	0.00000e+00	0.00000e+00	0.00000e+00	0.00000e+00	0.00000e+00	0.00000e+00	0.00000e+00	0.00000e+00	0.00000e+00	0.00000e+00	0.00000e+00	0.00000e+00	0.00000e+00	0.00000e+00	0.00000e+00	0.00000e+00	0.00000e+00	0.00000e+00	0.00000e+00	0.00000e+00	0.00000e+00	0.00000e+00	0.00000e+00	0.00000e+00	0.00000e+00	0.00000e+00	0.00000e+00	0.00000e+00	0.00000e+00	0.00000e+00	0.00000e+00	0.00000e+00	0.00000e+00	0.00000e+00	
Factor	1.00000e+00	1.00000e+00	1.00000e+00	1.00000e+00	1.00000e+00	1.00000e+00	1.00000e+00	1.00000e+00	1.00000e+00	1.00000e+00	1.00000e+00	1.00000e+00	1.00000e+00	1.00000e+00	1.00000e+00	1.00000e+00	1.00000e+00	1.00000e+00	1.00000e+00	1.00000e+00	1.00000e+00	1.00000e+00	1.00000e+00	1.00000e+00	1.00000e+00	1.00000e+00	1.00000e+00	1.00000e+00	1.00000e+00	1.00000e+00	1.00000e+00	1.00000e+00	X	X	X	X	X	X	X	X	X	X	X	X	X	X	X	X	

B = Detector Channel
Val Type	B-AC1	B-AC2	B-AC3	B-AC4	B-AC5	B-AC6	B-AC7	B-AC8	B-AC9	B-AC10	B-AC11	B-AC12	B-AC13	B-AC14	B-AC15	B-AC16	B-DC1	B-DC2	B-DC3	B-DC4	B-DC5	B-DC6	B-DC7	B-DC8	B-DC9	B-DC10	B-DC11	B-DC12	B-DC13	B-DC14	B-DC15	B-DC16	B-Ph1	B-Ph2	B-Ph3	B-Ph4	B-Ph5	B-Ph6	B-Ph7	B-Ph8	B-Ph9	B-Ph10	B-Ph11	B-Ph12	B-Ph13	B-Ph14	B-Ph15	B-Ph16	

Term	0.00000e+00	0.00000e+00	0.00000e+00	0.00000e+00	0.00000e+00	0.00000e+00	0.00000e+00	0.00000e+00	0.00000e+00	0.00000e+00	0.00000e+00	0.00000e+00	0.00000e+00	0.00000e+00	0.00000e+00	0.00000e+00	0.00000e+00	0.00000e+00	0.00000e+00	0.00000e+00	0.00000e+00	0.00000e+00	0.00000e+00	0.00000e+00	0.00000e+00	0.00000e+00	0.00000e+00	0.00000e+00	0.00000e+00	0.00000e+00	0.00000e+00	0.00000e+00	2.30140e+01	-1.20181e+02	-1.19907e+02	-1.83653e+02	-6.30298e+01	-5.18358e+01	-1.58195e+02	-1.62015e+02	-5.19289e+01	-7.20987e+01	-1.70726e+02	-1.70915e+02	-1.78976e+02	-1.76655e+02	-6.37239e+01	-1.49757e+02	
Factor	5.08546e-05	1.47758e-04	3.78023e-05	1.55087e-01	1.88521e-06	1.77159e-06	1.71671e-01	5.62650e-02	2.22537e-06	1.53002e-06	9.34834e-02	3.14727e-02	2.91465e-02	9.72571e-03	2.02248e-06	1.39640e-02	4.02956e-06	4.41231e-06	1.22925e-06	7.62458e-02	4.73918e-08	4.85632e-08	7.91440e-02	2.76715e-02	4.75700e-08	4.85441e-08	4.45230e-02	1.49399e-02	1.44346e-02	4.81122e-03	4.80407e-08	6.69290e-03	X	X	X	X	X	X	X	X	X	X	X	X	X	X	X	X	



#DISTANCE SETTINGS
A = Detector Channel
A-1	A-2	A-3	A-4	A-5	A-6	A-7	A-8	A-9	A-10	A-11	A-12	A-13	A-14	A-15	A-16	

2.5000e+00	3.0000e+00	2.5000e+00	3.0000e+00	2.0000e+00	3.0000e+00	1.5000e+00	3.0000e+00	3.0000e+00	3.0000e+00	3.0000e+00	3.0000e+00	3.0000e+00	3.0000e+00	1.5000e+00	3.0000e+00	

B = Detector Channel
B-1	B-2	B-3	B-4	B-5	B-6	B-7	B-8	B-9	B-10	B-11	B-12	B-13	B-14	B-15	B-16	

1.0000e+01	1.0000e+01	1.0000e+01	1.4400e+00	1.0000e+01	1.0000e+01	1.5100e+00	1.9400e+00	1.0000e+01	1.0000e+01	1.9900e+00	2.4900e+00	2.4100e+00	2.9000e+00	1.0000e+01	2.9800e+00	




#DATA BEGINS
time	group	step	mark	flag	A-AC1	A-AC2	A-AC3	A-AC4	A-AC5	A-AC6	A-AC7	A-AC8	A-AC9	A-AC10	A-AC11	A-AC12	A-AC13	A-AC14	A-AC15	A-AC16	A-DC1	A-DC2	A-DC3	A-DC4	A-DC5	A-DC6	A-DC7	A-DC8	A-DC9	A-DC10	A-DC11	A-DC12	A-DC13	A-DC14	A-DC15	A-DC16	A-Ph1	A-Ph2	A-Ph3	A-Ph4	A-Ph5	A-Ph6	A-Ph7	A-Ph8	A-Ph9	A-Ph10	A-Ph11	A-Ph12	A-Ph13	A-Ph14	A-Ph15	A-Ph16	B-AC1	B-AC2	B-AC3	B-AC4	B-AC5	B-AC6	B-AC7	B-AC8	B-AC9	B-AC10	B-AC11	B-AC12	B-AC13	B-AC14	B-AC15	B-AC16	B-DC1	B-DC2	B-DC3	B-DC4	B-DC5	B-DC6	B-DC7	B-DC8	B-DC9	B-DC10	B-DC11	B-DC12	B-DC13	B-DC14	B-DC15	B-DC16	B-Ph1	B-Ph2	B-Ph3	B-Ph4	B-Ph5	B-Ph6	B-Ph7	B-Ph8	B-Ph9	B-Ph10	B-Ph11	B-Ph12	B-Ph13	B-Ph14	B-Ph15	B-Ph16	aux-1	digaux	

29857.479	1	1	0	256	0.067465	0.22419	0.11688	0.25061	0.060746	0.17306	0.11082	0.18428	0.091845	0.21655	0.2735	0.18216	0.4084	0.091835	0.24738	0.10718	-4.3271	-4.5021	-3.9167	-5.0229	-4.2354	-4.15	-4.9896	-4.1167	-4.5208	-4.5792	-4.1188	-5.0188	-4.3542	-4.1604	-4.9437	-4.0813	156.596	81.925	162.362	342.565	394.902	270.260	242.672	110.000	393.538	142.124	398.271	369.089	98.445	338.502	397.186	372.673	0.0016325	0.00068654	0.00019391	1189.2	4.8021e-06	8.229e-06	1230.6	433.09	1.0578e-05	5.6844e-06	492.27	185.63	159.46	59.562	1.9378e-05	83.373	0.0010674	0.0010725	0.00030054	1084.4	1.1714e-05	1.1838e-05	1116.3	393.25	1.1553e-05	1.197e-05	450.19	168.57	145.54	54.805	1.1873e-05	76.012	320.430	152.269	194.469	86.401	266.470	200.370	85.146	90.548	243.529	132.015	88.168	92.392	94.372	98.888	251.684	95.607	-8191	255	
29857.598	1	1	0	0	0.23743	0.027541	0.09482	0.17665	0.16288	0.23716	0.1778	0.23607	0.19883	0.02964	0.10938	0.20222	0.09702	0.075484	0.27206	0.26941	-4.1667	-4.6146	-3.7354	-4.9021	-4.2583	-3.9688	-5.0813	-4.0646	-4.2646	-4.7979	-4.1542	-4.8688	-4.4146	-4.1729	-4.9521	-4.3042	308.782	354.768	275.368	413.676	241.658	150.919	386.772	415.502	180.763	396.265	372.837	373.531	89.622	319.009	334.495	346.917	0.0020362	0.00048759	0.00019484	1202.6	1.2882e-05	1.522e-05	1247.2	436.67	1.1868e-05	1.0296e-05	496.89	185.24	161.01	59.811	9.3475e-06	83.446	0.0011004	0.0011172	0.00030695	1094.4	1.1881e-05	1.2232e-05	1128.6	396.71	1.2161e-05	1.2212e-05	453.95	169.58	146.09	55.047	1.2009e-05	76.398	315.539	178.415	157.774	86.389	250.917	251.130	85.150	90.728	215.843	207.642	88.357	92.647	94.642	99.056	263.425	95.851	-8191	255	
29857.670	1	1	0	0	0.35484	0.3584	0.11781	0.20553	0.11238	0.07021	0.24907	0.17013	0.10754	0.11061	0.1103	0.13191	0.16987	0.30345	0.19705	0.19862	-3.7958	-4.8979	-3.825	-4.6375	-4.4958	-3.8229	-4.9917	-4.3021	-4.25	-4.8083	-4	-4.6021	-4.575	-3.9625	-4.6417	-4.1979	317.666	369.147	119.794	386.479	345.460	269.279	327.184	115.556	415.550	160.042	356.616	407.081	408.435	114.270	229.742	369.022	0.0018812	0.00075694	0.0003059	1199.2	1.2994e-05	1.7077e-05	1226.5	431.14	1.6193e-05	1.0983e-05	491.83	183.29	157.62	58.877	1.6245e-05	80.941	0.0011207	0.00112	0.00031457	1092.4	1.2064e-05	1.2324e-05	1115.7	392.31	1.2019e-05	1.2394e-05	447.52	166.54	143.76	54.106	1.2224e-05	74.144	319.590	188.383	148.006	86.420	185.540	224.485	85.280	90.800	247.474	250.388	88.198	92.702	94.994	99.223	274.280	95.432	-8191	255	
29857.766	1	1	0	0	0.053841	0.28187	0.080618	0.19078	0.19292	0.11028	0.079735	0.088941	0.24468	0.30203	0.22662	0.21264	0.1937	0.20019	0.14036	0.25395	-3.8375	-4.8438	-3.8896	-4.5396	-4.5375	-3.8375	-4.8479	-4.5563	-4.0833	-4.9875	-4.2646	-4.6208	-4.8771	-4.0396	-4.875	-4.4812	339.512	101.628	239.141	83.916	146.610	393.996	359.667	369.051	189.671	101.638	336.561	414.080	371.490	386.955	306.427	408.260	0.0021557	0.00024609	0.00022304	1184.3	1.5092e-05	1.6216e-05	1215	430.4	2.2534e-05	1.1048e-05	485.72	180.7	156.15	58.318	4.5085e-06	80.493	0.0011106	0.0011137	0.00031258	1075	1.1926e-05	1.2145e-05	1102.4	390.08	1.2078e-05	1.218e-05	442.45	164.46	142.9	53.603	1.225e-05	73.809	314.553	132.868	155.005	86.257	234.974	240.996	84.936	90.718	213.756	154.385	88.157	92.898	95.085	98.956	150.789	96.095	-8191	255	
29857.887	1	1	0	0	0.16852	0.067799	0.14642	0.15521	0.091677	0.28197	0.26712	0.16051	0.071757	0.27561	0.065515	0.16358	0.03064	0.19544	0.13749	0.13405	-3.7396	-4.8812	-3.9917	-4.4083	-4.9	-3.9	-4.8229	-4.75	-3.8021	-4.9625	-4.3979	-4.4437	-5.0604	-3.9292	-4.5896	-4.5396	176.596	287.592	197.569	285.454	184.351	225.994	392.962	369.206	331.056	373.754	148.132	332.750	112.600	401.200	308.478	424.475	0.0018552	0.0011628	9.1613e-05	1186.4	1.6068e-05	2.1018e-06	1218.1	432.53	5.7752e-06	1.0001e-05	490.69	184.06	157.72	59.232	5.0814e-06	82.031	0.0011188	0.0011238	0.000312	1076.9	1.2198e-05	1.2288e-05	1105.5	391.7	1.2166e-05	1.256e-05	447.53	167.13	144.65	54.504	1.254e-05	75.114	315.772	192.217	159.715	86.279	201.123	348.684	85.123	90.811	413.105	252.452	88.082	92.696	94.983	99.194	260.114	95.598	-8191	255	
29857.982	1	1	0	0	0.024081	0.097906	0.16482	0.14784	0.12208	0.071432	0.096182	0.24806	0.05032	0.093871	0.26576	0.26367	0.24386	0.21092	0.281	0.23328	-3.5146	-4.8271	-4.1958	-4.475	-4.6521	-3.8542	-4.7021	-4.7708	-4.0312	-4.9646	-4.2021	-4.2167	-5.0938	-4.1604	-4.6521	-4.9229	411.423	111.367	203.605	97.876	335.123	383.870	398.250	76.643	430.685	336.624	88.146	413.927	374.159	313.635	245.440	137.882	0.0016369	0.00048686	0.00017055	1186.4	6.0049e-06	3.8369e-06	1232.3	431.69	1.9899e-05	9.2236e-06	497.32	184.91	160.59	59.966	1.9207e-05	83.504	0.0011426	0.0011532	0.00032606	1081.1	1.2383e-05	1.2948e-05	1115	393.82	1.2491e-05	1.269e-05	452.96	169.07	146.34	55.18	1.2421e-05	76.275	311.084	143.928	220.388	86.184	234.104	113.183	85.046	90.638	189.228	189.446	88.400	92.400	94.795	99.233	187.157	95.640	-8191	255	
29858.078	1	1	0	0	0.12162	0.037811	0.0066268	0.30809	0.19554	0.21712	0.11484	0.31916	0.17921	0.37036	0.26881	0.26993	0.11635	0.19186	0.077701	0.040379	-3.6312	-4.6708	-4.3021	-4.2042	-4.9896	-3.8812	-4.5375	-4.8729	-3.7958	-4.8229	-4.6167	-4.1292	-4.9688	-4.2396	-4.4042	-5.025	410.392	272.967	125.867	382.523	182.684	192.830	382.818	409.378	143.437	395.090	390.378	363.433	107.684	403.978	220.613	245.706	0.0017341	0.00070062	0.00024905	1194.9	1.1072e-05	1.0002e-05	1238.4	435.62	1.9994e-05	8.6973e-06	497.49	186.42	159.55	59.573	4.3231e-06	82.878	0.0011471	0.0011436	0.00032416	1091	1.2572e-05	1.287e-05	1122	396.59	1.2591e-05	1.2533e-05	453.08	168.95	145.8	54.812	1.2564e-05	75.641	320.421	173.943	163.280	86.180	226.982	252.234	85.155	90.818	218.647	140.705	88.518	92.867	94.820	99.112	279.796	95.900	-8191	255	
29858.174	1	1	0	0	0.060251	0.17319	0.19371	0.4073	0.09308	0.26521	0.28484	0.26931	0.24521	0.20738	0.23144	0.35059	0.22382	0.27504	0.21077	0.15637	-3.5417	-4.8708	-4.3646	-4.3562	-5.0375	-4.1417	-4.4125	-5	-3.875	-4.8	-4.7896	-4.1042	-5	-4.3479	-4.1458	-4.9667	237.212	201.508	99.160	339.808	160.256	386.610	329.315	372.435	276.985	83.346	89.693	379.817	338.801	362.024	149.982	378.228	0.0017565	0.0010973	0.00033413	1196.1	7.2634e-06	1.3279e-05	1223.5	428.03	8.846e-06	1.2762e-05	489.17	182.68	158.29	58.978	7.5909e-06	81.062	0.0011292	0.0011235	0.0003169	1084.7	1.222e-05	1.2579e-05	1108.3	391.12	1.2292e-05	1.2421e-05	446.28	166.33	144.11	54.331	1.2467e-05	74.351	319.443	170.638	185.866	86.438	256.509	245.861	84.756	90.747	201.629	242.394	88.521	92.678	94.759	99.051	229.944	95.535	-8191	255	
29858.293	1	1	0	0	0.20632	0.14982	0.032472	0.16806	0.062829	0.080457	0.20445	0.17563	0.32164	0.17261	0.087344	0.22984	0.18533	0.28087	0.22876	0.10715	-3.7875	-4.5188	-4.5729	-4.0542	-4.9333	-4.2208	-4.1333	-4.9708	-3.8312	-4.5042	-4.6542	-4.1562	-4.8979	-4.4604	-3.9958	-4.9	421.829	280.981	119.687	159.647	240.347	326.034	292.644	368.350	257.213	277.406	89.974	369.711	76.266	394.965	280.342	190.103	0.0014513	0.00090098	0.00028179	1182.1	1.1634e-05	7.8011e-06	1215.9	425.38	1.4277e-05	1.0827e-05	486.83	182.04	157.31	59.092	4.0038e-06	81.438	0.0011545	0.0011566	0.00031792	1073.7	1.247e-05	1.2621e-05	1100.4	388.8	1.254e-05	1.2699e-05	444.59	165.88	143.57	54.029	1.2734e-05	74.646	322.632	148.039	151.360	85.998	232.825	205.245	84.756	90.495	206.673	217.327	88.390	92.739	94.745	99.097	245.567	95.456	-8191	255	
29858.365	1	1	0	0	0.20008	0.11107	0.078079	0.22431	0.068549	0.093776	0.37152	0.059744	0.20075	0.11758	0.23842	0.040243	0.052677	0.12605	0.14662	0.32236	-3.7438	-4.5042	-4.8625	-4.1292	-4.7312	-4.3812	-4.2146	-5.0813	-4.0938	-4.3063	-4.8521	-4.0563	-4.7604	-4.4771	-4.0875	-5.1208	308.107	327.349	210.597	364.996	390.890	233.738	399.205	290.201	144.240	73.963	343.624	319.184	88.434	165.763	416.388	368.890	0.0017312	0.0010659	0.00030694	1184.4	4.0717e-06	1.0143e-05	1216.3	429.08	1.2152e-05	1.8434e-06	493.54	182.78	157.9	59.254	1.4181e-05	81.917	0.0011861	0.0011639	0.00032485	1075.9	1.261e-05	1.298e-05	1103.7	391.18	1.2864e-05	1.2878e-05	448.48	167.13	143.89	54.568	1.3039e-05	75.539	316.849	143.667	229.033	86.046	230.573	109.806	85.167	90.778	226.905	218.189	88.561	92.220	94.704	99.299	150.922	95.730	-8191	255	
29858.463	1	1	0	0	0.21072	0.18878	0.16781	0.2427	0.1439	0.18663	0.25928	0.13106	0.14947	0.12473	0.123	0.19092	0.1368	0.21493	0.15473	0.088337	-3.7	-4.3583	-4.8042	-3.9542	-4.6062	-4.5854	-4.1687	-4.9375	-4.3271	-4.3479	-4.9792	-4.0854	-4.5875	-4.7542	-3.95	-4.9812	383.970	196.222	413.363	405.174	84.708	289.312	362.728	399.731	104.815	246.253	334.509	409.967	78.516	403.749	421.465	321.791	0.0020049	0.00024206	7.4106e-05	1187.3	1.3964e-05	5.9768e-06	1226.4	432.8	1.9629e-05	8.8325e-06	496.48	185.63	159.4	60.293	1.3483e-05	84.038	0.0011958	0.0011913	0.00033438	1083	1.3225e-05	1.3224e-05	1112.3	393.84	1.3191e-05	1.3433e-05	452.8	169.42	146.3	55.632	1.354e-05	77.456	322.392	371.508	268.799	86.113	235.522	312.479	85.136	90.714	225.907	223.995	88.469	92.635	94.499	99.312	250.356	95.571	-8191	255	
29858.559	1	1	0	0	0.084518	0.25739	0.11522	0.29411	0.098302	0.22939	0.25478	0.31464	0.024495	0.28636	0.14618	0.18867	0.40693	0.28523	0.19799	0.30992	-3.9062	-4.1438	-4.8875	-4.125	-4.4542	-4.7104	-4.1312	-5.0312	-4.2583	-4.1646	-4.9875	-4.1729	-4.4708	-4.8646	-3.8854	-5.0667	416.865	330.266	381.049	103.323	306.991	199.864	370.560	406.457	105.114	282.097	265.653	383.063	378.921	366.638	237.362	328.086	0.0016726	0.0015057	0.00032984	1195.8	7.8267e-06	7.153e-06	1241.7	435.15	3.4534e-05	9.8086e-06	494.64	184.8	159.21	60.474	1.3759e-05	83.323	0.0012489	0.0012612	0.00034299	1091.1	1.3231e-05	1.3455e-05	1123.4	395.8	1.3371e-05	1.3535e-05	453.12	168.9	145.65	55.65	1.3536e-05	76.621	321.824	142.018	156.920	86.151	258.161	276.435	85.168	90.486	236.327	238.896	88.194	92.785	94.584	99.132	239.925	95.757	-8191	255	
29858.678	1	1	0	0	0.012877	0.15491	0.07496	0.051971	0.22971	0.1619	0.15851	0.17272	0.16912	0.16944	0.10532	0.17	0.091217	0.18069	0.25368	0.36026	-3.9604	-4.1417	-4.9563	-4.0708	-4.3438	-4.7292	-3.9688	-4.9271	-4.375	-3.8646	-4.9667	-4.2771	-4.2312	-4.9521	-3.9104	-4.7438	210.974	251.677	408.974	87.335	164.031	350.419	387.561	375.253	196.014	137.708	135.442	308.311	403.017	104.202	193.372	372.830	0.0017298	0.0015872	0.00023306	1182.3	1.0792e-05	5.3954e-06	1212.7	427.11	2.1974e-05	5.8246e-06	485.02	182.04	155.44	59.189	1.4135e-05	82.194	0.001238	0.001248	0.00034123	1078.1	1.3177e-05	1.3458e-05	1100.2	389.05	1.3538e-05	1.3352e-05	443.38	165.51	142.85	54.526	1.3682e-05	75.566	311.998	218.806	139.913	86.010	220.170	283.706	85.031	90.443	213.458	187.122	88.181	92.630	94.793	98.977	182.360	95.243	-8191	255	
29858.773	1	1	0	0	0.1057	0.099872	0.21599	0.21235	0.058157	0.069691	0.23166	0.093745	0.15731	0.18222	0.28351	0.19398	0.2481	0.15945	0.10785	0.22698	-4.2792	-3.9437	-5.0375	-4.3042	-4.2917	-5.0271	-4.0062	-4.6188	-4.5458	-3.8833	-4.8479	-4.2521	-4.2021	-4.9563	-3.8667	-4.475	161.605	345.828	423.378	390.067	180.104	200.416	373.231	85.735	117.302	282.490	412.678	358.401	422.080	377.786	287.442	395.119	0.0019974	0.00028159	0.00018271	1169.8	1.2245e-05	1.8886e-05	1200.7	431.02	2.2132e-05	6.8381e-07	492.52	185.12	159.46	61.092	1.7351e-05	84.767	0.0012448	0.0012576	0.00034532	1065.5	1.3503e-05	1.3717e-05	1096.9	392.55	1.3718e-05	1.3939e-05	450.87	169.26	145.74	56.226	1.3936e-05	78.022	308.897	347.435	172.312	86.281	220.833	266.579	85.130	90.559	205.144	400.424	88.560	92.838	94.821	99.308	264.752	95.379	-8191	255	
29858.869	1	1	0	0	0.14862	0.037571	0.078029	0.15392	0.188	0.24806	0.367	0.27946	0.16818	0.088296	0.0335	0.16945	0.26987	0.11649	0.03234	0.36521	-4.3063	-3.9396	-4.7479	-4.4688	-4.0687	-4.95	-4.1396	-4.4542	-4.6813	-3.9792	-4.8354	-4.4896	-4.1792	-4.8542	-4.1521	-4.3979	330.962	199.516	153.479	273.060	77.745	359.453	379.012	394.519	187.681	215.411	80.856	424.622	381.201	87.615	226.981	304.015	0.0020721	0.00023072	0.00013276	1183.2	7.7956e-06	3.1822e-06	1223.1	433.95	2.5297e-05	1.3943e-05	497.24	186.01	158.43	60.311	1.2203e-05	84.5	0.0012667	0.0012856	0.00035713	1079.9	1.3868e-05	1.3829e-05	1111.6	396.47	1.3545e-05	1.3718e-05	455.12	170.16	144.97	55.908	1.3439e-05	77.939	315.012	204.740	196.190	86.336	220.656	291.640	85.142	90.482	196.716	223.766	88.140	92.724	94.378	99.054	234.147	95.482	-8191	255	
29858.967	1	1	0	0	0.16812	0.25391	0.19027	0.13897	0.1083	0.10387	0.33603	0.14614	0.062727	0.14262	0.10087	0.17048	0.049616	0.068094	0.066667	0.11085	-4.5563	-3.9771	-4.7375	-4.5458	-3.9479	-5.0354	-4.3562	-4.3021	-4.6396	-3.975	-4.9042	-4.6708	-4.0854	-5.1188	-4.1458	-4.3375	347.348	369.997	404.042	412.993	315.751	218.647	366.909	108.555	414.977	99.764	300.133	425.172	138.779	265.390	222.909	317.988	0.0017843	0.0016961	0.00016325	1187.9	9.2925e-06	5.45e-06	1232.9	436.92	2.3439e-05	8.2025e-06	503.35	187.79	159.23	60.587	1.1338e-05	85.632	0.0012319	0.0012312	0.0003486	1086.6	1.3225e-05	1.3534e-05	1120.9	396.11	1.3379e-05	1.3358e-05	458.69	171.01	145.99	56.116	1.3655e-05	78.729	318.967	169.091	153.952	86.545	292.375	385.271	85.406	90.470	232.782	345.893	88.593	92.707	94.842	98.984	216.114	95.639	-8191	255	
29859.062	1	1	0	0	0.074201	0.10037	0.13167	0.27569	0.15116	0.062662	0.19576	0.087696	0.14265	0.1376	0.19042	0.021545	0.14013	0.17533	0.048393	0.22159	-4.6062	-3.9021	-4.5375	-4.7021	-3.9688	-4.8542	-4.4021	-4.3146	-4.8646	-4.0312	-4.7688	-4.7417	-3.9833	-4.9042	-4.3646	-4.1875	388.753	303.688	273.165	365.567	103.052	89.490	88.022	391.414	73.481	360.172	388.323	182.163	281.990	354.518	383.461	393.356	0.0016845	0.00047964	0.00030115	1200.1	1.6183e-05	1.0161e-05	1222.2	426.41	1.6674e-05	5.0794e-06	482.26	181.32	154.17	58.537	1.1885e-05	82.156	0.0012521	0.0012584	0.00034648	1091.4	1.3389e-05	1.3531e-05	1107.8	389.4	1.2946e-05	1.3192e-05	441.68	164.47	140.49	54.04	1.3055e-05	75.135	313.405	154.035	209.119	86.372	209.933	254.535	85.115	90.601	224.017	121.408	88.359	92.772	94.692	99.167	195.193	95.476	-8191	255	
29859.158	1	1	0	0	0.18904	0.16096	0.24732	0.08148	0.24562	0.18671	0.13199	0.16493	0.080306	0.24123	0.34868	0.22054	0.15269	0.15933	0.026975	0.20617	-4.5667	-4.1646	-4.3688	-5.0292	-3.8187	-4.7104	-4.6479	-4.2417	-4.8458	-4.1708	-4.6813	-4.8521	-3.9667	-4.9062	-4.2875	-4.0917	109.159	282.295	329.019	369.144	220.005	149.641	401.002	383.554	241.226	425.990	413.617	396.665	420.880	399.348	173.275	378.539	0.0015603	0.00038597	0.00026936	1167.6	1.0753e-05	1.1965e-05	1189.3	422.97	1.0161e-05	1.2146e-05	480.63	180.97	154.67	59.25	2.0075e-05	82.849	0.0011988	0.0012002	0.00033118	1060.8	1.2925e-05	1.2781e-05	1082.9	385.34	1.2531e-05	1.3157e-05	441.68	165.29	141.57	54.46	1.3247e-05	75.881	324.121	299.194	133.366	86.268	218.824	259.364	84.908	90.529	238.427	199.850	88.250	92.740	94.619	99.094	226.730	95.520	-8191	255	
29859.279	1	1	0	0	0.092047	0.16861	0.21621	0.3613	0.036405	0.16406	0.10919	0.27211	0.11301	0.1829	0.27489	0.10598	0.20954	0.13309	0.11842	0.14193	-4.5813	-3.9813	-4.2104	-4.9833	-3.8229	-4.675	-4.6771	-4.2021	-4.9083	-4.0979	-4.3667	-4.9333	-3.9875	-4.6729	-4.5958	-4.0312	161.256	148.906	278.394	74.451	362.614	208.756	318.152	390.891	363.888	374.473	372.808	87.297	348.584	409.655	180.334	105.494	0.0017141	0.0011222	0.00018629	1177.8	9.0764e-06	7.9563e-06	1198.7	423.04	1.1334e-05	7.3197e-06	478.36	178.62	150.65	57.349	2.2455e-05	79.523	0.001206	0.0012188	0.00033727	1069	1.3361e-05	1.3406e-05	1092.3	385.44	1.3204e-05	1.3248e-05	437.54	162.49	138.23	52.705	1.3053e-05	73.03	307.331	159.697	227.828	86.304	104.679	208.082	84.972	90.316	305.476	285.393	88.358	92.631	94.645	99.426	230.504	95.483	-8191	255	
29859.375	1	1	0	0	0.066225	0.072721	0.047253	0.23764	0.056906	0.0079191	0.080233	0.071397	0.15686	0.074515	0.12476	0.22016	0.036197	0.28468	0.14502	0.33091	-4.5188	-4.2125	-4.0292	-4.9542	-3.7458	-4.4375	-4.9292	-4.0604	-4.8313	-4.2562	-4.2146	-4.8354	-4.0979	-4.5375	-4.6646	-3.9875	325.960	271.341	120.748	408.312	336.209	402.905	226.654	333.960	189.459	132.843	414.461	77.253	162.836	141.308	166.001	366.254	0.0016209	0.000884	0.00026987	1152.2	4.4883e-06	7.6113e-06	1184	413.75	1.5604e-05	6.2419e-06	468.28	175.54	149.17	56.255	9.6445e-06	79.865	0.0011922	0.0011931	0.0003316	1051.5	1.2878e-05	1.3053e-05	1071.8	376.29	1.2883e-05	1.2937e-05	429.18	159.75	136.33	51.992	1.3031e-05	73.255	316.109	129.442	185.076	86.197	237.307	229.151	85.218	90.463	240.705	224.137	88.267	92.720	94.528	99.179	265.419	95.766	-8191	255	
29859.469	1	1	0	0	0.072733	0.087057	0.039772	0.2505	0.1518	0.15938	0.34127	0.1724	0.11095	0.29394	0.37406	0.10451	0.15065	0.26738	0.0061632	0.21003	-4.4187	-4.4375	-4.0229	-4.9896	-4.0062	-4.3354	-4.8833	-4.0917	-4.6208	-4.4104	-4.1312	-4.9146	-4.3417	-4.4021	-4.7354	-4.075	277.060	105.741	378.437	380.161	181.950	202.299	360.151	356.182	195.469	392.252	382.500	98.539	405.931	409.610	247.786	108.065	0.001748	0.00041818	0.00019626	1155.1	9.5114e-06	1.1334e-05	1192	416.12	1.4431e-05	7.6221e-06	476.7	177.93	151.15	58.459	1.217e-05	82.449	0.0011933	0.0012059	0.00033486	1055.8	1.3078e-05	1.3137e-05	1080.7	379.88	1.3069e-05	1.3386e-05	436.47	162.67	138.89	53.761	1.3359e-05	75.625	318.733	232.859	226.680	86.375	278.661	236.317	85.276	90.682	226.922	163.729	88.316	93.097	94.924	99.095	232.114	95.609	-8191	255	
29859.590	1	1	0	0	0.27486	0.06874	0.049809	0.045458	0.018628	0.19979	0.389	0.32833	0.33303	0.087307	0.15316	0.14369	0.28259	0.33135	0.18285	0.22605	-4.4021	-4.6396	-4.0813	-5.0437	-4.1625	-4.3479	-4.9208	-4.0375	-4.6146	-4.6167	-4.1021	-5.0062	-4.2792	-4.2646	-4.7521	-4.0396	115.678	368.435	391.003	418.873	218.997	295.612	392.959	402.211	429.907	313.668	362.758	414.106	422.885	358.850	314.980	336.721	0.0017069	0.00086607	0.00015144	1171.6	1.3589e-06	9.5453e-07	1192.6	416.82	1.2024e-06	9.6238e-06	474.29	178.45	150.08	57.543	2.5491e-06	80.639	0.0012318	0.0012535	0.00034592	1064.3	1.3342e-05	1.3739e-05	1084.7	380.19	1.3306e-05	1.3533e-05	434.35	162.27	138.15	53.198	1.361e-05	73.871	319.875	181.681	185.329	86.432	274.313	259.010	85.216	90.549	294.692	210.795	88.109	92.636	94.708	99.358	207.333	95.585	-8191	255	
29859.662	1	1	0	0	0.14195	0.30819	0.17821	0.10008	0.08983	0.22663	0.15773	0.28945	0.090478	0.064283	0.084315	0.13099	0.098316	0.052926	0.061843	0.25573	-4.2688	-4.7271	-3.9208	-4.975	-4.2458	-4.1125	-4.9479	-4.1646	-4.45	-4.8063	-3.9771	-4.9187	-4.4083	-4.2271	-4.925	-4.2396	113.016	202.369	163.645	394.336	161.071	240.109	236.280	427.191	348.304	264.005	233.887	347.932	378.836	347.793	208.579	90.885	0.0016844	0.00049821	0.00016978	1152.2	7.9035e-06	6.7344e-06	1168.4	412.75	3.8698e-06	1.0494e-05	467.76	175.6	149.42	57.445	1.2219e-05	80.433	0.0012354	0.001252	0.00034737	1046.4	1.3281e-05	1.3396e-05	1063.4	375.88	1.3121e-05	1.3593e-05	428.19	160.26	137.33	52.875	1.3177e-05	73.944	325.674	185.819	272.547	86.182	223.046	299.854	85.134	90.669	137.593	200.384	88.352	92.978	94.907	98.758	235.519	95.961	-8191	255	
29859.758	1	1	0	0	0.19849	0.127	0.16301	0.23851	0.04735	0.33206	0.17777	0.154	0.19248	0.044257	0.045554	0.31084	0.3204	0.16284	0.16438	0.054895	-4.0625	-4.6417	-3.9417	-5.0062	-4.3771	-4.1354	-5.0458	-4.2708	-4.4021	-4.8396	-4.0521	-4.875	-4.7021	-4.0833	-4.8479	-4.0958	284.371	161.752	119.882	115.569	377.569	139.575	429.437	85.711	325.616	378.658	229.581	342.387	101.932	81.449	329.756	398.792	0.0018629	0.0011854	0.00018796	1157	8.3752e-06	9.3282e-06	1185.9	418.85	1.9999e-05	3.0102e-06	477.44	180.09	151.92	58.171	1.3785e-05	82.345	0.0012174	0.0012116	0.00034097	1053.7	1.3161e-05	1.3549e-05	1079.7	381.67	1.3563e-05	1.3546e-05	438.24	163.71	139.31	53.741	1.3809e-05	75.837	323.591	217.150	208.896	86.037	196.535	170.779	85.081	90.893	262.344	386.382	88.384	92.496	94.902	98.865	236.203	95.615	-8191	255	
29859.854	1	1	0	0	0.11546	0.251	0.1396	0.14169	0.19225	0.28868	0.29369	0.14896	0.13062	0.033277	0.18897	0.17759	0.28038	0.17743	0.081138	0.30991	-4.0312	-4.7292	-4.0333	-4.8229	-4.5896	-3.8854	-4.8958	-4.35	-4.225	-4.8542	-3.975	-4.7333	-4.7167	-4.0146	-4.9208	-4.2667	342.368	268.768	132.478	333.728	114.754	310.871	383.668	382.064	346.119	240.085	378.482	402.450	427.874	308.764	369.289	342.585	0.0016872	0.00036676	0.00016658	1168.3	1.5163e-05	1.2935e-05	1195.4	422.92	2.0061e-05	1.1862e-05	487.34	182.41	154.82	59.203	9.203e-06	84.804	0.0012639	0.0012637	0.00035554	1065.5	1.3662e-05	1.3964e-05	1092.1	386.22	1.3929e-05	1.3933e-05	444.15	166.26	141.83	54.721	1.4196e-05	77.793	319.424	100.491	226.802	86.432	239.109	225.347	84.889	90.487	252.669	174.296	87.960	92.595	94.817	99.061	281.555	95.794	-8191	255	
29859.975	1	1	0	0	0.18105	0.059399	0.048078	0.30205	0.16787	0.3132	0.15344	0.41329	0.14052	0.1485	0.064235	0.1939	0.060431	0.16417	0.19204	0.11531	-3.8937	-4.8292	-3.9625	-4.6042	-4.6354	-4.0021	-4.9979	-4.45	-4.2188	-4.8729	-4.1208	-4.5646	-4.9333	-4.0042	-4.7896	-4.6167	200.189	85.024	292.728	74.049	249.233	366.553	347.512	389.207	191.816	322.954	98.819	366.870	80.188	392.318	242.228	380.787	0.0018602	0.00026048	0.00046569	1178.2	1.5477e-05	7.2062e-06	1219.2	428.02	3.2136e-06	8.3143e-06	494.74	184.73	156.89	60.117	2.2517e-05	84.791	0.0013297	0.0013102	0.00037138	1075.9	1.4418e-05	1.4609e-05	1106.4	391.71	1.4531e-05	1.4671e-05	452.41	169.2	144.21	55.733	1.438e-05	78.341	313.208	295.753	166.544	86.401	264.953	273.390	85.150	90.558	213.643	194.387	88.242	92.657	94.994	98.952	216.421	95.463	-8191	255	
29860.070	1	1	0	0	0.12135	0.23229	0.19706	0.26739	0.13052	0.12071	0.12467	0.14888	0.18506	0.21965	0.29128	0.26281	0.18026	0.20983	0.34052	0.25894	-3.6875	-4.8125	-4.0396	-4.275	-4.8083	-4.0208	-4.7438	-4.5542	-4.0479	-4.9375	-4.1875	-4.3875	-4.9187	-4.2167	-4.5938	-4.6521	147.678	243.523	218.838	382.104	393.159	107.751	195.807	382.314	121.043	400.076	370.147	346.017	132.937	424.977	301.511	400.968	0.0021204	0.00066729	0.00017429	1181	1.2298e-05	5.9863e-06	1203.8	421.7	1.3805e-05	5.7129e-06	477.98	179.38	152.3	57.488	9.742e-06	81.839	0.0013119	0.0013154	0.00036308	1075.2	1.3702e-05	1.4192e-05	1097.2	385.04	1.373e-05	1.3887e-05	439.44	163.56	139.13	53.289	1.3586e-05	74.972	309.617	128.162	143.786	86.101	216.118	256.456	85.039	90.577	260.689	195.864	88.575	92.560	94.680	99.277	226.737	95.799	-8191	255	
29860.168	1	1	0	0	0.058831	0.024268	0.10227	0.14519	0.26292	0.08727	0.32401	0.27197	0.33231	0.14836	0.34323	0.27104	0.088772	0.21684	0.36391	0.37381	-3.7646	-4.875	-4.0437	-4.2146	-4.8771	-3.9875	-4.8938	-4.6271	-4.0167	-4.7875	-4.3938	-4.4688	-5.0229	-4.15	-4.375	-4.7604	241.264	201.722	425.365	367.461	118.200	290.594	332.006	319.272	290.483	212.537	400.266	96.404	390.469	83.684	310.639	81.990	0.0018852	0.0018402	0.00025723	1151.4	1.1225e-05	7.6243e-06	1176.3	411.11	2.0919e-05	7.7134e-06	467.51	175.14	149.19	56.573	1.6379e-05	79.913	0.0012214	0.0012314	0.00034349	1048.4	1.3135e-05	1.3155e-05	1066.7	375.3	1.3318e-05	1.3043e-05	427.47	159.46	136.56	52.333	1.3337e-05	73.662	314.185	155.797	208.276	85.922	205.206	183.916	85.295	90.189	216.027	279.363	88.692	92.131	94.839	98.909	218.917	95.798	-8191	255	
29860.238	1	1	0	0	0.29288	0.055245	0.27534	0.22562	0.067542	0.20646	0.16463	0.22153	0.045519	0.14305	0.18061	0.2339	0.14544	0.45218	0.36014	0.13313	-3.4979	-4.8708	-4.3521	-4.3313	-4.9479	-4.0667	-4.6229	-4.9125	-3.9	-4.7167	-4.5104	-4.1625	-5.0229	-4.2562	-4.3667	-4.825	292.656	245.381	108.913	133.579	336.450	393.108	306.605	359.639	330.872	367.678	337.029	308.938	424.893	96.135	376.825	167.978	0.001859	0.00075888	0.00040042	1149.2	9.1502e-06	1.1794e-05	1175.5	414.23	1.3197e-05	4.1089e-06	471.2	177.49	150.08	57.844	1.1554e-05	81.664	0.0012229	0.001245	0.00034423	1045.6	1.3226e-05	1.3362e-05	1071	377.7	1.337e-05	1.3475e-05	431.46	161.58	138.23	53.351	1.3595e-05	75.148	317.911	177.268	144.694	85.882	240.529	298.609	84.879	90.565	254.078	231.332	88.197	92.486	95.063	99.059	162.438	95.925	-8191	255	
29860.359	1	1	0	0	0.20802	0.20006	0.24575	0.14042	0.12369	0.1142	0.080274	0.23825	0.25727	0.08886	0.28614	0.025755	0.023988	0.087207	0.20055	0.16296	-3.6542	-4.8208	-4.3833	-4.1604	-4.8958	-4.0542	-4.4292	-4.9667	-3.8563	-4.7875	-4.6979	-4.1854	-4.8896	-4.3229	-4.1854	-5.0583	100.210	223.558	426.030	408.476	308.145	246.661	419.186	80.101	74.768	143.886	319.290	230.378	403.500	122.989	317.354	214.578	0.0020704	0.00079365	0.00017849	1156.9	5.736e-06	4.1056e-06	1189.9	418.34	6.8935e-06	2.1284e-05	474.94	179.13	152.84	58.709	2.3403e-06	82.332	0.0012617	0.00125	0.00035461	1054.1	1.366e-05	1.3904e-05	1080.2	382.64	1.4077e-05	1.4216e-05	438.6	164.05	140.3	54.228	1.4202e-05	76.189	317.670	184.483	122.019	86.394	242.041	238.677	84.867	90.639	197.238	192.661	88.543	92.346	94.817	98.980	125.954	95.856	-8191	255	
29860.455	1	1	0	0	0.15039	0.1214	0.07702	0.10194	0.25686	0.014574	0.19032	0.34418	0.29724	0.066024	0.079661	0.090596	0.16614	0.11306	0.24202	0.1187	-3.7062	-4.45	-4.55	-4.1625	-4.9708	-4.4437	-4.3938	-5.1208	-4.05	-4.5792	-4.7937	-3.9208	-4.9125	-4.5125	-3.9646	-5.0563	253.814	357.325	215.299	345.557	271.636	146.254	353.590	357.860	86.261	192.960	349.090	385.542	304.165	97.361	106.984	96.916	0.0018217	0.0005586	0.00026423	1162.7	6.0927e-06	1.1662e-05	1191.3	418.98	1.3479e-05	9.0785e-06	481.74	180.97	153.92	59.159	1.2285e-05	83.815	0.0013073	0.0013138	0.00036573	1061	1.4032e-05	1.4315e-05	1086.1	383.59	1.4094e-05	1.4541e-05	442.39	165.45	140.77	54.633	1.4341e-05	76.931	326.781	228.429	86.343	86.356	186.550	214.642	84.926	90.942	224.734	175.730	88.454	92.714	94.805	99.354	175.458	95.819	-8191	255	
29860.553	1	1	0	0	0.27048	0.17686	0.027507	0.25447	0.1872	0.21477	0.19393	0.27501	0.046046	0.20007	0.28424	0.065386	0.18896	0.38028	0.13279	0.37647	-3.8646	-4.3917	-4.7063	-3.9875	-4.7937	-4.4021	-4.2729	-4.9958	-4.0563	-4.2771	-4.9688	-4.0896	-4.8521	-4.6646	-3.8229	-4.9542	362.813	219.776	266.770	364.370	294.300	425.173	331.209	391.930	172.720	314.789	334.032	78.020	362.468	426.818	201.372	417.214	0.0018148	0.0012144	0.00020747	1153.3	9.8627e-06	2.8072e-06	1186.6	418.88	1.6112e-05	4.6981e-06	482.5	179.67	152.51	58.342	8.3387e-06	82.137	0.0013061	0.0013043	0.00036772	1057.1	1.4129e-05	1.4364e-05	1082.9	383.43	1.398e-05	1.4321e-05	440	164.16	140.24	54.006	1.4072e-05	75.377	329.475	110.439	146.800	86.155	213.484	248.225	85.323	90.613	212.270	176.891	89.017	92.740	94.810	99.222	197.186	95.427	-8191	255	
29860.670	1	1	0	0	0.055188	0.23503	0.16653	0.33439	0.28273	0.13781	0.15821	0.17218	0.12249	0.12041	0.075101	0.12724	0.12083	0.16807	0.048893	0.23614	-3.7188	-4.2458	-4.8042	-3.9708	-4.7667	-4.6542	-4.2396	-4.9479	-4.1375	-4.2792	-4.925	-3.9292	-4.7292	-4.7625	-3.9813	-4.8583	317.514	339.089	382.163	424.803	274.197	279.234	399.125	403.950	251.597	312.638	429.117	96.626	386.203	422.930	124.646	304.099	0.0020777	0.00036277	0.00017952	1143.3	5.1746e-06	8.9376e-06	1167.2	412.89	6.7197e-06	6.4062e-06	472.68	176.69	150.18	57.569	1.4469e-05	80.97	0.0012823	0.0012943	0.00035627	1041.9	1.3947e-05	1.4248e-05	1063.1	375.96	1.3972e-05	1.3894e-05	431.21	160.65	137.91	53.221	1.3924e-05	74.622	312.294	95.974	203.029	86.337	262.745	279.825	85.335	90.510	213.089	298.643	88.212	92.627	94.646	99.265	256.982	95.598	-8191	255	
29860.768	1	1	0	0	0.251	0.14521	0.14619	0.25394	0.078343	0.15645	0.18638	0.32382	0.066974	0.15719	0.012087	0.16992	0.12576	0.21127	0.19339	0.29437	-3.9833	-4.0354	-4.8833	-4.1958	-4.4313	-4.6979	-4.0708	-4.8479	-4.3354	-4.2229	-5	-4.1521	-4.5104	-4.8896	-3.7146	-4.7125	140.416	309.489	194.853	401.971	150.347	255.929	418.803	360.775	222.505	131.728	109.335	78.654	80.567	85.560	390.944	321.613	0.0021176	0.00037112	0.00023372	1144.5	1.9168e-05	6.9077e-06	1174.7	415.9	6.9957e-06	1.1307e-05	468.59	177.06	152.18	57.933	1.4308e-05	82.136	0.001265	0.0012644	0.00035545	1044.6	1.3717e-05	1.403e-05	1068.2	377.47	1.3793e-05	1.3985e-05	431.99	161.53	138.63	53.39	1.359e-05	75.263	312.774	236.275	224.056	86.392	241.559	224.440	85.135	90.451	173.629	152.023	88.289	92.607	94.857	99.387	243.794	95.879	-8191	255	
29860.838	1	1	0	0	0.099401	0.16736	0.13392	0.18187	0.1323	0.085017	0.16772	0.1272	0.064658	0.43522	0.10119	0.13595	0.12416	0.025005	0.078212	0.19884	-4.1396	-3.925	-4.8542	-4.2167	-4.3146	-4.8063	-4.1146	-4.8729	-4.4979	-4.0813	-5.0229	-4.2208	-4.2521	-4.8167	-3.9167	-4.7	85.872	153.889	343.111	77.034	170.655	379.619	415.142	394.560	178.915	294.091	361.495	388.077	119.622	242.488	295.794	393.289	0.0017635	0.00049888	0.00016491	1148.4	1.1903e-05	7.0854e-06	1192.6	420.64	1.0418e-05	2.0562e-06	480.26	180.49	153.92	58.842	5.2296e-06	83.73	0.0012552	0.0012522	0.0003466	1052.9	1.3631e-05	1.3711e-05	1082	382.73	1.3428e-05	1.3519e-05	439.6	165.12	140.48	54.29	1.3628e-05	76.848	311.081	146.597	182.799	86.516	218.919	279.054	84.850	90.756	311.694	122.329	88.289	92.806	94.671	98.974	184.369	95.639	-8191	255	
29860.959	1	1	0	0	0.15743	0.15098	0.38672	0.24466	0.26265	0.085026	0.16986	0.13803	0.13886	0.18068	0.20538	0.14462	0.32822	0.22814	0.047394	0.12172	-4.2625	-4.0646	-4.8729	-4.2292	-4.2458	-4.8292	-4.0458	-4.7396	-4.4583	-3.9083	-4.925	-4.3042	-4.2417	-4.8812	-4.0271	-4.6687	421.143	278.863	100.838	375.615	195.407	235.605	393.789	87.945	265.842	194.805	332.622	420.797	337.746	402.451	125.428	117.170	0.0017686	0.00082514	0.00035884	1176	1.2368e-05	1.1008e-05	1201.7	428.6	8.4236e-06	6.4354e-06	491.82	185.02	155.72	59.139	6.456e-06	83.561	0.0012467	0.0012495	0.00034741	1069.1	1.3154e-05	1.3587e-05	1097.9	389.63	1.3343e-05	1.35e-05	449.04	168.28	142.58	54.673	1.3477e-05	77.118	318.691	172.479	163.064	86.487	210.601	263.523	85.265	90.788	250.979	187.303	88.194	93.149	94.869	99.230	194.342	95.362	-8191	255	
29861.055	1	1	0	0	0.15012	0.1275	0.045827	0.10165	0.2204	0.1326	0.3455	0.25271	0.20461	0.22647	0.1602	0.17666	0.13871	0.15545	0.074394	0.11107	-4.3562	-3.8708	-4.7958	-4.4958	-4.1271	-4.9938	-4.0542	-4.5229	-4.7375	-3.9479	-4.7521	-4.6021	-4.1979	-5.0687	-4.075	-4.4896	265.664	320.578	350.981	372.405	231.240	188.108	367.773	371.908	101.724	329.184	335.062	385.991	85.376	109.317	325.756	325.979	0.0020363	0.00071783	0.00027574	1164.2	9.5944e-06	5.9654e-06	1207.8	424.34	1.574e-05	8.0952e-06	480.28	180.64	154.29	58.558	1.2523e-05	83.085	0.0012303	0.001231	0.00034205	1063.5	1.3136e-05	1.3298e-05	1091.8	385.6	1.3205e-05	1.3408e-05	441.46	165.28	140.95	54.097	1.3186e-05	76	319.431	138.085	162.699	86.232	146.217	133.879	84.958	90.424	256.190	154.282	88.240	92.458	95.070	99.210	227.132	95.642	-8191	255	
29861.150	1	1	0	0	0.23583	0.20005	0.095957	0.069334	0.077235	0.12815	0.1436	0.19352	0.11885	0.1411	0.13961	0.18741	0.22179	0.19707	0.38467	0.2887	-4.5521	-3.8792	-4.8167	-4.6625	-3.9771	-4.9854	-4.2312	-4.5167	-4.6687	-3.9667	-4.7937	-4.625	-4.0771	-5.0417	-3.9458	-4.3187	259.249	371.482	342.382	425.126	203.632	77.324	104.692	403.321	375.926	205.854	123.797	306.949	390.397	405.221	379.402	384.436	0.0021096	0.00089662	7.1118e-05	1159	8.1531e-06	8.6479e-06	1185.6	420.72	1.1858e-05	4.0585e-06	479.54	179.02	152.71	58.544	5.7832e-06	82.033	0.0012072	0.0011899	0.00033448	1057	1.3079e-05	1.311e-05	1081.2	383.17	1.3171e-05	1.332e-05	439.35	163.55	139.31	53.796	1.3455e-05	75.306	316.131	151.110	201.356	86.306	394.225	251.125	85.288	90.173	293.819	177.073	88.479	92.501	94.640	99.101	201.598	95.535	-8191	255	
29861.271	1	1	0	0	0.11946	0.2732	0.20954	0.2026	0.15648	0.21662	0.3394	0.39818	0.070027	0.25611	0.33983	0.15315	0.26592	0.080228	0.030442	0.14313	-4.5437	-3.9625	-4.6146	-4.7417	-3.825	-4.7979	-4.2521	-4.3854	-4.8229	-3.9625	-4.7271	-4.7479	-4.1021	-5.0396	-4.5104	-4.1417	295.167	250.821	276.487	369.512	331.151	377.767	367.138	394.236	430.788	223.025	415.732	330.104	383.311	358.765	377.751	381.790	0.0017447	0.00057806	0.0003421	1158	1.3505e-05	6.3622e-07	1187	424	2.6158e-05	4.8415e-06	484.62	179.36	153.19	58.996	1.0738e-05	82.964	0.001191	0.0012082	0.0003384	1057.7	1.3114e-05	1.3576e-05	1083.2	385.32	1.3542e-05	1.3503e-05	442.59	164.34	140.13	54.386	1.3768e-05	76.27	317.402	208.719	135.692	86.430	252.662	180.806	85.028	90.392	257.269	148.104	88.250	92.799	94.334	98.932	271.742	95.308	-8191	255	
29861.367	1	1	0	0	0.2005	0.11577	0.055116	0.17933	0.12177	0.12678	0.23436	0.22792	0.20431	0.23867	0.20304	0.27753	0.039354	0.12987	0.13355	0.19563	-4.7438	-3.9417	-4.3771	-4.9	-3.675	-4.8417	-4.4167	-3.9896	-4.8333	-3.9125	-4.45	-5.0104	-3.9083	-4.7438	-4.3063	-4.1979	305.421	193.433	193.343	103.199	357.855	93.430	365.764	353.045	386.437	194.827	75.491	74.511	168.373	339.184	137.577	421.362	0.002044	0.00062811	0.0004229	1162.4	1.5914e-05	8.3642e-06	1194.1	425.58	1.2583e-05	5.8066e-06	489.09	182.38	153.8	59.502	1.4542e-05	84.24	0.0012586	0.0012737	0.0003521	1062.7	1.3633e-05	1.3944e-05	1090.5	386.95	1.3646e-05	1.4104e-05	447.47	166.79	141.55	54.868	1.3972e-05	77.314	320.797	216.779	160.270	86.133	224.326	268.233	84.987	90.197	259.259	340.448	88.299	92.874	94.806	99.286	264.967	95.775	-8191	255	
29861.463	1	1	0	0	0.14945	0.061771	0.265	0.23575	0.034489	0.14474	0.14626	0.23052	0.056674	0.2385	0.082401	0.24822	0.062927	0.14321	0.063213	0.37516	-4.6312	-4.1979	-4.35	-4.9104	-3.7625	-4.7458	-4.6958	-3.9021	-4.8063	-4.0542	-4.2708	-4.9875	-4.0229	-4.7583	-4.4958	-4.0521	250.554	247.594	309.567	115.402	319.006	401.716	360.721	131.263	411.967	106.801	310.637	431.204	402.924	323.954	274.807	275.437	0.0016567	0.0011075	0.00019923	1174.7	1.1746e-05	1.0576e-05	1217.8	426.86	1.9308e-05	7.2096e-06	489.48	181.96	153.79	58.707	7.8869e-06	82.935	0.0012857	0.001285	0.00035858	1073	1.4057e-05	1.4187e-05	1102.4	389.39	1.3994e-05	1.4045e-05	446.88	166.1	141.12	54.054	1.3547e-05	75.877	317.863	187.775	322.240	86.175	251.742	191.036	85.225	90.684	241.650	312.251	88.613	92.586	94.743	99.280	121.167	95.544	-8191	255	
29861.535	1	1	0	0	0.12098	0.17969	0.11646	0.3664	0.11859	0.085673	0.12704	0.25696	0.064145	0.12784	0.14875	0.19554	0.10026	0.24585	0.11493	0.23011	-4.6708	-4.1875	-4.2937	-5.1479	-3.9833	-4.7771	-4.8708	-4.0417	-4.75	-4.4333	-4.1396	-4.9187	-4.0833	-4.6396	-4.5375	-3.9813	306.338	231.310	245.430	377.267	329.529	255.267	362.277	304.554	418.896	155.489	251.580	335.717	112.770	330.506	90.050	391.584	0.0019608	0.00059983	0.00021191	1166.5	1.5096e-05	1.3181e-05	1179.1	415.8	1.447e-05	2.7668e-06	466.9	174.64	148.89	56.608	1.1989e-05	79.347	0.0012414	0.0012458	0.00034134	1061.4	1.3337e-05	1.336e-05	1076.3	378.95	1.3079e-05	1.3407e-05	431.38	159.78	136.5	52.249	1.3197e-05	72.888	316.227	210.236	171.659	86.032	210.626	234.614	85.269	90.536	264.389	169.862	88.119	92.734	94.630	98.811	265.686	95.742	-8191	255	
29861.654	1	1	0	0	0.21969	0.074876	0.072824	0.23267	0.13991	0.092357	0.20924	0.19935	0.14825	0.24577	0.32045	0.041002	0.11479	0.21845	0.066071	0.086307	-4.5	-4.3667	-3.9896	-5.0083	-4.0188	-4.3646	-4.8542	-4.0333	-4.7917	-4.6708	-4.1312	-5.0125	-4.2646	-4.3896	-4.6375	-4.0938	223.412	255.085	367.589	347.447	386.578	409.690	421.721	321.794	148.091	241.567	359.922	249.241	282.874	372.830	220.792	375.094	0.0018599	0.00094606	0.00021208	1138.1	1.7679e-05	6.6023e-06	1171.8	410.57	8.7995e-06	6.4525e-06	467.57	175.2	149.11	56.901	1.0872e-05	79.43	0.0011872	0.0012131	0.00033796	1037.6	1.3137e-05	1.3231e-05	1062.9	373.91	1.299e-05	1.3222e-05	427.75	159.85	137.12	52.551	1.3312e-05	73.132	322.721	123.295	178.311	86.410	188.405	194.011	85.331	90.642	249.777	264.317	88.485	92.625	94.346	98.839	170.093	95.644	-8191	255	
29861.752	1	1	0	0	0.031217	0.18475	0.24923	0.22382	0.050588	0.22171	0.11653	0.17323	0.16147	0.10212	0.18397	0.039617	0.051872	0.20145	0.10643	0.19072	-4.3729	-4.4208	-3.8688	-4.9375	-4.0542	-4.3604	-4.9771	-4.0146	-4.5979	-4.6583	-3.9833	-4.9333	-4.2417	-4.1958	-4.9104	-4.1062	398.514	142.814	299.416	428.887	348.778	315.021	160.173	296.271	151.362	94.530	395.878	144.008	168.839	413.273	93.183	380.256	0.001838	0.00024075	0.00021715	1137.3	7.0613e-06	1.2511e-05	1156.5	405.45	1.1772e-05	1.1178e-05	454.17	172.18	146.05	55.418	1.5892e-05	77.19	0.0012355	0.0012412	0.00034354	1039	1.3303e-05	1.3532e-05	1053.2	369.67	1.363e-05	1.3811e-05	418.82	155.92	133.75	51.096	1.3692e-05	71.217	316.024	146.557	191.600	86.266	165.145	253.961	85.028	90.627	221.472	269.370	88.228	92.862	95.060	99.458	264.194	95.695	-8191	255	
29861.848	1	1	0	0	0.078578	0.056322	0.041996	0.19694	0.07097	0.18008	0.21656	0.45623	0.013649	0.26566	0.24705	0.16966	0.086283	0.32288	0.30075	0.17986	-4.2812	-4.7042	-4.1271	-4.9271	-4.225	-3.9729	-4.9167	-4.225	-4.4396	-4.75	-4.1708	-4.8771	-4.475	-4.1396	-4.8208	-4.2354	86.712	74.230	86.335	403.499	367.705	125.231	334.502	369.086	151.756	384.483	392.164	355.649	100.165	409.642	249.402	336.205	0.0020585	0.00095944	0.00010997	1134.8	7.0074e-06	2.9839e-06	1156.2	403.94	2.1445e-05	1.8534e-06	459.05	171.25	146.17	55.614	4.8591e-06	77.681	0.0012347	0.0012376	0.00035014	1033.8	1.3727e-05	1.4e-05	1051.8	368.57	1.3873e-05	1.406e-05	421.81	156.25	134.5	51.307	1.3979e-05	71.724	315.335	142.295	204.813	85.978	168.907	303.021	85.468	90.519	190.843	424.199	88.064	92.561	94.657	98.978	107.564	95.566	-8191	255	
29861.943	1	1	0	0	0.17211	0.13372	0.12013	0.16991	0.24244	0.10841	0.24574	0.21457	0.071041	0.12215	0.036784	0.073634	0.25537	0.083544	0.052456	0.33627	-4.0854	-4.5979	-3.7521	-4.8229	-4.4396	-4.0667	-5.0625	-4.1167	-4.1958	-4.7354	-3.9125	-4.75	-4.4729	-3.9354	-4.8313	-4.3021	353.818	178.047	138.534	102.872	131.717	112.235	420.265	393.520	365.128	249.602	262.927	352.609	86.061	329.415	263.624	402.247	0.0018641	0.00090952	0.00034459	1140.3	1.326e-05	1.0891e-05	1174.7	410.88	7.5165e-06	2.746e-06	465.31	173.18	147.89	55.251	6.6001e-06	76.944	0.0012597	0.0012828	0.00035731	1043.7	1.3939e-05	1.4116e-05	1069.1	374.86	1.3912e-05	1.4023e-05	426.98	158.02	135.35	51.175	1.3893e-05	70.947	320.553	182.099	171.084	86.361	222.278	238.605	85.323	90.764	220.520	203.835	88.511	92.720	94.809	99.133	202.697	95.922	-8191	255	
29862.039	1	1	0	0	0.16781	0.091307	0.19468	0.17832	0.27158	0.12416	0.12115	0.214	0.18747	0.098546	0.17696	0.14955	0.36693	0.19673	0.084131	0.1105	-3.7583	-4.8208	-3.8917	-4.7312	-4.525	-3.9479	-5.0375	-4.2896	-4.075	-4.8979	-4.1354	-4.6958	-4.6396	-3.9688	-4.7542	-4.3771	131.601	352.701	173.825	414.849	98.951	85.724	419.055	358.905	410.537	424.216	363.609	130.951	425.803	362.343	137.974	344.520	0.0014784	0.00041215	0.00033004	1119.6	6.6668e-06	1.0679e-05	1138.2	399.16	1.6201e-05	5.5437e-06	447.15	166.58	143.18	53.585	7.4236e-06	73.72	0.0012449	0.0012402	0.00034954	1024.1	1.3464e-05	1.3656e-05	1037.3	363.45	1.3388e-05	1.3624e-05	411.37	152.31	131.68	49.561	1.335e-05	68.193	329.622	205.001	130.276	86.055	237.941	240.247	85.150	90.654	227.557	253.656	88.230	92.730	95.070	99.409	252.791	95.434	-8191	255	
29862.135	1	1	0	0	0.16664	0.092602	0.042827	0.20508	0.21765	0.087653	0.17055	0.2653	0.44589	0.29951	0.14702	0.14663	0.23954	0.27184	0.018159	0.13991	-3.8396	-4.8562	-3.9083	-4.6375	-4.4958	-3.8396	-4.9729	-4.4792	-4.1917	-4.7708	-4.15	-4.5479	-4.7708	-3.9021	-4.85	-4.4187	108.138	105.274	304.127	401.651	376.639	150.977	319.734	357.984	192.039	88.217	356.838	301.934	400.104	418.643	337.986	375.283	0.0014782	0.00064492	0.00023169	1107.4	9.6732e-06	5.3583e-06	1122.6	391.99	1.6884e-05	1.7516e-06	443.04	165.25	143.39	53.576	4.2906e-06	74.465	0.0012128	0.0012352	0.00034442	1011.4	1.3413e-05	1.363e-05	1024.8	358.41	1.3716e-05	1.4296e-05	408.03	150.87	131.33	49.65	1.3858e-05	68.595	314.442	172.067	168.349	86.097	275.052	238.006	85.110	90.743	291.330	414.620	88.267	92.553	94.951	98.987	109.556	95.374	-8191	255	
29862.232	1	1	0	0	0.14883	0.21574	0.16898	0.1516	0.059013	0.12611	0.11018	0.074387	0.14507	0.3325	0.052591	0.29911	0.24126	0.09394	0.12054	0.21967	-3.6354	-4.8313	-4.0938	-4.5479	-4.7667	-3.9042	-4.8438	-4.6125	-3.9083	-4.8396	-4.15	-4.3729	-4.8271	-3.8979	-4.5813	-4.7375	294.893	325.872	144.563	379.219	322.942	419.621	334.107	108.022	177.584	259.794	345.435	382.787	134.363	429.429	187.002	391.646	0.0013175	0.0012717	0.00020008	1110.7	8.8795e-06	5.0746e-06	1133.9	398.4	5.3849e-06	5.2325e-06	450.32	167.73	144.03	54.629	1.0118e-05	76.002	0.001244	0.0012376	0.00035007	1016.9	1.3492e-05	1.3699e-05	1033.5	363.91	1.3502e-05	1.3892e-05	414.13	152.69	132.02	50.213	1.3308e-05	69.811	314.708	139.650	161.150	86.174	202.714	260.451	85.147	90.386	218.227	207.138	88.252	92.505	94.859	98.918	199.392	95.561	-8191	255	
29862.352	1	1	0	0	0.12647	0.18704	0.10513	0.084113	0.16653	0.15769	0.1126	0.30873	0.086513	0.10894	0.13805	0.26826	0.21649	0.3274	0.26817	0.097016	-3.8396	-5.0021	-4.2063	-4.3688	-4.9396	-3.8708	-4.6562	-4.8729	-3.9896	-4.8958	-4.3708	-4.1396	-5.0646	-4.1042	-4.5979	-4.7167	196.380	156.877	408.974	374.118	417.321	336.257	320.202	394.332	422.318	241.274	254.521	417.321	382.786	432.284	106.598	100.712	0.0018312	0.00076189	0.00030584	1127.5	1.6134e-05	8.3961e-06	1155.1	407.52	1.6905e-05	6.3794e-06	459.23	170.75	146.66	54.815	1.6773e-05	76.859	0.0011879	0.0011985	0.00033612	1028.8	1.2825e-05	1.3193e-05	1048.1	369.64	1.2647e-05	1.2662e-05	420.34	155.39	134.06	50.614	1.2762e-05	70.485	312.608	198.889	210.451	86.297	245.146	182.102	85.221	90.871	279.759	211.032	88.507	92.679	94.991	99.085	234.587	95.860	-8191	255	
29862.447	1	1	0	0	0.1873	0.099699	0.13867	0.15302	0.29206	0.12899	0.15379	0.13786	0.20537	0.13209	0.38505	0.087191	0.10563	0.030241	0.13242	0.27859	-3.6562	-4.7521	-4.3458	-4.3229	-4.9792	-4.0729	-4.6875	-4.9271	-3.8479	-4.7188	-4.5813	-4.3187	-4.8896	-4.15	-4.2958	-4.8854	264.183	82.608	101.163	407.831	230.952	205.014	416.553	341.094	199.089	147.024	357.596	326.027	125.369	376.843	235.156	373.813	0.001719	0.00025973	0.00040014	1142.2	6.2735e-06	1.14e-05	1176.9	408.07	1.2225e-05	1.0392e-05	460.75	171.49	147.05	54.99	9.6414e-06	76.123	0.0011628	0.0011558	0.00032219	1041.5	1.2257e-05	1.2222e-05	1065.3	372.1	1.1808e-05	1.1865e-05	421.83	156.21	134.62	50.696	1.1412e-05	69.817	300.763	372.396	168.402	86.301	300.574	239.199	84.799	90.389	292.087	230.472	88.373	92.550	94.832	99.269	218.698	95.539	-8191	255	
29862.543	1	1	0	0	0.17963	0.091863	0.18625	0.4083	0.086608	0.15686	0.26364	0.18651	0.075725	0.21644	0.050635	0.092467	0.18454	0.098272	0.10048	0.0725	-3.6083	-4.5813	-4.4688	-3.9958	-4.8313	-4.0479	-4.3604	-4.9125	-3.8875	-4.5292	-4.5667	-4.1271	-4.9437	-4.2875	-4.2521	-4.9333	348.985	118.451	95.673	392.594	382.836	406.449	362.799	101.328	135.333	128.845	299.781	82.051	100.347	77.416	114.934	401.096	0.0016948	0.0012125	0.00029621	1128.1	1.4619e-05	9.2772e-06	1147.5	396.23	9.2285e-06	2.7099e-06	448.16	165.06	143.28	53.191	1.4428e-05	73.792	0.0010838	0.0010561	0.00029477	1025.3	1.1398e-05	1.1683e-05	1037.3	360.75	1.142e-05	1.1401e-05	407.59	150.19	130.88	49.059	1.1107e-05	67.767	311.940	198.101	152.332	86.331	295.530	164.212	85.070	90.327	255.579	78.620	88.232	92.684	94.682	99.160	223.653	95.726	-8191	255	
29862.639	1	1	0	0	0.22299	0.30151	0.064064	0.21711	0.15862	0.13744	0.31169	0.020626	0.16013	0.088513	0.1809	0.083227	0.13979	0.11236	0.025628	0.072359	-3.7	-4.6917	-4.6229	-3.9792	-4.8125	-4.2125	-4.2354	-4.8917	-4.0479	-4.4854	-4.8646	-4.0083	-4.9479	-4.4979	-4.0646	-5.0625	143.062	321.534	361.341	390.519	113.145	95.304	365.258	345.250	208.593	353.644	369.532	188.003	408.214	362.388	272.580	330.639	0.0016844	0.00067303	0.00013725	1118.7	9.0732e-06	7.3393e-06	1138.9	394.62	9.9492e-06	9.541e-06	442.74	163.39	141.65	52.631	1.0359e-05	72.341	0.0010144	0.0010307	0.0002868	1016	1.1e-05	1.1355e-05	1025.5	358.03	1.1348e-05	1.1085e-05	403.21	148.21	129	48.364	1.1295e-05	66.492	317.469	163.750	195.660	86.078	183.682	235.570	84.909	90.566	212.313	209.531	88.605	92.684	94.902	99.118	128.298	95.931	-8191	255	
29862.760	1	1	0	0	0.17812	0.14213	0.065104	0.1331	0.21002	0.26762	0.38253	0.043195	0.089289	0.16008	0.1811	0.2522	0.078642	0.12731	0.22048	0.2631	-3.75	-4.325	-4.825	-3.9688	-4.7208	-4.3625	-4.2312	-4.8917	-4.1208	-4.3562	-4.9	-3.9292	-4.7396	-4.6188	-3.9354	-5.0563	333.778	284.001	361.686	94.756	333.911	81.036	367.576	87.826	350.545	260.329	77.639	388.705	371.687	295.216	366.918	430.172	0.0017965	0.00062113	0.00018434	1115.4	1.3066e-05	1.0839e-05	1132.3	394.94	1.3139e-05	2.0195e-06	435.85	163.34	141.82	52.544	1.7206e-05	72.68	0.001057	0.0010317	0.00028923	1011.8	1.137e-05	1.1663e-05	1025.5	356.96	1.1534e-05	1.1452e-05	402.35	148.45	129.63	48.515	1.1573e-05	66.671	313.104	97.398	126.878	86.309	210.193	221.746	84.961	90.540	220.461	163.032	88.506	92.516	94.533	99.205	204.580	95.726	-8191	255	
29862.830	1	1	0	0	0.057536	0.10974	0.12133	0.20075	0.11247	0.1119	0.26734	0.2728	0.10418	0.14073	0.057055	0.2422	0.16599	0.14628	0.080538	0.228	-3.7812	-4.1687	-4.7583	-4.0667	-4.6521	-4.4688	-4.1438	-5.15	-4.2271	-4.2688	-5.1396	-3.8958	-4.6062	-4.5396	-3.9042	-4.9187	395.065	394.207	223.888	148.327	398.162	181.363	323.703	80.347	110.513	230.604	198.937	403.210	356.019	87.962	185.206	245.210	0.0017095	0.00068605	0.00018805	1116	7.784e-06	7.9647e-06	1141.5	394.98	7.3779e-06	3.8881e-06	447.48	165.94	143.84	53.264	8.6372e-06	73.854	0.0010588	0.0010527	0.00029233	1014.8	1.1267e-05	1.1465e-05	1030.1	358.55	1.1315e-05	1.1335e-05	408.83	150.66	130.76	48.938	1.1357e-05	67.882	323.592	124.025	176.931	85.939	253.288	265.500	84.917	90.564	201.366	420.283	88.677	92.587	94.563	99.287	253.484	95.381	-8191	255	
29862.951	1	1	0	0	0.2947	0.093506	0.13142	0.07303	0.26501	0.017101	0.036054	0.088129	0.074328	0.18811	0.1723	0.14141	0.11616	0.26449	0.11267	0.014404	-3.9333	-4.0604	-5.0208	-4.0417	-4.6354	-4.6271	-4.0625	-5.0604	-4.275	-4.0437	-4.9917	-4.1771	-4.4417	-4.8562	-3.8229	-4.7021	392.160	115.617	234.214	388.294	265.727	107.919	133.923	364.966	371.057	159.509	135.966	98.182	259.538	142.173	160.664	377.344	0.0018603	0.0008946	0.00024518	1128.4	9.2754e-06	5.2479e-06	1143.8	393.89	6.6494e-06	1.7343e-06	437.51	163.53	139.57	51.901	2.3947e-06	71.47	0.0010568	0.0010382	0.00029336	1026.7	1.1145e-05	1.1509e-05	1033.3	357.24	1.1813e-05	1.2059e-05	401.81	148.38	128.2	48.058	1.1515e-05	65.791	314.380	208.303	187.735	86.097	193.146	96.945	85.041	90.788	229.153	137.980	88.129	92.911	94.621	99.051	224.970	95.787	-8191	255	
29863.049	1	1	0	0	0.13788	0.020161	0.15627	0.10828	0.4101	0.32181	0.16627	0.2136	0.25301	0.13285	0.19386	0.19091	0.27428	0.1453	0.15578	0.019856	-4.0625	-3.975	-4.8396	-4.2375	-4.2625	-4.775	-3.8604	-4.8083	-4.4437	-3.9458	-4.9833	-4.2583	-4.2312	-4.8354	-3.8125	-4.7271	177.507	372.033	180.106	366.111	99.220	119.106	394.374	413.132	129.334	85.072	389.593	304.860	370.980	400.922	91.477	417.361	0.0017485	0.0012925	0.0003549	1102.9	4.8899e-06	1.064e-05	1110.9	386.77	7.3036e-06	3.2627e-06	431.94	160.05	138.39	51.452	7.5215e-06	70.629	0.0010372	0.0010362	0.0002908	1005.3	1.1049e-05	1.1163e-05	1007	351.9	1.1336e-05	1.1311e-05	395.01	145.25	126.28	47.286	1.1287e-05	65.141	326.295	206.207	121.383	86.064	275.403	256.889	85.155	90.561	234.060	398.852	88.404	92.739	94.495	99.791	211.118	95.719	-8191	255	
29863.145	1	1	0	0	0.18543	0.12683	0.098657	0.17696	0.17235	0.15806	0.073737	0.28047	0.084709	0.15342	0.095304	0.13431	0.24342	0.034249	0.12192	0.017932	-4.3458	-3.8625	-4.8688	-4.3521	-4.1792	-4.9854	-4.0062	-4.6792	-4.4812	-3.9437	-4.8625	-4.3667	-4.1562	-4.7875	-3.8625	-4.6375	271.743	316.213	243.887	78.227	207.186	350.427	340.610	361.737	290.202	329.079	342.859	328.281	336.585	222.976	187.638	382.101	0.0013133	0.00029739	0.00024255	1108.9	5.0469e-06	2.6034e-06	1118.1	391.15	2.4364e-05	1.113e-05	443.29	162.95	141.95	52.679	1.0965e-05	72.754	0.0010413	0.0010188	0.00028529	1005.3	1.0756e-05	1.0985e-05	1012.4	354.83	1.0906e-05	1.1131e-05	403.93	148.77	129.66	48.463	1.1051e-05	66.543	314.420	192.042	217.874	86.173	225.748	269.090	85.283	90.231	217.264	268.111	88.441	92.468	94.681	99.449	192.656	95.559	-8191	255	
29863.240	1	1	0	0	0.11844	0.046164	0.15358	0.22749	0.10771	0.11316	0.11155	0.10896	0.10158	0.22884	0.20769	0.21264	0.14167	0.089859	0.15274	0.15504	-4.3042	-3.9125	-4.6229	-4.4333	-3.9333	-4.8583	-4.075	-4.6146	-4.6188	-3.7542	-4.6771	-4.3938	-4.1417	-4.9417	-3.9333	-4.4458	243.351	123.137	211.180	398.826	406.097	315.775	144.753	316.054	224.054	173.136	370.606	404.710	362.919	393.931	146.077	378.603	0.001701	0.00032162	6.977e-05	1115.2	1.2034e-05	9.6422e-06	1134.3	395.3	1.5539e-05	3.4083e-06	443.41	165.8	143.3	53.411	1.2347e-05	74.096	0.0010095	0.0010021	0.00027724	1012.2	1.1051e-05	1.1021e-05	1027.1	357.93	1.0608e-05	1.0635e-05	405.1	150.44	131.22	49.082	1.058e-05	67.86	312.063	427.077	416.847	86.459	198.409	237.432	84.979	90.871	229.310	268.299	87.557	92.626	94.546	99.273	262.395	95.743	-8191	255	
29863.361	1	1	0	0	0.28908	0.201	0.1461	0.16261	0.093739	0.32168	0.25971	0.043725	0.16622	0.080459	0.2023	0.19079	0.15712	0.17672	0.21316	0.12903	-4.4792	-3.7396	-4.7688	-4.4938	-3.8208	-4.7646	-4.2771	-4.3667	-4.7937	-3.8167	-4.7854	-4.7208	-3.9208	-4.8604	-4.0563	-4.2937	88.865	177.569	250.670	358.168	273.210	308.939	432.479	321.795	102.987	234.685	77.265	130.475	85.681	372.508	105.800	80.280	0.0014756	0.0010659	5.2476e-05	1137.8	2.1584e-05	1.0538e-05	1157.5	398.92	1.0302e-05	1.2957e-05	451.14	168.51	144.61	54.054	1.4945e-05	74.993	0.00097504	0.00094804	0.00027116	1032.1	1.039e-05	1.0393e-05	1045	362.71	1.0506e-05	1.0534e-05	410.58	152.68	132.3	49.773	1.0695e-05	68.756	319.472	186.637	162.001	86.172	233.503	266.605	85.154	90.503	247.418	200.553	88.507	92.859	94.560	99.007	270.315	95.847	-8191	255	
29863.434	1	1	0	0	0.10068	0.19134	0.11422	0.51939	0.090465	0.20995	0.13167	0.27484	0.28383	0.19147	0.042417	0.29875	0.22884	0.20358	0.12996	0.057109	-4.5667	-3.8833	-4.6	-4.8479	-3.8542	-4.8875	-4.3688	-4.3958	-4.8375	-3.9458	-4.6	-4.7229	-3.925	-4.7854	-4.2188	-4.0583	256.352	126.649	317.209	403.021	193.789	386.005	349.374	409.148	366.441	226.655	347.721	72.601	366.365	404.245	112.533	355.137	0.001883	0.00055922	0.00014515	1145.5	2.3474e-06	1.0524e-05	1144.2	397.1	1.3085e-05	1.2077e-05	442.54	165.34	142.84	52.422	9.8862e-06	71.657	0.00098842	0.00097216	0.00027388	1039.1	1.0483e-05	1.063e-05	1040.6	359.68	1.0608e-05	1.0389e-05	403.22	149.47	129.62	48.106	1.0402e-05	65.718	324.913	190.918	181.982	86.369	266.442	199.384	85.290	90.431	262.516	237.809	88.553	92.939	94.706	99.276	261.342	95.658	-8191	255	
29863.529	1	1	0	0	0.092811	0.24624	0.099489	0.099481	0.28868	0.24659	0.21304	0.15338	0.12957	0.24768	0.066632	0.10779	0.059004	0.021802	0.070137	0.21186	-4.5062	-3.8104	-4.5625	-4.9271	-4.0125	-4.8292	-4.5604	-4.1792	-4.7771	-4.0979	-4.4104	-5.0271	-3.9083	-4.7583	-4.5563	-4.0771	211.173	179.558	107.296	376.013	312.169	430.281	331.583	324.866	314.847	92.609	392.356	231.102	264.365	298.957	277.906	369.593	0.0016435	0.0013335	2.0878e-05	1113.3	5.1179e-06	7.6251e-06	1118.3	387.62	1.6931e-05	1.2123e-05	431.2	159.8	141.16	52.041	6.5224e-06	70.76	0.00096472	0.00095651	0.0002647	1010.3	1.0152e-05	1.0287e-05	1011.7	349.82	1.0161e-05	1.0263e-05	393.46	145.37	128.23	47.615	1.019e-05	64.688	308.183	193.761	81.747	86.489	233.095	203.171	85.276	90.589	269.859	182.041	88.396	92.799	94.482	99.054	232.296	95.300	-8191	255	
29863.623	1	1	0	0	0.31537	0.10507	0.065444	0.090287	0.2044	0.14981	0.20734	0.30221	0.048704	0.066186	0.033376	0.29418	0.24002	0.12934	0.22658	0.079622	-4.6958	-4.175	-4.1917	-4.9771	-3.7583	-4.5687	-4.6271	-4.1813	-4.9313	-4.0938	-4.2354	-4.7479	-3.9417	-4.5417	-4.3521	-4.0062	255.509	73.231	332.627	333.151	333.009	424.644	362.742	336.008	325.025	100.819	116.599	386.260	416.683	376.042	141.499	378.829	0.0015742	0.0012386	8.5117e-05	1104.3	7.9783e-06	1.069e-05	1116.5	391.11	1.3889e-05	3.0514e-06	442.7	167.01	145.51	54.334	1.8556e-06	74.258	0.00093837	0.00092832	0.00026142	1001.8	9.9685e-06	1.0076e-05	1013.3	354.01	9.7836e-06	9.8558e-06	402.6	151.21	132.6	49.575	9.7951e-06	68.022	303.191	160.902	158.898	86.317	270.822	250.934	85.058	90.638	218.447	254.641	88.422	92.437	94.842	98.855	200.296	95.352	-8191	255	
29863.721	1	1	0	0	0.076635	0.1802	0.1661	0.1311	0.12385	0.16953	0.085751	0.24068	0.11823	0.22257	0.18383	0.30109	0.17103	0.11756	0.034559	0.3976	-4.4062	-4.1708	-4.1562	-4.95	-3.9771	-4.3604	-4.6854	-3.9708	-4.7521	-4.2292	-3.9667	-4.9083	-4.0542	-4.5938	-4.7167	-4.0667	381.789	345.826	269.653	345.246	141.811	323.779	405.805	392.894	78.545	129.308	380.085	415.142	125.899	126.387	401.946	326.401	0.0017206	0.00045794	5.6578e-05	1132.1	9.4959e-06	9.701e-06	1153	400.34	1.1518e-05	9.6186e-06	453.2	169.85	147.22	54.908	1.6589e-05	76.35	0.00092574	0.00091623	0.00025199	1026.5	9.8818e-06	1.0026e-05	1042.2	363.21	9.8212e-06	9.8478e-06	410.71	154.13	134.47	50.362	9.8897e-06	69.609	305.175	178.693	421.069	85.969	202.217	250.686	85.382	90.544	194.687	206.241	88.560	92.454	94.946	99.159	240.366	95.576	-8191	255	
29863.840	1	1	0	0	0.11493	0.10845	0.22616	0.14925	0.12937	0.21368	0.10269	0.28925	0.32371	0.14907	0.15661	0.26997	0.15349	0.18211	0.14012	0.15814	-4.5604	-4.2625	-3.9062	-4.9938	-3.9771	-4.4271	-4.9875	-3.8917	-4.6083	-4.4292	-4.0646	-5.0146	-4.3313	-4.3229	-4.6896	-4.1062	325.372	357.869	93.994	339.671	374.126	332.476	334.821	418.581	320.003	426.649	381.381	415.969	78.261	399.788	276.270	369.341	0.0018352	0.001041	0.00011798	1144.2	1.1477e-05	4.5856e-06	1173.2	407.3	2.1187e-05	3.8819e-06	464.09	173.49	149.84	55.902	1.0909e-05	76.997	0.00090707	0.00090158	0.00025325	1040.9	9.7143e-06	9.7815e-06	1058.5	369.89	9.836e-06	9.9347e-06	420.45	156.99	136.14	51.202	9.7792e-06	70.609	312.738	147.445	191.706	86.358	214.634	233.913	85.259	90.475	197.125	197.742	88.103	92.947	94.567	98.980	176.875	95.892	-8191	255	
29863.936	1	1	0	0	0.07013	0.13796	0.19387	0.25158	0.1439	0.17531	0.055093	0.26702	0.23895	0.19657	0.19967	0.065882	0.17442	0.24271	0.29194	0.11619	-4.3208	-4.4938	-4.0333	-5.0396	-4.0292	-4.1937	-4.9938	-4.075	-4.6354	-4.5813	-4.0958	-5.0896	-4.2063	-4.0542	-4.8479	-3.9604	340.253	120.942	191.701	81.649	406.441	158.866	324.083	355.554	272.201	120.608	392.772	411.979	373.845	352.804	417.491	380.663	0.0018279	0.001234	0.00016896	1152	4.5133e-06	1.3087e-05	1183.6	409.35	1.1935e-05	4.6332e-06	459.11	172.95	149.89	55.957	1.5022e-05	75.883	0.00093201	0.00091705	0.00025752	1049.4	9.7652e-06	9.8745e-06	1067.1	369.53	9.7182e-06	9.7202e-06	418.35	156.45	136.13	50.859	9.5173e-06	69.341	321.568	187.117	253.458	86.105	271.172	248.845	85.108	90.284	250.476	240.221	88.167	92.621	95.112	99.109	213.952	94.942	-8191	255	
29864.031	1	1	0	0	0.1488	0.091066	0.30408	0.18713	0.039807	0.15131	0.15283	0.13805	0.2301	0.018329	0.071326	0.10238	0.3274	0.17193	0.16899	0.062618	-4.1708	-4.6708	-3.8812	-4.9563	-4.2375	-4.0312	-5.0167	-4.1188	-4.375	-4.7042	-3.9688	-4.8958	-4.3958	-4.2521	-4.8333	-4.1479	244.123	377.256	106.865	339.024	117.611	99.707	416.660	363.188	219.374	211.616	78.357	306.655	82.326	75.318	206.217	405.472	0.0014738	0.00049102	0.00024581	1138.8	1.0327e-05	4.6704e-06	1152.9	396.33	1.9243e-05	9.3767e-06	446.46	168.7	146.89	54.069	7.4121e-06	74.272	0.00088412	0.00087971	0.00023896	1029.1	9.2798e-06	9.5e-06	1039.3	360.7	9.361e-06	9.3933e-06	406.85	152.44	133.62	49.609	9.1712e-06	67.958	319.845	171.473	228.961	86.231	232.634	100.135	85.196	90.900	222.444	206.597	88.002	92.407	94.838	98.929	250.732	96.065	-8191	255	
29864.129	1	1	0	0	0.12307	0.093079	0.1179	0.20229	0.161	0.18542	0.17302	0.27332	0.16794	0.17672	0.21941	0.124	0.14974	0.19591	0.086958	0.24193	-4.0083	-4.7125	-3.8083	-4.825	-4.3354	-3.9292	-4.9604	-4.0875	-4.2167	-4.7667	-3.9437	-4.7292	-4.6458	-3.9271	-4.9042	-4.3083	360.116	315.237	180.821	416.494	182.860	242.623	381.990	338.810	161.660	231.532	85.115	416.456	248.895	104.460	128.514	315.110	0.0014392	0.00038155	6.5625e-05	1139.5	1.3094e-05	2.771e-06	1153.6	399.16	1.0685e-05	4.4609e-06	453.14	170.95	149.96	54.863	1.5434e-05	76.086	0.00087005	0.00085206	0.00024449	1031.8	9.2253e-06	9.3216e-06	1044.9	363.5	9.1365e-06	9.2267e-06	411.58	154.72	135.38	50.426	9.1756e-06	69.419	315.398	223.085	96.939	86.137	192.256	149.931	85.073	90.383	247.013	225.553	87.930	92.594	94.539	98.946	227.517	95.465	-8191	255	
29864.225	1	1	0	0	0.025318	0.12908	0.13262	0.050795	0.21863	0.22524	0.18732	0.13209	0.26396	0.059454	0.070068	0.25201	0.11048	0.23566	0.1371	0.15374	-3.975	-4.8042	-3.925	-4.6125	-4.3604	-4.0854	-4.9271	-4.3063	-4.1375	-4.7583	-3.8896	-4.4917	-4.7771	-4.1083	-4.7979	-4.3875	244.402	329.269	121.870	118.586	334.743	250.928	398.392	338.428	377.776	218.666	297.294	417.547	389.920	409.250	292.334	237.248	0.0017138	0.00042369	0.00042319	1156.7	1.0805e-05	8.8036e-06	1175.6	408.35	1.5096e-05	6.4751e-06	460.71	172.96	150.08	55.946	1.0379e-05	77.082	0.00086154	0.00085099	0.00023719	1048.7	9.1933e-06	9.3392e-06	1063.5	369.52	9.1977e-06	9.477e-06	419.06	157.27	136.72	51.274	9.6989e-06	70.415	319.015	217.359	161.186	86.237	218.272	235.128	85.175	90.559	260.653	221.713	88.640	92.374	94.967	98.730	246.755	95.330	-8191	255	
29864.320	1	1	0	0	0.11675	0.054863	0.29225	0.052415	0.084566	0.029035	0.24686	0.14183	0.28026	0.21079	0.33157	0.31224	0.095115	0.28181	0.1098	0.14356	-3.7125	-4.8479	-4.1542	-4.5417	-4.7083	-3.8375	-4.8688	-4.5125	-3.8958	-4.8562	-4.0604	-4.4938	-4.8333	-4.025	-4.7396	-4.5583	424.608	183.519	258.366	281.956	105.796	280.949	314.840	382.344	205.575	168.870	380.616	369.745	328.235	398.724	199.310	328.034	0.0017146	0.0011339	7.4224e-05	1157.8	1.2099e-05	8.423e-06	1192.8	411.41	1.4244e-05	9.1998e-06	464.85	176.16	151.61	56.418	9.5412e-06	76.885	0.00090504	0.00088604	0.00024348	1053.5	9.4653e-06	9.653e-06	1073	372.41	9.6045e-06	9.7638e-06	422.57	158.88	137.69	51.551	9.6206e-06	70.595	322.943	233.173	317.606	86.228	260.517	304.945	85.603	90.541	247.588	204.907	87.979	92.891	94.481	98.956	168.251	95.628	-8191	255	
29864.441	1	1	0	0	0.11296	0.22628	0.17165	0.17066	0.11023	0.20643	0.27425	0.28102	0.089473	0.18078	0.052229	0.1278	0.30228	0.19235	0.17752	0.32197	-3.7562	-4.7104	-4.1375	-4.55	-4.8396	-4.0167	-4.9187	-4.7021	-3.9729	-4.6813	-4.2562	-4.2146	-4.9688	-3.9854	-4.4875	-4.6979	297.227	139.537	218.348	392.181	113.110	182.904	379.921	380.783	373.605	306.860	407.395	399.838	91.112	386.886	347.027	316.070	0.0019008	0.00058205	0.00018102	1151.4	1.2404e-05	1.1355e-05	1169	403.47	1.4547e-05	2.1813e-06	446.42	166.68	146.51	53.944	1.3571e-05	73.28	0.00088649	0.00087133	0.00024364	1043.3	9.3705e-06	9.4067e-06	1049.6	363.22	9.362e-06	9.2458e-06	407.78	151.43	133.35	49.346	9.171e-06	66.982	323.257	177.843	139.561	86.148	233.153	249.627	84.894	90.311	264.024	209.476	88.093	92.576	94.243	98.663	316.210	95.470	-8191	255	
29864.535	1	1	0	0	0.091419	0.10896	0.088746	0.15809	0.046769	0.1232	0.30389	0.24573	0.18241	0.0363	0.10759	0.23735	0.20136	0.26064	0.077535	0.089976	-3.6083	-4.9	-4.1979	-4.2125	-4.8417	-3.9521	-4.6937	-4.6125	-3.8542	-4.7458	-4.475	-4.2646	-5.0917	-4.1438	-4.3812	-4.7875	254.891	123.056	310.620	107.799	125.467	90.528	363.345	416.698	253.963	264.733	117.618	338.518	316.187	425.877	420.163	106.669	0.0015023	0.00082741	0.00015804	1111.9	4.094e-06	9.6963e-06	1121.1	392.01	1.5703e-05	4.583e-06	435.1	163	142.24	52.342	2.5138e-06	71.386	0.00085678	0.00083942	0.00023997	1012.1	9.1126e-06	9.444e-06	1019.1	354.22	9.2656e-06	9.482e-06	396.25	147.58	129.75	48.158	9.8752e-06	65.255	311.594	197.725	262.542	86.175	218.600	171.488	84.852	90.501	267.717	261.336	88.164	92.814	94.950	99.358	178.399	95.844	-8191	255	
29864.633	1	1	0	0	0.13648	0.10893	0.2089	0.057526	0.19746	0.13519	0.28654	0.23697	0.0076531	0.174	0.1703	0.16017	0.052145	0.32529	0.16704	0.10581	-3.6042	-4.6062	-4.2708	-4.0667	-4.7021	-4.0813	-4.5083	-4.8063	-3.8	-4.7875	-4.5708	-4.0521	-4.8688	-4.1042	-4.075	-4.8042	202.251	137.896	140.604	399.680	262.488	239.313	390.186	397.557	288.231	310.085	381.935	225.329	228.297	414.999	277.946	429.425	0.0015008	0.000711	0.00012339	1114.5	1.2538e-05	1.108e-05	1119.8	389.04	9.9546e-06	5.5402e-06	439.83	162.87	143.23	53.069	9.5384e-06	72.77	0.00092133	0.0008937	0.00025283	1006.4	9.7381e-06	1.0051e-05	1012	353.35	9.6717e-06	9.9071e-06	399.07	147.99	130.49	48.608	9.7722e-06	66.334	313.885	171.670	169.349	86.358	185.107	91.776	85.046	90.752	240.476	217.251	88.712	92.624	94.700	99.128	181.966	95.799	-8191	255	
29864.729	1	1	0	0	0.26713	0.13712	0.041782	0.070022	0.23261	0.068042	0.21995	0.22466	0.015916	0.11615	0.16852	0.067475	0.11925	0.16047	0.16854	0.12951	-3.6042	-4.5729	-4.3812	-4.1271	-4.8521	-4.2104	-4.4354	-4.9667	-3.8729	-4.6458	-4.7146	-4.1583	-4.7979	-4.2854	-3.9667	-4.9042	364.501	308.501	211.531	411.844	235.389	189.787	394.725	79.055	150.571	256.859	396.540	287.261	398.929	255.516	86.459	387.381	0.0013892	0.00051138	0.00010955	1121.3	6.0978e-06	1.1328e-05	1147.8	397.18	1.604e-05	5.3335e-06	448.66	169.79	147.4	55	1.5937e-05	76.019	0.00091523	0.00090383	0.00024935	1018.6	9.6301e-06	9.9262e-06	1036.1	360.83	9.6176e-06	9.7638e-06	409.37	153.4	134.67	50.384	9.7238e-06	69.28	320.265	166.868	152.831	86.411	237.498	268.178	84.814	90.649	229.523	205.281	88.583	92.580	94.535	99.045	172.124	95.698	-8191	255	
29864.824	1	1	0	0	0.16435	0.060105	0.19834	0.23952	0.17319	0.073332	0.19118	0.18309	0.27916	0.031382	0.2378	0.3218	0.49323	0.21377	0.14019	0.13634	-3.7562	-4.4896	-4.4854	-4.0167	-4.8229	-4.2396	-4.4	-5.0896	-3.8271	-4.4042	-4.8625	-3.9125	-4.9083	-4.4479	-4.1229	-4.8771	170.102	244.241	143.865	299.220	327.017	419.337	296.077	418.854	405.074	393.716	380.385	396.411	391.407	391.112	176.196	303.891	0.0016825	0.0011907	0.00021842	1141.3	2.5782e-06	5.9912e-06	1159.4	404.43	1.7349e-05	9.5626e-06	458.32	171.76	150.11	55.606	8.2586e-06	76.752	0.0009318	0.00090973	0.00025683	1039.6	9.7707e-06	1.0092e-05	1051.9	367.64	1.0115e-05	1.0124e-05	417.57	155.81	136.12	51.05	1.0129e-05	70.091	319.140	110.712	221.782	86.214	211.024	260.596	84.726	90.699	266.981	204.406	88.490	92.792	94.635	99.525	239.672	95.943	-8191	255	
29864.920	1	1	0	0	0.039092	0.10954	0.33121	0.32117	0.14155	0.044708	0.13552	0.15173	0.16841	0.15911	0.096156	0.054266	0.22254	0.11232	0.013894	0.15156	-3.6188	-4.4479	-4.6604	-3.8479	-4.7312	-4.3979	-4.3354	-4.9958	-3.9562	-4.2562	-4.9521	-4.0875	-4.7937	-4.5917	-4.0271	-4.8354	310.561	77.985	422.337	399.540	360.444	392.840	431.866	83.178	293.628	142.644	357.121	158.786	97.467	97.543	291.188	94.472	0.0016591	0.001679	0.00016713	1155.3	2.1667e-06	1.0635e-05	1165.6	402.99	9.5035e-06	1.272e-05	453.65	170.67	147.06	54.696	8.6178e-06	74.335	0.00094703	0.00093924	0.00025383	1046.5	1.0065e-05	1.0049e-05	1055.8	366.39	9.7831e-06	1.0055e-05	414.33	154.11	134.07	50.16	9.8445e-06	68.033	320.292	136.435	124.824	86.427	401.397	235.350	84.888	90.324	258.235	207.283	88.135	92.571	94.706	98.974	234.658	95.874	-8191	255	
29865.016	1	1	0	0	0.21781	0.12837	0.15565	0.17017	0.15121	0.12532	0.2708	0.07339	0.091441	0.026167	0.19579	0.10103	0.28637	0.24803	0.012078	0.13132	-3.7	-4.1604	-4.8417	-4.2208	-4.5708	-4.7229	-4.0083	-4.8979	-4.1354	-4.2396	-4.9833	-4.0292	-4.5646	-4.7958	-3.8917	-4.8646	210.193	415.107	247.893	426.109	212.377	415.456	381.946	345.906	349.913	107.644	388.307	408.413	394.791	403.592	420.819	368.131	0.0015277	0.00021151	0.00032887	1131.2	1.4116e-05	1.4692e-05	1150.6	397.12	1.2681e-05	3.5776e-06	448.03	166.84	146.2	53.836	3.8107e-06	73.718	0.00090537	0.00088699	0.00024122	1028.5	9.5534e-06	9.7589e-06	1040	360.17	9.3121e-06	9.5166e-06	406.45	151.32	132.66	49.296	9.7317e-06	67.166	314.848	237.675	144.938	86.475	256.912	251.944	84.953	90.442	259.774	203.968	88.252	92.653	94.629	99.122	264.054	95.348	-8191	255	
29865.137	1	1	0	0	0.10443	0.25113	0.089334	0.32253	0.24672	0.064163	0.32832	0.13776	0.10454	0.19289	0.23226	0.18101	0.13862	0.097753	0.13406	0.15076	-3.9042	-4.0271	-4.8792	-4.0687	-4.3021	-4.5521	-4.0813	-4.8313	-4.3979	-4.025	-5.0917	-4.2292	-4.4375	-4.9354	-3.75	-4.8729	281.171	277.693	97.963	385.305	386.707	352.467	385.530	375.325	88.585	270.620	396.970	94.732	121.895	83.986	82.512	397.870	0.0015739	0.00088973	0.00018155	1134.9	9.6495e-06	5.117e-06	1159.1	398.75	1.4192e-05	9.9784e-06	448.44	168.69	148.46	54.789	6.7444e-06	75.507	0.00089353	0.00090004	0.00024474	1029.5	9.5036e-06	9.7787e-06	1042.2	362.28	9.7822e-06	9.7322e-06	409.53	153.61	134.58	50.271	9.7627e-06	68.98	314.345	184.166	168.433	86.411	192.433	179.646	84.992	90.634	261.557	180.912	88.516	92.523	94.906	98.976	202.897	95.790	-8191	255	
29865.232	1	1	0	0	0.036097	0.07	0.11192	0.11199	0.14537	0.018833	0.36455	0.26857	0.11732	0.27101	0.23905	0.3319	0.16002	0.18962	0.25993	0.18448	-4.1167	-4.0396	-4.7979	-4.0813	-4.2771	-4.7063	-4.0375	-4.7646	-4.5	-3.8583	-4.8479	-4.1917	-4.4187	-4.9479	-4.0042	-4.7396	79.662	213.748	246.485	424.292	387.981	421.289	402.167	364.329	190.021	224.438	384.220	420.268	408.801	82.554	407.848	304.981	0.0015972	0.00052649	0.00018136	1156	5.5642e-06	1.0727e-05	1170.9	403.57	8.1183e-06	3.4295e-06	451.97	171.07	149.21	54.786	4.0482e-06	75.267	0.00092852	0.00090533	0.00025282	1047.2	9.8831e-06	9.9477e-06	1059.9	367.05	9.8512e-06	9.7929e-06	413.75	154.57	135.35	50.421	9.8364e-06	69.003	315.285	114.466	411.024	86.152	191.867	248.772	84.935	90.317	236.222	133.810	88.433	92.542	94.504	99.333	95.851	95.721	-8191	255	
29865.305	1	1	0	0	0.26994	0.20239	0.1278	0.12119	0.051143	0.19252	0.26366	0.1196	0.13091	0.08178	0.20033	0.092176	0.2416	0.30038	0.20144	0.12364	-4.2417	-3.8896	-4.6833	-4.2063	-4.0646	-4.7875	-4.1292	-4.6354	-4.6104	-3.7542	-5.0062	-4.4437	-4.2312	-4.9292	-3.9917	-4.6771	216.892	95.379	97.822	411.692	72.835	140.064	354.491	287.019	177.183	366.984	345.311	390.947	408.981	102.810	313.730	290.201	0.0018133	0.00041115	0.00014472	1164.5	9.6821e-06	1.287e-05	1184	408.91	1.1751e-05	4.4275e-06	459.34	174.3	150.98	55.689	7.6931e-06	76.192	0.00092305	0.00090692	0.00025181	1052.8	9.7705e-06	9.7621e-06	1071.3	370.29	9.7785e-06	1.0033e-05	419.92	157.58	136.9	51.049	9.8036e-06	69.331	316.593	316.875	270.107	86.562	222.669	197.459	85.236	90.454	267.277	183.380	88.544	92.720	94.554	98.847	261.649	95.347	-8191	255	
29865.400	1	1	0	0	0.21965	0.11422	0.047481	0.23285	0.032606	0.14601	0.20713	0.1948	0.26002	0.17552	0.29277	0.31748	0.22798	0.31932	0.017517	0.27933	-4.4417	-3.9146	-4.625	-4.4688	-4.1167	-4.8917	-4.2646	-4.5375	-4.7958	-4.0771	-4.9292	-4.4958	-4.1687	-4.9812	-4.2458	-4.4437	225.096	241.563	361.966	92.670	134.781	157.283	411.566	389.905	426.362	216.175	408.251	385.337	403.548	403.791	122.964	341.374	0.0017493	0.00063825	0.00026845	1148.3	1.7511e-05	6.538e-06	1156.9	400.44	7.6321e-06	1.0885e-05	445.38	167.61	145.54	53.806	1.335e-05	73.276	0.00091292	0.00089732	0.00024306	1039.5	9.5113e-06	9.39e-06	1046.1	361.42	9.4122e-06	9.3938e-06	405.75	151.7	132.62	49.273	9.4959e-06	66.818	315.989	204.516	158.600	86.328	250.345	299.235	85.367	90.611	250.787	217.959	88.410	92.717	94.763	98.975	203.870	95.367	-8191	255	
29865.520	1	1	0	0	0.17106	0.21907	0.16733	0.14101	0.095809	0.098641	0.1239	0.35884	0.1016	0.13956	0.1305	0.24197	0.12687	0.042543	0.099502	0.25421	-4.4583	-4	-4.6583	-4.6229	-3.9042	-4.9042	-4.1917	-4.4958	-4.7562	-3.7833	-4.6	-4.6396	-4.1896	-4.9812	-4.25	-4.3604	362.544	354.649	270.788	102.208	386.154	327.203	367.006	404.488	173.176	184.058	99.240	346.893	392.412	200.244	107.673	373.963	0.0017525	0.0003273	6.5455e-05	1137.7	8.2745e-06	7.3332e-06	1142.7	395.36	1.3506e-05	5.5547e-06	442.71	165.68	145.24	53.727	8.5406e-06	72.463	0.00087698	0.0008602	0.00024066	1027.7	9.2607e-06	9.5197e-06	1035.3	357.96	9.3586e-06	9.288e-06	402.86	150.48	131.96	49.145	9.3554e-06	66.605	319.613	427.252	91.195	86.572	237.211	277.081	85.042	90.330	228.029	218.613	87.822	92.415	94.523	99.243	230.473	95.576	-8191	255	
29865.615	1	1	0	0	0.071651	0.23989	0.065057	0.27741	0.25569	0.039057	0.18589	0.12587	0.079424	0.016492	0.087736	0.084905	0.15791	0.050612	0.15259	0.10905	-4.525	-3.8958	-4.5333	-4.8125	-4.0271	-4.7792	-4.4854	-4.3146	-4.8125	-4.0354	-4.5271	-4.8333	-4.0042	-4.8562	-4.2958	-4.1937	149.083	317.190	221.067	424.001	357.354	152.743	368.578	344.231	264.745	183.242	381.236	229.983	419.565	172.195	414.438	74.437	0.0016423	0.00027601	9.2233e-05	1139.5	5.9947e-06	6.2536e-06	1153.3	398.93	3.1905e-06	6.6887e-06	446.79	166.77	146.43	53.972	1.6152e-05	73.824	0.00088103	0.00086826	0.00023541	1032.9	9.2456e-06	9.4438e-06	1038.9	360.56	9.4031e-06	9.5961e-06	407.2	151.9	133.28	49.579	9.6052e-06	67.496	323.370	432.201	168.816	86.255	204.615	224.576	85.384	90.349	345.515	199.915	87.907	92.768	94.591	98.865	209.908	95.410	-8191	255	
29865.715	1	1	0	0	0.12182	0.038463	0.084025	0.18035	0.14595	0.12835	0.13157	0.32633	0.12229	0.12122	0.12157	0.16142	0.36901	0.28806	0.037205	0.073307	-4.4875	-4.0542	-4.3583	-4.8083	-3.9021	-4.7	-4.4833	-4.1937	-4.8646	-3.9083	-4.3	-4.9458	-3.925	-4.7979	-4.4208	-3.9542	382.871	319.571	234.582	388.554	286.080	159.241	341.912	363.084	104.481	388.080	88.206	393.154	386.533	72.877	269.480	211.035	0.0013743	0.00033531	0.0002675	1144.1	1.2762e-05	6.4118e-06	1160.9	403.06	2.1957e-05	5.5902e-06	456.59	171.09	148.65	55.498	1.0433e-05	75.68	0.00089596	0.00086629	0.00024512	1035.9	9.5602e-06	9.7415e-06	1048.8	364.92	9.5347e-06	9.8674e-06	414.02	155.14	135.55	50.8	9.9854e-06	69.298	328.460	247.296	183.428	86.281	256.836	192.658	85.256	90.291	262.015	260.978	88.193	92.753	94.757	98.815	225.041	95.530	-8191	255	
29865.832	1	1	0	0	0.15814	0.13552	0.13329	0.22868	0.012508	0.18499	0.066862	0.44308	0.15426	0.17478	0.077771	0.18993	0.30053	0.18067	0.10392	0.10628	-4.625	-3.9583	-4.1417	-4.9896	-3.7854	-4.6375	-4.6604	-4.0375	-4.775	-4.2021	-4.35	-4.8979	-3.8937	-4.7083	-4.5	-4.0375	99.772	407.023	194.583	79.640	109.999	216.498	396.555	365.303	211.204	293.877	79.085	342.730	355.403	356.171	132.078	418.540	0.0015971	0.0010559	0.00022724	1152.1	1.1481e-05	1.0778e-05	1169.9	407.96	2.061e-05	7.3243e-06	456.9	173.04	149.22	55.379	2.0698e-06	75.751	0.00091604	0.00090745	0.0002542	1045.8	9.6682e-06	9.9623e-06	1061.7	369.75	9.6862e-06	9.7709e-06	418.49	156.7	135.96	50.851	9.6338e-06	69.095	319.738	103.691	180.138	85.989	213.993	221.044	84.955	90.419	218.161	225.210	88.502	92.833	94.750	99.502	225.843	95.515	-8191	255	
29865.930	1	1	0	0	0.20578	0.21286	0.23048	0.033111	0.2023	0.11727	0.23289	0.14166	0.11127	0.15883	0.12816	0.38115	0.049581	0.31696	0.049968	0.22457	-4.4062	-4.2104	-4.2333	-4.9563	-3.9333	-4.3708	-4.6167	-4.0625	-4.8792	-4.3125	-4.35	-4.9187	-3.9958	-4.4396	-4.6583	-3.8688	385.573	165.266	279.476	275.706	191.402	327.494	384.775	402.091	95.697	151.769	77.470	382.228	375.241	358.580	335.039	149.778	0.0017118	0.00028212	0.00038462	1143	1.3692e-05	4.6904e-06	1160.3	401.88	2.2733e-05	7.0896e-06	453.97	171	148.53	54.846	1.8018e-05	74.904	0.00091106	0.00089727	0.00024767	1039.4	9.7317e-06	9.6512e-06	1049.3	364.61	9.6816e-06	9.6164e-06	412.66	154.44	135.25	50.375	9.5383e-06	68.487	317.714	163.510	138.606	86.254	231.198	171.839	85.092	90.666	264.047	164.550	88.194	92.699	94.426	99.302	246.126	95.555	-8191	255	
29866.002	1	1	0	0	0.17792	0.15114	0.015519	0.21303	0.20546	0.22066	0.41263	0.1485	0.051036	0.071902	0.085395	0.15506	0.27159	0.026315	0.12378	0.16638	-4.3854	-4.2958	-3.9667	-4.8625	-4.1896	-4.3417	-4.8729	-3.8625	-4.5833	-4.475	-3.85	-4.9062	-4.15	-4.3562	-4.6188	-3.9083	160.418	86.383	92.720	415.954	236.487	207.612	392.781	273.251	93.636	106.954	179.606	324.008	416.189	347.766	272.399	231.306	0.0018501	0.00062661	9.6224e-05	1147.3	1.1111e-05	8.0218e-06	1163.8	403.11	1.3764e-05	7.8716e-06	455.73	172.36	150	56.03	1.7856e-05	76.198	0.00088866	0.00086901	0.00024467	1042.2	9.4997e-06	9.5756e-06	1054.5	365.64	9.6717e-06	9.6356e-06	415.23	155.87	136.29	51.07	9.8668e-06	69.512	316.147	152.937	234.387	86.372	248.678	238.867	85.292	90.210	222.564	241.766	88.122	92.732	94.636	99.186	196.481	95.396	-8191	255	
29866.121	1	1	0	0	0.073583	0.078418	0.22499	0.1662	0.21911	0.10667	0.31388	0.28449	0.038136	0.17849	0.21406	0.13727	0.25836	0.24635	0.075781	0.15814	-4.325	-4.5271	-3.9958	-4.9833	-4.2792	-4.1896	-5.0604	-3.9604	-4.425	-4.7271	-3.9437	-4.8854	-4.225	-4.1479	-4.7083	-4.0667	278.122	371.180	123.785	378.100	282.834	285.102	408.623	428.817	101.382	283.851	84.418	355.241	409.247	365.370	207.796	363.359	0.0016232	0.00049952	0.00023429	1159.2	1.2455e-05	1.6134e-05	1183.6	411	1.5155e-05	1.4245e-06	462.11	175.49	152.95	56.784	1.2747e-05	77.487	0.00091144	0.00089177	0.00024781	1048.8	9.511e-06	9.7952e-06	1069.6	372.84	9.5361e-06	9.6982e-06	420.62	159.1	138.87	51.859	9.6114e-06	70.965	322.880	373.125	216.871	86.439	175.322	221.682	85.457	90.706	198.144	261.000	88.161	92.407	94.263	99.256	238.424	95.463	-8191	255	
29866.217	1	1	0	0	0.11208	0.087699	0.088834	0.29318	0.16788	0.064875	0.26484	0.27778	0.19344	0.16156	0.17174	0.24182	0.026272	0.090036	0.12344	0.17483	-4.3167	-4.5708	-3.8625	-4.9979	-4.3688	-4.0938	-5.075	-4.1854	-4.3729	-4.7917	-3.8667	-4.925	-4.4521	-4.0729	-4.9125	-4.1438	365.872	406.128	87.265	367.918	275.692	168.206	345.681	426.970	378.795	327.350	188.511	382.504	143.831	265.170	141.202	331.656	0.001743	0.00051429	0.00010175	1181.6	9.6419e-06	1.3807e-05	1195.1	413.32	1.5519e-05	3.7668e-06	464.33	175.2	150.94	55.682	1.0473e-05	76.352	0.00091034	0.0008732	0.00024531	1063.8	9.5156e-06	9.4703e-06	1080.4	374.01	9.4369e-06	9.4231e-06	421.76	157.95	137.11	51.004	9.5513e-06	69.794	316.923	185.610	219.133	86.144	302.674	285.995	85.221	90.921	227.609	185.612	88.096	92.531	94.779	98.815	248.528	95.914	-8191	255	
29866.314	1	1	0	0	0.13409	0.099466	0.055453	0.10529	0.27365	0.10357	0.13693	0.13805	0.14209	0.293	0.16594	0.072509	0.058837	0.29907	0.17819	0.20697	-3.9646	-4.7188	-3.7979	-4.8333	-4.5188	-4.0563	-4.9646	-4.1667	-4.225	-4.7833	-3.9417	-4.8562	-4.5062	-3.9667	-4.8521	-4.3562	359.576	167.841	158.805	237.536	321.264	411.532	430.954	323.630	349.039	144.832	357.343	176.936	292.721	332.736	344.316	378.569	0.0016465	0.00077227	9.5571e-05	1179.7	1.4755e-05	6.4565e-06	1204.5	407.02	8.2773e-06	1.1757e-05	458.08	171.13	148.19	54.548	4.3969e-06	73.885	0.00087721	0.00085526	0.00024398	1067	9.3593e-06	9.4953e-06	1085.3	368.31	9.2902e-06	9.2374e-06	415.29	155.37	134.85	50.007	9.4216e-06	67.741	317.205	123.037	181.459	86.383	220.258	210.605	85.242	90.511	247.766	174.260	88.171	92.732	94.587	98.726	386.131	95.801	-8191	255	
29866.434	1	1	0	0	0.025645	0.050507	0.071325	0.21258	0.058348	0.10639	0.037253	0.14904	0.15592	0.056053	0.177	0.25032	0.21218	0.20768	0.18203	0.084222	-3.8083	-4.9333	-3.8187	-4.8083	-4.6875	-3.8375	-5.0354	-4.4563	-4.1833	-4.9563	-4.0354	-4.775	-4.7021	-3.8438	-4.9917	-4.4146	419.218	257.828	200.045	350.311	233.575	236.226	125.621	385.354	100.428	432.239	403.290	404.939	410.263	388.829	276.173	180.318	0.0017133	0.00060516	0.00019539	1156.2	1.2481e-05	9.5114e-06	1165.8	393.75	1.362e-05	1.0694e-05	443.06	164.37	144.71	53.214	1.01e-05	72.558	0.00086897	0.00083754	0.00023343	1048.1	9.1865e-06	9.0896e-06	1051.4	356.87	9.069e-06	9.3545e-06	400.53	149.41	131.62	48.918	9.4385e-06	66.137	315.198	162.458	190.036	86.065	274.000	235.916	84.812	90.603	195.130	215.333	88.339	92.074	94.219	98.843	253.877	95.252	-8191	255	
29866.529	1	1	0	0	0.24794	0.1595	0.15497	0.18404	0.075653	0.19479	0.31871	0.12564	0.073594	0.064977	0.25882	0.066454	0.18585	0.26793	0.043659	0.15125	-3.8083	-4.8292	-4.0563	-4.5563	-4.6417	-3.9458	-4.9396	-4.5979	-3.9417	-4.9812	-4.2375	-4.3625	-4.9854	-3.8875	-4.5521	-4.6292	274.022	102.697	136.250	382.451	307.149	246.204	342.498	282.159	120.581	223.091	417.159	373.712	142.538	354.694	107.780	334.857	0.0016918	0.00047048	0.00017463	1135.3	1.2011e-05	6.0949e-06	1154.7	394.09	2.1517e-05	5.1675e-06	442.31	166.63	147.03	53.489	7.8067e-06	72.612	0.00086299	0.00086075	0.00024058	1028.8	9.4741e-06	9.6426e-06	1040.8	357.44	9.511e-06	9.7324e-06	402.71	150.73	133.29	49.419	9.7805e-06	66.823	317.469	186.361	114.211	86.011	243.575	179.039	84.901	90.386	220.678	142.342	88.317	92.272	94.935	99.123	270.030	95.528	-8191	255	
29866.600	1	1	0	0	0.085312	0.069329	0.24323	0.079267	0.19122	0.070652	0.14908	0.2886	0.15806	0.28805	0.23731	0.054012	0.21328	0.094531	0.22208	0.16005	-3.7146	-4.9146	-4.1562	-4.3125	-4.8187	-3.8729	-4.7688	-4.5563	-4.0333	-4.6625	-4.1896	-4.3208	-4.9646	-4.0938	-4.6062	-4.9229	109.579	90.586	101.173	98.163	123.182	278.701	384.510	381.291	383.331	130.213	409.224	166.659	341.297	388.398	180.848	382.910	0.0016661	0.00042425	8.1965e-05	1146.8	6.3242e-06	8.9764e-06	1153	392.63	1.3e-06	1.0134e-05	436.7	164.8	145.61	53.797	9.5404e-06	72.854	0.00091975	0.00089827	0.00025024	1037.7	9.7176e-06	9.9339e-06	1041.9	356.81	9.7854e-06	9.7722e-06	399.62	149.62	132.1	49.097	9.8064e-06	66.593	310.303	223.104	138.941	86.112	225.098	350.398	85.067	90.626	317.129	197.195	88.207	92.630	94.642	99.158	232.710	95.355	-8191	255	
29866.695	1	1	0	0	0.027144	0.084502	0.20994	0.32094	0.096299	0.15295	0.31769	0.34482	0.064822	0.15304	0.16344	0.17953	0.2793	0.18732	0.26205	0.1526	-3.6625	-4.8812	-4.1875	-4.3083	-4.7854	-3.9021	-4.7208	-4.825	-3.7771	-4.7458	-4.4688	-4.1479	-5.0458	-4.0771	-4.3208	-4.8875	201.117	91.389	423.631	339.465	217.453	332.603	417.460	376.504	229.858	180.904	409.601	340.143	74.838	364.172	299.021	355.059	0.0018971	0.00068777	0.00016178	1146.8	1.3884e-05	1.2546e-05	1165	395.87	1.358e-05	1.0064e-05	446.19	167.14	147.3	54.176	9.3392e-06	74.039	0.00088973	0.00088056	0.00024185	1041.2	9.3925e-06	9.5298e-06	1054.8	359.59	9.6841e-06	9.7379e-06	405.82	152.48	134.03	49.825	9.6171e-06	67.841	317.285	173.813	161.581	86.219	227.089	237.193	85.107	90.571	269.027	255.377	88.433	92.544	94.785	99.232	215.289	95.625	-8191	255	
29866.816	1	1	0	0	0.21319	0.20174	0.16949	0.38703	0.059774	0.037922	0.30801	0.10644	0.11402	0.16221	0.19499	0.1351	0.20926	0.09482	0.13448	0.14069	-3.7188	-4.9	-4.4	-4.1896	-4.8146	-4.1792	-4.6875	-4.8063	-4.0042	-4.7521	-4.4833	-4.275	-5.0146	-4.2417	-4.3688	-4.7708	284.150	366.046	360.039	388.691	245.394	134.722	371.959	398.365	172.381	268.005	94.553	393.776	287.105	342.758	293.308	83.300	0.0015832	0.00080496	0.00010127	1166	9.8316e-06	1.3673e-05	1183.2	400.93	1.1376e-05	8.8006e-06	444.65	167.53	147.46	54.224	1.7339e-05	73.094	0.00089399	0.0008729	0.00024768	1054.7	9.3666e-06	9.6874e-06	1069.6	362.89	9.5599e-06	9.2066e-06	405.3	151.72	133.48	49.56	9.3394e-06	66.853	308.249	132.850	250.779	86.309	206.002	250.651	85.058	90.580	234.074	234.664	88.285	92.312	94.943	99.250	232.450	95.719	-8191	255	
29866.912	1	1	0	0	0.17099	0.04199	0.052955	0.24245	0.063228	0.17355	0.14708	0.16896	0.087043	0.0575	0.096821	0.14183	0.096908	0.24736	0.16818	0.12069	-3.6104	-4.7646	-4.5021	-4.0417	-4.9333	-4.0292	-4.275	-4.9208	-4.0104	-4.5729	-4.6125	-3.975	-4.9271	-4.3146	-4.0167	-4.9333	178.393	132.703	392.811	365.977	410.747	73.380	377.622	398.988	412.282	185.255	120.460	386.876	156.117	350.882	300.452	380.709	0.0019748	0.00076481	1.1735e-05	1151.9	9.1363e-06	1.0825e-05	1154.9	392.91	1.8139e-05	8.9656e-06	438.73	164.84	144.91	53.318	5.6537e-06	72.409	0.00088206	0.00086239	0.00023588	1038.3	9.1398e-06	9.3719e-06	1043.6	356.25	9.4102e-06	9.4002e-06	399.54	149.21	131.76	48.86	9.3216e-06	66.102	315.858	200.794	151.035	85.639	233.148	217.015	84.981	90.560	225.687	246.159	88.174	92.381	94.690	98.922	164.336	95.624	-8191	255	
29867.010	1	1	0	0	0.038926	0.060603	0.10619	0.2751	0.16742	0.11473	0.32244	0.10061	0.23104	0.16214	0.11099	0.016571	0.18564	0.16752	0.078821	0.28277	-3.4792	-4.3667	-4.6667	-4.0146	-4.6687	-4.2625	-4.3125	-4.9125	-3.9688	-4.4667	-4.6771	-3.9437	-4.8604	-4.3729	-3.9792	-5.0271	217.278	176.573	253.543	402.817	77.239	95.096	352.401	328.755	252.731	97.713	361.600	205.044	241.977	324.235	199.913	375.528	0.0018675	0.0010782	0.00016078	1138.2	1.1732e-05	7.8039e-06	1157.7	392.15	1.6508e-05	2.8267e-06	439.12	164.85	146.11	53.289	1.7901e-05	71.791	0.00088687	0.00086008	0.0002389	1034.1	9.2177e-06	9.5299e-06	1044.5	355.98	9.4363e-06	9.4107e-06	399.53	149.1	132.15	48.827	9.5362e-06	65.977	307.836	155.535	167.227	86.247	239.583	265.194	84.864	90.675	253.309	235.108	88.572	92.548	94.533	99.341	200.127	95.457	-8191	255	
29867.105	1	1	0	0	0.023497	0.2186	0.096642	0.18848	0.19227	0.12475	0.11769	0.23929	0.06143	0.11106	0.077202	0.13126	0.038734	0.15682	0.11773	0.31716	-3.8063	-4.6062	-4.7958	-4.0625	-4.725	-4.5479	-4.0479	-4.9917	-4.0979	-4.4208	-4.9083	-3.9854	-4.825	-4.575	-3.9083	-5.0687	129.740	363.518	130.424	113.767	418.230	415.648	283.325	397.044	96.985	283.314	430.035	181.255	143.398	294.761	250.288	315.483	0.0016606	0.00088458	3.1133e-05	1145.5	1.2544e-05	3.6372e-06	1164.2	391.74	6.2455e-06	8.6383e-06	438.39	163.97	145.19	53.105	8.1124e-06	72.319	0.00087694	0.00086358	0.00023672	1040.7	9.4336e-06	9.3209e-06	1050.8	355.43	9.4423e-06	9.6055e-06	400.42	148.68	131.57	48.692	9.4433e-06	65.865	319.249	137.604	136.021	86.215	221.726	210.244	84.904	90.663	205.679	242.749	88.508	92.500	94.773	99.053	281.903	95.518	-8191	255	
29867.201	1	1	0	0	0.14804	0.052519	0.079364	0.28241	0.16523	0.21934	0.31601	0.31077	0.18586	0.19427	0.35463	0.22131	0.095916	0.24203	0.08449	0.26188	-3.8479	-4.3021	-4.8521	-3.9583	-4.6667	-4.5625	-4.0708	-4.7792	-4.1417	-4.0938	-5.0583	-4.0375	-4.6083	-4.7312	-4.0146	-4.9625	140.584	161.196	97.721	371.542	277.023	135.619	381.331	394.613	132.319	114.620	341.614	365.079	285.562	430.519	230.692	342.057	0.0016439	0.00067285	0.00031026	1154.7	8.9343e-06	1.741e-06	1166.4	394.38	1.3806e-05	2.6928e-06	445.72	168.5	148.17	54.247	5.4246e-06	74.356	0.00086431	0.0008565	0.00024364	1046.1	9.4337e-06	9.5125e-06	1058.4	359.05	9.6655e-06	9.607e-06	406.98	152.5	134.63	49.928	9.7317e-06	68.027	317.680	86.542	147.700	86.110	237.047	313.025	84.809	90.699	191.246	153.178	88.099	92.542	94.610	99.315	152.472	96.206	-8191	255	
29867.299	1	1	0	0	0.14588	0.21416	0.15769	0.36882	0.072708	0.079077	0.21317	0.05496	0.09896	0.26562	0.1896	0.15475	0.17646	0.11014	0.22138	0.049066	-3.9729	-4.1438	-4.9208	-4.1583	-4.3917	-4.65	-4.0229	-4.8792	-4.2375	-4.05	-4.9333	-4.0896	-4.4417	-4.7771	-3.8708	-4.8958	338.012	99.571	212.239	429.081	180.904	324.841	292.582	343.224	432.057	263.000	294.727	427.802	367.978	417.740	120.081	83.687	0.0016566	0.0013361	0.00027267	1162.7	1.4416e-05	8.4258e-06	1191.5	403.24	1.3287e-05	6.4597e-06	451.91	169.67	149.91	55.158	1.4856e-05	75.152	0.00093098	0.00089431	0.00025052	1058.8	9.7128e-06	9.9248e-06	1072.9	365.32	9.5623e-06	9.9393e-06	410.96	153.84	135.79	50.745	9.8771e-06	68.49	316.965	135.265	134.893	86.390	281.287	272.410	85.120	90.454	233.292	193.594	88.813	92.489	94.330	99.023	219.731	95.572	-8191	255	
#DATA ENDS
