BOXY.EXE: ISS Imagent and Oximeter Data Acquisition Program Version 0.80
Ascii Record File

#ACQ INFORMATION
2  Detector Channels 
16  External MUX Channels 
1  Auxiliary Channels 
5000  Waveform (CCF) Frequency (Hz)
1  Waveforms Skipped 
30  Waveforms Averaged 
1  Cycles Averaged 
16  Acquisitions per Waveform 
10.0806  Updata Rate (Hz) 

#FILE INFORMATION
TRUE -- External MUX Channel results are PARSED.
FALSE -- AC DC and Phase are NOT grouped.
TRUE -- Companion Program Settings File CREATED.
FALSE -- AC data not excluded
FALSE -- DC data not excluded
FALSE -- Phase data not excluded
FALSE -- Auxillary Chn. data not excluded
Tab delimiters

#CALIBRATION STATE
TRUE -- Waveform Calibration Values APPLIED.


#AUX CALIBRATION VALUES
Val Type	aux-1	

Term	1.0000e+00	
Factor	0.0000e+00	


#WF CALIBRATION VALUES
A = Detector Channel
Val Type	A-AC1	A-AC2	A-AC3	A-AC4	A-AC5	A-AC6	A-AC7	A-AC8	A-AC9	A-AC10	A-AC11	A-AC12	A-AC13	A-AC14	A-AC15	A-AC16	A-DC1	A-DC2	A-DC3	A-DC4	A-DC5	A-DC6	A-DC7	A-DC8	A-DC9	A-DC10	A-DC11	A-DC12	A-DC13	A-DC14	A-DC15	A-DC16	A-Ph1	A-Ph2	A-Ph3	A-Ph4	A-Ph5	A-Ph6	A-Ph7	A-Ph8	A-Ph9	A-Ph10	A-Ph11	A-Ph12	A-Ph13	A-Ph14	A-Ph15	A-Ph16	

Term	0.00000e+00	0.00000e+00	0.00000e+00	0.00000e+00	0.00000e+00	0.00000e+00	0.00000e+00	0.00000e+00	0.00000e+00	0.00000e+00	0.00000e+00	0.00000e+00	0.00000e+00	0.00000e+00	0.00000e+00	0.00000e+00	0.00000e+00	0.00000e+00	0.00000e+00	0.00000e+00	0.00000e+00	0.00000e+00	0.00000e+00	0.00000e+00	0.00000e+00	0.00000e+00	0.00000e+00	0.00000e+00	0.00000e+00	0.00000e+00	0.00000e+00	0.00000e+00	0.00000e+00	0.00000e+00	0.00000e+00	0.00000e+00	0.00000e+00	0.00000e+00	0.00000e+00	0.00000e+00	0.00000e+00	0.00000e+00	0.00000e+00	0.00000e+00	0.00000e+00	0.00000e+00	0.00000e+00	0.00000e+00	
Factor	1.00000e+00	1.00000e+00	1.00000e+00	1.00000e+00	1.00000e+00	1.00000e+00	1.00000e+00	1.00000e+00	1.00000e+00	1.00000e+00	1.00000e+00	1.00000e+00	1.00000e+00	1.00000e+00	1.00000e+00	1.00000e+00	1.00000e+00	1.00000e+00	1.00000e+00	1.00000e+00	1.00000e+00	1.00000e+00	1.00000e+00	1.00000e+00	1.00000e+00	1.00000e+00	1.00000e+00	1.00000e+00	1.00000e+00	1.00000e+00	1.00000e+00	1.00000e+00	X	X	X	X	X	X	X	X	X	X	X	X	X	X	X	X	

B = Detector Channel
Val Type	B-AC1	B-AC2	B-AC3	B-AC4	B-AC5	B-AC6	B-AC7	B-AC8	B-AC9	B-AC10	B-AC11	B-AC12	B-AC13	B-AC14	B-AC15	B-AC16	B-DC1	B-DC2	B-DC3	B-DC4	B-DC5	B-DC6	B-DC7	B-DC8	B-DC9	B-DC10	B-DC11	B-DC12	B-DC13	B-DC14	B-DC15	B-DC16	B-Ph1	B-Ph2	B-Ph3	B-Ph4	B-Ph5	B-Ph6	B-Ph7	B-Ph8	B-Ph9	B-Ph10	B-Ph11	B-Ph12	B-Ph13	B-Ph14	B-Ph15	B-Ph16	

Term	0.00000e+00	0.00000e+00	0.00000e+00	0.00000e+00	0.00000e+00	0.00000e+00	0.00000e+00	0.00000e+00	0.00000e+00	0.00000e+00	0.00000e+00	0.00000e+00	0.00000e+00	0.00000e+00	0.00000e+00	0.00000e+00	0.00000e+00	0.00000e+00	0.00000e+00	0.00000e+00	0.00000e+00	0.00000e+00	0.00000e+00	0.00000e+00	0.00000e+00	0.00000e+00	0.00000e+00	0.00000e+00	0.00000e+00	0.00000e+00	0.00000e+00	0.00000e+00	-1.94344e+02	-1.48674e+02	-1.07227e+02	-1.84987e+02	-9.08407e+01	-7.85829e+01	-1.57988e+02	-1.62015e+02	-1.11268e+02	-7.23283e+01	-1.72886e+02	-1.71881e+02	-1.86190e+02	-1.78141e+02	-8.04851e+01	-1.51352e+02	
Factor	3.67444e-05	1.62840e-04	4.87540e-05	1.57284e-01	1.62940e-06	1.66336e-06	1.76798e-01	5.88739e-02	1.65447e-06	1.74198e-06	9.00523e-02	2.90411e-02	3.90052e-02	9.40174e-03	1.81285e-06	1.35102e-02	2.66912e-06	2.86867e-06	7.96089e-07	8.04055e-02	3.10196e-08	3.14591e-08	8.49095e-02	3.00481e-02	3.10529e-08	3.13860e-08	4.43970e-02	1.43626e-02	1.94229e-02	4.81836e-03	3.11608e-08	6.69425e-03	X	X	X	X	X	X	X	X	X	X	X	X	X	X	X	X	



#DISTANCE SETTINGS
A = Detector Channel
A-1	A-2	A-3	A-4	A-5	A-6	A-7	A-8	A-9	A-10	A-11	A-12	A-13	A-14	A-15	A-16	

2.5000e+00	3.0000e+00	2.5000e+00	3.0000e+00	2.0000e+00	3.0000e+00	1.5000e+00	3.0000e+00	3.0000e+00	3.0000e+00	3.0000e+00	3.0000e+00	3.0000e+00	3.0000e+00	1.5000e+00	3.0000e+00	

B = Detector Channel
B-1	B-2	B-3	B-4	B-5	B-6	B-7	B-8	B-9	B-10	B-11	B-12	B-13	B-14	B-15	B-16	

1.0000e+01	1.0000e+01	1.0000e+01	1.4400e+00	1.0000e+01	1.0000e+01	1.5100e+00	1.9400e+00	1.0000e+01	1.0000e+01	1.9900e+00	2.4900e+00	2.4100e+00	2.9000e+00	1.0000e+01	2.9800e+00	




#DATA BEGINS
time	group	step	mark	flag	A-AC1	A-AC2	A-AC3	A-AC4	A-AC5	A-AC6	A-AC7	A-AC8	A-AC9	A-AC10	A-AC11	A-AC12	A-AC13	A-AC14	A-AC15	A-AC16	A-DC1	A-DC2	A-DC3	A-DC4	A-DC5	A-DC6	A-DC7	A-DC8	A-DC9	A-DC10	A-DC11	A-DC12	A-DC13	A-DC14	A-DC15	A-DC16	A-Ph1	A-Ph2	A-Ph3	A-Ph4	A-Ph5	A-Ph6	A-Ph7	A-Ph8	A-Ph9	A-Ph10	A-Ph11	A-Ph12	A-Ph13	A-Ph14	A-Ph15	A-Ph16	B-AC1	B-AC2	B-AC3	B-AC4	B-AC5	B-AC6	B-AC7	B-AC8	B-AC9	B-AC10	B-AC11	B-AC12	B-AC13	B-AC14	B-AC15	B-AC16	B-DC1	B-DC2	B-DC3	B-DC4	B-DC5	B-DC6	B-DC7	B-DC8	B-DC9	B-DC10	B-DC11	B-DC12	B-DC13	B-DC14	B-DC15	B-DC16	B-Ph1	B-Ph2	B-Ph3	B-Ph4	B-Ph5	B-Ph6	B-Ph7	B-Ph8	B-Ph9	B-Ph10	B-Ph11	B-Ph12	B-Ph13	B-Ph14	B-Ph15	B-Ph16	aux-1	digaux	

1457.576	1	1	0	256	0.21892	0.29647	0.23806	0.20494	0.22251	0.11713	0.22108	0.35148	0.13968	0.26977	0.25303	0.31538	0.11392	0.2965	0.15006	0.22433	-1.8667	-1.9688	-1.8188	-2.4375	-1.7646	-2.1063	-2.4062	-1.7979	-2.2438	-2.0333	-1.775	-2.3292	-1.9958	-2.0042	-2.2958	-1.9271	99.952	105.006	256.620	323.322	285.219	116.705	370.726	302.710	49.044	77.661	320.152	336.380	100.387	304.478	379.857	315.043	0.0013912	0.00055072	0.00031467	677.98	9.6997e-06	3.8307e-06	885.22	256.99	4.357e-06	1.1865e-05	412.74	194.43	121.18	66.916	8.432e-06	104.54	0.0018517	0.0018779	0.00052132	721.38	2.0513e-05	2.0916e-05	932.36	275.95	2.0797e-05	2.0906e-05	436.47	202.62	131.84	69.976	2.0689e-05	108.72	88.895	144.974	94.679	40.322	139.097	105.307	39.586	45.711	138.071	187.753	43.754	48.361	50.044	53.695	205.254	51.545	-8191	255	
1457.697	1	1	0	0	0.051559	0.19294	0.0074694	0.09837	0.16729	0.29679	0.13788	0.049449	0.23997	0.10666	0.38263	0.080431	0.34768	0.19276	0.23078	0.034573	-1.6979	-1.9604	-1.5562	-2.2396	-2.0333	-1.8896	-2.3312	-1.7	-1.9708	-2.0938	-1.8542	-2.375	-1.9417	-1.8354	-2.2562	-1.8646	46.767	167.419	357.469	239.559	351.459	308.311	243.647	259.244	149.842	149.039	334.504	217.184	370.679	339.117	216.893	316.323	0.0012324	0.00078169	0.00026181	676.47	6.3652e-06	8.5712e-06	885.09	256.56	1.0502e-05	9.1522e-06	413.37	194.24	120.78	66.313	6.6176e-06	104.81	0.0018933	0.0019294	0.00052588	721.94	2.0962e-05	2.1247e-05	934.42	275.5	2.1204e-05	2.1274e-05	438.6	202.46	131.63	69.647	2.1122e-05	109.07	88.195	114.913	150.947	40.378	183.827	157.576	39.709	45.755	126.332	95.448	43.976	48.398	49.846	53.522	190.244	51.555	-8191	255	
1457.791	1	1	0	0	0.17861	0.04933	0.13313	0.15344	0.14104	0.13759	0.096458	0.16877	0.13479	0.30725	0.26619	0.033376	0.25056	0.4058	0.067283	0.029946	-1.6896	-2.1146	-1.6458	-2.3167	-1.9771	-1.9354	-2.3917	-1.9333	-1.9562	-2.025	-1.8458	-2.4188	-1.9833	-2.0229	-2.0729	-1.8646	130.737	150.877	210.039	364.314	92.531	49.697	295.763	349.948	245.058	92.180	384.783	300.415	288.881	338.580	131.605	381.623	0.0015631	0.0011404	0.00026842	671.06	2.6432e-06	8.02e-06	886.03	256.49	9.4097e-06	1.1201e-05	413.42	194.29	121.4	66.973	6.775e-06	105.47	0.0019298	0.0019663	0.0005432	723.52	2.157e-05	2.1621e-05	935.8	275.98	2.1928e-05	2.1783e-05	439.57	203.08	132.57	70.352	2.2098e-05	109.79	88.549	37.536	107.062	40.410	174.202	167.110	39.889	45.799	176.420	248.657	43.784	48.307	49.927	53.570	306.970	51.543	-8191	255	
1457.888	1	1	0	0	0.17945	0.13509	0.078315	0.26053	0.11015	0.23108	0.18335	0.084958	0.14659	0.12302	0.32607	0.42245	0.13389	0.56167	0.14112	0.23152	-1.4792	-2.0854	-1.6875	-2.0875	-2.2458	-2.0333	-2.3	-1.7125	-1.8354	-2.2854	-1.7521	-2.3229	-2.1167	-1.7896	-2.35	-2.1646	336.485	179.708	209.343	376.350	58.368	164.044	362.383	382.867	58.969	323.993	323.465	36.820	254.829	364.842	228.697	310.770	0.0014904	0.00061333	5.5328e-05	673	6.2275e-06	9.8043e-06	882.35	254.97	6.5092e-06	6.106e-06	409.72	193.36	120.62	66.936	1.5996e-05	105.96	0.0019902	0.0020138	0.00055921	725.87	2.2206e-05	2.2196e-05	934.72	275.56	2.2258e-05	2.225e-05	438.61	201.96	132.2	70.405	2.2534e-05	110.42	82.708	82.105	128.055	40.348	176.683	126.614	39.634	45.752	161.431	162.019	43.925	48.318	49.849	53.721	177.585	51.688	-8191	255	
1457.984	1	1	0	0	0.055542	0.11702	0.18017	0.32727	0.059778	0.13963	0.4492	0.15967	0.088465	0.12105	0.2058	0.30348	0.10828	0.26491	0.254	0.12097	-1.4937	-2.1083	-1.7167	-2.1042	-1.9458	-1.75	-2.3458	-1.8896	-2.0021	-2.2479	-1.9708	-2.2042	-2.4417	-1.8396	-2.1354	-2.1104	47.979	142.833	160.361	44.288	126.047	65.134	286.130	320.472	47.658	172.855	332.527	371.235	53.578	53.561	258.018	315.897	0.0014783	0.00058654	0.00018952	674.68	3.3886e-06	4.4688e-07	885.11	258.62	8.8438e-06	3.8421e-06	414.81	194.71	120.68	68.431	6.5507e-07	109.37	0.0020059	0.0020526	0.0005741	729.34	2.2464e-05	2.2622e-05	939.2	278.84	2.2807e-05	2.2962e-05	443.82	203.89	132.92	71.878	2.3126e-05	113.84	84.796	211.691	159.363	40.377	65.001	206.755	39.671	45.478	95.614	61.736	44.141	48.122	49.697	53.804	370.864	51.564	-8191	255	
1458.080	1	1	0	0	0.37964	0.12449	0.049022	0.040711	0.095906	0.24712	0.10766	0.23225	0.11376	0.1899	0.35965	0.081975	0.21608	0.15353	0.21178	0.20101	-1.3375	-2.2583	-1.7563	-2.0938	-2.1396	-1.7792	-2.45	-2.0333	-1.7833	-2.2479	-1.9542	-2.0521	-2.2042	-1.8708	-2.0938	-2.2812	361.822	86.844	376.881	378.961	289.122	311.887	153.101	222.320	130.314	68.156	259.121	255.440	192.380	352.363	330.308	312.926	0.0014629	0.00069962	0.00023935	680.32	7.4811e-06	3.8796e-06	890.84	266.53	9.2325e-06	1.0984e-05	421.46	195.86	121.97	68.877	1.3198e-05	110.47	0.0020703	0.0021332	0.00059725	736.93	2.3052e-05	2.3392e-05	948.17	287.01	2.3251e-05	2.3504e-05	451.45	205.71	134.28	72.606	2.3755e-05	115.19	81.524	55.046	116.707	40.491	206.954	289.371	39.561	45.564	135.149	108.131	43.586	48.067	49.496	53.553	184.604	51.334	-8191	255	
1458.176	1	1	0	0	0.0463	0.11208	0.10978	0.19613	0.19608	0.26071	0.10325	0.20366	0.072924	0.25432	0.097657	0.084645	0.16143	0.17234	0.22986	0.45439	-1.325	-2.4021	-1.9333	-2.1979	-2.1979	-1.7542	-2.3125	-2.2958	-1.8604	-2.4333	-2.0792	-2.0708	-2.4542	-1.8833	-2.0542	-2.1542	226.039	145.316	234.564	317.998	35.361	314.561	140.246	277.595	374.798	230.581	41.443	268.752	73.467	258.029	155.278	293.758	0.001514	0.00071448	0.00035659	682.98	1.3256e-05	1.0526e-05	896.33	272.69	4.6331e-06	2.9746e-06	438.15	202.71	126.92	71.436	2.5919e-06	116.24	0.002067	0.0021683	0.00059253	736.99	2.1856e-05	2.1773e-05	947.71	290.64	1.9425e-05	1.9451e-05	458.75	209.78	135.26	74.281	1.7534e-05	119.32	84.509	102.531	130.700	39.995	150.016	174.028	39.418	45.577	94.406	85.755	43.514	48.074	49.536	53.435	115.541	51.332	-8191	255	
1458.272	1	1	0	0	0.087957	0.20628	0.12125	0.23442	0.16592	0.20329	0.33135	0.074734	0.18192	0.097507	0.39284	0.36098	0.097911	0.11238	0.052342	0.10451	-1.3312	-2.1312	-1.9042	-1.9979	-2.4104	-1.7083	-2.2062	-2.2521	-1.8375	-2.2958	-2.0354	-1.9646	-2.2938	-2.0167	-1.8854	-2.3375	215.290	38.958	55.501	369.373	75.899	213.361	320.165	105.251	138.738	363.047	357.653	84.011	362.932	375.683	316.960	371.065	0.0014018	0.0011406	4.3578e-05	698.34	8.8621e-06	1.0661e-05	918.73	288.64	6.9215e-06	1.0573e-05	450.25	209.83	130.45	73.527	1.2758e-05	118.49	0.0015201	0.0015366	0.00042175	734.15	1.6085e-05	1.6325e-05	955.33	301.37	1.5775e-05	1.6215e-05	469.69	215.13	137.59	75.97	1.5907e-05	121.64	80.916	85.480	146.611	40.300	159.373	141.988	39.334	45.041	76.809	154.642	43.347	47.874	49.347	53.137	197.984	51.235	-8191	255	
1458.393	1	1	0	0	0.17961	0.049844	0.24768	0.29613	0.232	0.13571	0.34819	0.32185	0.2194	0.19651	0.13792	0.20332	0.2077	0.051135	0.04832	0.3073	-1.2646	-2.2354	-1.9021	-1.8333	-2.2958	-1.9396	-2.0438	-2.2979	-1.7021	-2.1667	-2.1271	-2.2	-2.3688	-2.35	-1.9208	-2.5396	135.268	200.271	53.496	349.621	345.884	355.975	73.370	360.845	66.663	270.463	337.834	371.157	120.420	38.653	356.983	357.617	0.0016994	0.00095864	0.00013685	704.9	5.367e-06	1.4521e-05	924.84	289.03	1.1997e-05	3.9407e-06	458.21	212.37	131.97	74.992	1.0169e-05	121.08	0.0014354	0.0014392	0.00039745	735.85	1.5357e-05	1.5615e-05	957.79	303.09	1.5075e-05	1.5342e-05	474.06	218.36	139.32	77.336	1.5135e-05	123.63	84.408	77.883	111.748	40.362	123.922	153.969	39.725	45.236	103.372	183.410	43.387	47.765	49.145	53.296	163.610	51.104	-8191	255	
1458.489	1	1	0	0	0.078496	0.31455	0.15529	0.206	0.19398	0.073031	0.33756	0.44811	0.28756	0.15144	0.074031	0.17667	0.16828	0.25482	0.33994	0.17284	-1.4104	-1.9312	-2.0271	-1.8146	-2.1646	-1.8563	-1.9729	-2.3479	-1.6708	-2.0833	-2.3458	-2.1396	-2.4625	-2.0312	-1.8312	-2.3646	107.270	352.573	361.642	33.679	116.858	275.307	335.988	332.863	244.479	343.150	251.521	64.894	295.200	372.202	268.171	339.477	0.0016766	0.00048206	0.0003149	708.81	8.9952e-06	5.1693e-06	926.26	292.51	1.6697e-05	5.5741e-06	459.75	214.65	133.34	75.597	1.143e-05	121.52	0.0013829	0.0014043	0.00038234	739.93	1.5095e-05	1.51e-05	960.3	305.24	1.5082e-05	1.5439e-05	476.29	220.33	140.24	77.974	1.4943e-05	124.4	92.513	187.657	142.362	40.005	156.488	191.740	39.676	45.367	152.261	184.901	43.280	47.819	49.115	53.286	153.653	51.083	-8191	255	
1458.561	1	1	0	0	0.3029	0.21103	0.064426	0.24884	0.16006	0.086112	0.28873	0.056556	0.010437	0.10163	0.12793	0.24614	0.21609	0.047414	0.065803	0.19631	-1.4833	-2.0333	-2.1354	-1.7667	-2.1562	-2.0958	-1.975	-2.4375	-1.7917	-2.0375	-2.2708	-1.9396	-2.1729	-2.0854	-1.9813	-2.4813	314.204	137.545	249.962	55.797	169.115	381.995	342.666	101.026	327.163	207.302	333.839	360.673	375.277	319.002	35.444	278.106	0.001535	0.0012782	0.00041178	704.96	1.1646e-05	6.7404e-06	926.82	293.91	9.9574e-06	9.8428e-06	457.14	213.63	132.99	75.422	7.5381e-06	120.65	0.0013879	0.0013964	0.00037958	738.31	1.5198e-05	1.5254e-05	958.59	304.78	1.4973e-05	1.5077e-05	473.36	219.22	140.05	77.763	1.4828e-05	123.52	78.338	118.168	146.925	40.015	199.969	120.659	39.683	45.360	117.373	198.773	43.206	47.799	49.304	53.209	245.870	51.120	-8191	255	
1458.657	1	1	0	0	0.23875	0.12957	0.2196	0.080884	0.083402	0.15012	0.29604	0.084306	0.1685	0.19091	0.045146	0.18865	0.065925	0.17212	0.19945	0.14073	-1.3771	-1.7896	-2.0958	-1.7792	-2.0958	-2.1604	-1.8979	-2.3854	-1.8167	-1.9375	-2.4188	-2.0583	-2.1771	-2.2729	-1.7271	-2.4729	348.014	170.783	286.216	303.842	292.715	88.496	57.356	278.576	191.171	349.513	284.513	48.958	86.311	350.296	375.869	333.045	0.0016439	0.00028157	0.00018029	707.65	7.0684e-06	2.3225e-06	920.4	291.31	1.3477e-05	8.5107e-06	453.86	213.08	131.81	75.091	7.1442e-06	120.75	0.0013903	0.0013808	0.00038067	738.93	1.5187e-05	1.5009e-05	954.16	303.91	1.529e-05	1.5311e-05	471.53	218.51	139.54	77.754	1.5256e-05	123.48	83.458	93.271	147.173	40.237	158.388	186.678	39.660	45.058	117.316	179.148	43.632	47.685	49.217	53.076	233.482	50.964	-8191	255	
1458.776	1	1	0	0	0.27979	0.47464	0.18925	0.1828	0.21112	0.1293	0.12023	0.24437	0.18546	0.1469	0.1125	0.14558	0.13815	0.097622	0.13949	0.24515	-1.5812	-1.8229	-2.2479	-2.0187	-2.1188	-2.0438	-1.9417	-2.3917	-1.9354	-1.9479	-2.3708	-2.1063	-2.0729	-2.2833	-1.6938	-2.4021	321.826	255.536	325.990	366.638	312.145	92.466	307.672	248.276	180.854	188.197	308.754	351.067	365.288	170.841	238.123	330.442	0.0017163	0.00095573	0.00021184	705.01	5.4016e-06	7.5207e-06	921.07	290.89	6.3238e-06	2.0406e-06	453.31	213.68	131.89	75.086	1.3177e-05	120.83	0.00142	0.0014037	0.00039041	738.68	1.5439e-05	1.5289e-05	954.42	303.67	1.5246e-05	1.5242e-05	471.78	218.37	139.4	77.735	1.5338e-05	123.7	84.581	95.754	138.688	40.319	160.835	219.316	39.583	44.947	138.062	239.761	43.274	47.900	49.196	53.151	127.947	51.135	-8191	255	
1458.872	1	1	0	0	0.16356	0.067671	0.17726	0.12905	0.095666	0.18512	0.31925	0.20779	0.2513	0.11655	0.028465	0.21161	0.1248	0.36719	0.12974	0.22495	-1.4542	-1.8667	-2.2229	-1.8438	-1.9854	-2.3208	-1.7146	-2.2958	-2.0042	-1.9479	-2.2917	-2.1312	-2.025	-2.2562	-1.7333	-2.3708	200.993	27.757	314.118	351.451	332.820	50.092	267.220	375.066	30.608	196.333	96.311	371.262	135.636	355.330	202.949	304.889	0.001619	0.0014704	0.00010926	705.58	5.2119e-06	3.2224e-06	922.63	289.89	9.5242e-06	1.0952e-05	454.35	211.77	131.83	75.295	5.8834e-06	121.07	0.0014171	0.0014056	0.00039805	739.62	1.5487e-05	1.5463e-05	956.28	302.55	1.5478e-05	1.544e-05	470.89	217.94	138.88	77.668	1.5647e-05	123.81	81.916	73.746	312.675	40.002	133.662	209.071	39.373	45.223	99.263	169.831	43.527	47.578	49.268	53.166	125.775	51.140	-8191	255	
1458.968	1	1	0	0	0.2551	0.13422	0.1235	0.17939	0.084884	0.12251	0.074269	0.11664	0.20086	0.15964	0.34263	0.27338	0.15942	0.20355	0.020769	0.11408	-1.5812	-1.7021	-2.2229	-1.9125	-1.8021	-2.2771	-1.9	-2.3104	-2.2104	-1.5458	-2.1792	-2.0167	-1.9042	-2.4813	-1.7521	-2.3146	168.140	221.102	90.011	322.946	74.745	135.454	220.055	306.916	127.609	363.014	361.096	369.331	88.729	357.969	205.452	268.193	0.0016007	0.00090792	0.00033284	705.91	1.1346e-05	8.7183e-06	924.34	287.89	1.3458e-05	3.5959e-06	449.83	210.29	131.12	74.821	6.0883e-06	120.11	0.0014377	0.0014333	0.00040686	739.77	1.5454e-05	1.5883e-05	957.02	301.69	1.5739e-05	1.579e-05	468.42	216.2	138.39	77.325	1.586e-05	122.7	81.733	110.873	167.426	40.127	155.877	152.542	39.518	45.194	124.875	238.208	43.539	47.427	49.306	53.161	263.888	51.066	-8191	255	
1459.064	1	1	0	0	0.34323	0.067144	0.14727	0.13042	0.032724	0.28939	0.31563	0.30554	0.29175	0.13744	0.11087	0.29285	0.24926	0.29934	0.32568	0.52044	-1.775	-1.7542	-2.2521	-2.1417	-1.7917	-2.4688	-1.8792	-2.1	-2.1667	-1.6625	-2.05	-2.1292	-1.9312	-2.3688	-1.8146	-2.2396	56.068	267.698	55.678	236.504	53.423	167.468	275.803	342.723	137.863	269.014	72.671	28.079	265.192	332.280	336.507	368.001	0.0015376	0.00018394	0.00022982	703.63	6.1766e-06	6.7014e-06	916.11	286.61	1.0471e-05	7.5669e-06	449.03	210.32	130.35	74.675	1.2706e-05	119.3	0.0014499	0.0014494	0.0004095	738.78	1.5741e-05	1.6092e-05	953.25	300.23	1.596e-05	1.6078e-05	467.17	215.87	137.89	77.133	1.5997e-05	122.42	84.912	132.484	143.725	40.266	131.039	173.868	39.570	45.245	130.016	138.410	43.557	47.804	49.217	53.039	185.436	50.950	-8191	255	
1459.185	1	1	0	0	0.038087	0.25049	0.17418	0.14121	0.031725	0.14074	0.22626	0.21271	0.03587	0.20735	0.19353	0.31822	0.24122	0.34754	0.085141	0.20691	-1.9792	-1.7333	-2.2271	-2.1542	-1.6417	-2.275	-2.1354	-2.0354	-2.4167	-1.8854	-2.1104	-2.3583	-1.8208	-2.525	-1.8479	-2.1458	289.300	371.057	75.960	59.835	120.241	49.593	328.672	353.004	120.202	357.149	52.115	304.808	206.370	359.363	36.382	319.923	0.0016316	0.00094239	0.00043985	701.69	1.0671e-05	6.677e-06	916.77	286.22	1.1829e-05	1.5547e-05	450.54	210.59	130.48	74.682	1.0324e-05	119.51	0.001458	0.001482	0.00041078	736.73	1.5717e-05	1.5986e-05	953.64	300.57	1.5961e-05	1.6135e-05	467.72	216.02	137.89	77.276	1.6036e-05	122.5	78.269	104.178	125.705	40.346	209.790	376.039	39.537	45.093	157.206	196.796	43.591	47.873	49.355	53.059	191.737	50.991	-8191	255	
1459.256	1	1	0	0	0.11994	0.11848	0.19423	0.087485	0.30693	0.057987	0.16844	0.17291	0.28485	0.17338	0.14256	0.21209	0.10536	0.42086	0.1112	0.42278	-1.7667	-1.8	-2.0979	-2.2396	-1.7542	-2.3875	-2.1021	-1.9729	-2.4188	-1.8333	-2.1437	-2.3729	-1.8917	-2.3979	-1.8708	-2.0479	94.354	56.624	182.804	236.548	196.357	49.744	303.847	40.625	53.891	159.808	330.679	28.981	303.157	362.033	308.572	317.024	0.0017575	0.00076245	0.00018139	703	1.2563e-05	7.5175e-06	918.64	288.92	1.5705e-05	4.6066e-06	449.24	210.78	130.25	74.888	8.3747e-06	120.14	0.0014753	0.001476	0.00041109	737.6	1.5686e-05	1.6148e-05	954.46	301.51	1.5891e-05	1.6079e-05	469.08	216.74	137.75	77.412	1.597e-05	122.86	80.171	97.348	169.292	40.127	223.130	158.658	39.669	45.341	172.076	382.272	43.405	47.815	49.575	53.206	188.169	51.061	-8191	255	
1459.377	1	1	0	0	0.12751	0.054121	0.082122	0.22466	0.25563	0.20245	0.26238	0.06256	0.20065	0.23114	0.32426	0.23531	0.10372	0.2686	0.17822	0.25226	-1.9354	-1.9417	-2.1188	-2.4771	-1.6708	-2.1208	-2.2271	-1.9354	-2.2521	-1.775	-2.2146	-2.1875	-1.8604	-2.4208	-2.1437	-1.9813	84.032	120.332	272.792	93.800	324.728	118.604	340.570	29.386	34.405	156.743	339.523	354.666	189.309	83.096	141.909	358.494	0.001642	0.0011517	9.7307e-05	701.37	6.8771e-06	2.9235e-06	914.99	289.18	1.0119e-05	6.0227e-06	452.74	209.6	130.77	74.48	1.5875e-05	119.38	0.0014827	0.0014833	0.0004087	736.9	1.5854e-05	1.6164e-05	951.89	301.18	1.589e-05	1.5859e-05	468.8	215.18	137.77	77.201	1.5601e-05	122.51	83.850	83.870	114.953	40.222	156.711	29.895	39.648	44.884	131.353	162.479	43.570	47.557	49.263	53.374	176.559	51.119	-8191	255	
1459.473	1	1	0	0	0.25593	0.17803	0.074002	0.22589	0.080436	0.19941	0.32702	0.13125	0.29202	0.22028	0.12625	0.25659	0.31696	0.25427	0.052747	0.20138	-2.0458	-2.0125	-1.9417	-2.4271	-1.8062	-2.1042	-2.3042	-1.8521	-2.4917	-2.1083	-2.0271	-2.4542	-1.9188	-2.2521	-2.1104	-2.025	116.118	182.896	291.288	263.720	277.382	198.588	309.158	121.104	254.666	367.538	67.468	313.462	69.731	28.783	327.031	290.321	0.0015913	0.00052886	0.00026165	701.32	7.0729e-06	8.4224e-06	919.05	288.3	7.9866e-06	1.0374e-05	451.95	210.28	130.69	74.897	1.6082e-05	120.29	0.0014585	0.0014511	0.00040039	735.72	1.5587e-05	1.5667e-05	950.51	301.58	1.5457e-05	1.5366e-05	468.77	215.93	138	77.41	1.4898e-05	123.03	82.256	55.823	166.160	40.143	176.039	154.082	39.583	45.096	160.264	197.346	43.465	47.568	49.557	53.020	173.365	50.945	-8191	255	
1459.569	1	1	0	0	0.29724	0.1447	0.2678	0.051435	0.044408	0.18409	0.15018	0.12851	0.20265	0.15687	0.090427	0.24076	0.18393	0.070048	0.090163	0.53191	-2.0208	-2.0438	-1.8042	-2.475	-1.8604	-2.1396	-2.3937	-1.95	-2.1583	-2.1042	-2.1292	-2.3187	-2.0167	-2.0125	-2.2042	-2.0354	334.320	257.702	348.854	225.207	76.176	154.360	294.332	343.549	375.155	379.070	261.776	352.855	177.636	144.218	91.299	339.821	0.0015625	0.00038447	0.00030318	702.63	8.4716e-06	5.5879e-06	919.38	292.04	5.3632e-06	5.4231e-06	453.6	211.98	132.22	75.593	7.0538e-06	121.18	0.0014036	0.0013813	0.00038124	736.67	1.5044e-05	1.5214e-05	952.73	303.03	1.5192e-05	1.5043e-05	470.35	217.44	138.8	77.878	1.4912e-05	123.95	76.552	123.979	99.103	40.159	137.106	204.591	39.663	44.948	133.775	240.588	43.458	47.720	49.290	53.105	152.490	51.251	-8191	255	
1459.665	1	1	0	0	0.20168	0.18173	0.11292	0.30737	0.20734	0.27825	0.083188	0.30051	0.16354	0.18084	0.26296	0.16138	0.18111	0.31904	0.094498	0.18776	-1.8417	-2.0354	-1.7875	-2.5479	-1.8833	-2.0563	-2.4813	-1.9625	-1.9396	-2.2021	-1.8937	-2.3833	-2.0917	-2.0458	-2.3979	-2.0833	382.233	331.825	163.731	362.080	242.869	114.244	271.934	374.971	218.333	233.138	63.980	28.433	357.098	367.147	172.560	319.916	0.0016232	0.00062293	0.00014745	704.66	5.8272e-06	3.8106e-06	921.17	291.6	1.2775e-05	1.185e-05	454.69	212.38	131.39	75.349	7.2479e-07	121.25	0.0013885	0.0013634	0.00037856	737.56	1.4924e-05	1.4973e-05	953.84	303.63	1.4937e-05	1.5005e-05	471.44	218.15	138.66	77.854	1.5178e-05	124.1	79.492	31.861	109.498	40.022	181.878	142.851	39.462	45.231	151.068	126.564	43.214	47.759	49.034	53.083	211.834	51.079	-8191	255	
1459.786	1	1	0	0	0.24131	0.043486	0.16461	0.077132	0.16243	0.10954	0.2947	0.23169	0.10365	0.085284	0.28492	0.074615	0.23538	0.27156	0.088492	0.19863	-1.8271	-2.0458	-1.7354	-2.4021	-1.9708	-1.7646	-2.3125	-1.9354	-2.175	-2.2229	-2.0583	-2.3208	-2.1521	-1.9792	-2.3875	-2.1208	342.031	79.490	200.477	32.110	59.294	229.352	267.204	65.475	300.236	118.845	351.294	356.233	307.846	387.038	225.561	365.259	0.0016033	0.00097618	0.00033286	704.4	8.3604e-06	7.5037e-06	921.21	291.98	1.1251e-05	9.0662e-06	453.44	211.53	131.79	75.332	7.2851e-06	121.07	0.0013962	0.0013675	0.00038353	737.97	1.4928e-05	1.498e-05	952.6	304.05	1.5011e-05	1.5008e-05	470.81	217.27	138.45	77.726	1.537e-05	123.62	86.459	95.173	125.143	40.061	162.953	142.056	39.443	45.264	121.914	196.109	43.354	47.864	49.503	53.091	172.870	51.019	-8191	255	
1459.858	1	1	0	0	0.22351	0.16299	0.15082	0.32781	0.081446	0.27128	0.079217	0.074196	0.11386	0.37124	0.11089	0.18916	0.050639	0.29811	0.053968	0.19119	-1.6875	-2.0167	-1.8104	-2.1688	-1.95	-1.8396	-2.3521	-1.95	-1.9667	-2.1312	-2.0042	-2.3396	-2.0563	-2.0083	-2.2646	-2.1104	89.603	311.151	73.786	34.280	38.656	256.832	39.566	332.798	53.512	72.854	203.536	348.368	248.961	315.326	103.264	358.289	0.0015467	0.00085166	0.00022462	704.2	8.4383e-06	1.0251e-05	920.61	290.92	2.6849e-06	6.2175e-06	452.96	211.73	132	75.264	1.6532e-05	121.41	0.0014036	0.0013866	0.00039133	737.22	1.4907e-05	1.5179e-05	952.5	303.94	1.4939e-05	1.5132e-05	470.17	217.26	138.36	77.855	1.531e-05	124.21	86.026	124.256	200.745	40.158	128.452	177.628	39.717	45.332	362.085	234.611	43.604	47.511	49.224	53.070	205.131	50.974	-8191	255	
1459.952	1	1	0	0	0.070418	0.084733	0.23525	0.17936	0.056526	0.012341	0.19266	0.098663	0.044312	0.23584	0.031838	0.10743	0.12746	0.28523	0.15753	0.30101	-1.6083	-2.3208	-1.7	-2.2125	-2.1083	-1.8458	-2.2417	-2.0875	-1.7563	-2.1917	-2.025	-2.2104	-2.4271	-1.8563	-2.2021	-2.125	130.853	257.457	195.470	346.141	160.997	98.530	321.774	59.617	41.066	132.217	166.368	387.082	384.775	379.564	159.047	371.135	0.0015249	0.00096517	0.0002651	706.27	1.0457e-05	7.19e-06	918.13	290.93	1.1813e-05	4.4051e-06	455.74	212.04	131.72	75.538	5.9445e-06	121.81	0.0013956	0.0013868	0.0003904	738.96	1.5048e-05	1.5282e-05	952.19	303.38	1.4975e-05	1.5235e-05	471.88	217.58	138.67	77.992	1.5427e-05	124.37	76.678	43.799	107.566	40.185	154.880	49.002	39.688	45.262	159.939	201.959	43.255	47.586	49.427	53.096	142.323	50.984	-8191	255	
1460.073	1	1	0	0	0.067593	0.32077	0.14907	0.17402	0.35449	0.15347	0.20625	0.22825	0.069199	0.19295	0.17884	0.21357	0.20212	0.23252	0.25558	0.10612	-1.2812	-2.3417	-1.8646	-2.05	-2.0979	-1.7271	-2.2979	-2.1875	-1.8667	-2.3937	-2.0104	-2.025	-2.3438	-1.8854	-2.1937	-2.4396	43.385	301.398	151.761	44.932	251.829	304.772	328.418	354.911	139.722	96.625	340.583	381.299	378.434	267.856	317.079	361.145	0.0014844	0.00044417	0.00058709	707.29	1.0902e-05	5.907e-06	918.62	290.57	9.0125e-06	7.6508e-06	454.06	211.32	131.84	75.378	1.737e-05	121.29	0.0013835	0.0014119	0.00039331	739.49	1.5175e-05	1.5505e-05	952.84	303.26	1.527e-05	1.5562e-05	471.06	217.44	138.75	77.822	1.5552e-05	124.04	82.763	30.242	121.474	40.068	113.866	165.363	39.682	45.131	163.479	261.226	43.469	47.528	49.237	53.312	170.650	51.143	-8191	255	
1460.169	1	1	0	0	0.082821	0.10766	0.060534	0.24561	0.20571	0.19454	0.093245	0.093938	0.082368	0.1367	0.14927	0.2029	0.055938	0.26159	0.34298	0.27357	-1.4521	-2.2229	-1.8687	-2.2458	-2.2271	-1.8896	-2.3479	-2.0708	-1.6	-2.3312	-2.075	-1.8646	-2.25	-1.9979	-2.0875	-2.25	287.496	261.703	165.704	320.343	349.312	262.070	200.923	58.101	320.193	183.954	304.186	322.288	359.430	326.237	173.297	354.915	0.0016004	0.00081466	0.00040643	704.42	9.7936e-06	1.4342e-05	915.37	289.18	7.5947e-06	1.0414e-05	451.12	210.72	131.34	75.296	6.7776e-06	120.71	0.0013994	0.0014167	0.00038974	737.07	1.5273e-05	1.546e-05	951.46	302.42	1.5264e-05	1.5699e-05	468.8	216.52	138.3	77.753	1.5419e-05	123.57	80.467	114.437	96.691	40.358	198.657	203.745	39.726	44.948	199.090	103.669	43.596	47.730	49.058	53.187	227.461	50.992	-8191	255	
1460.265	1	1	0	0	0.071429	0.36048	0.17367	0.29704	0.096753	0.24373	0.1642	0.21947	0.081995	0.065824	0.19548	0.33171	0.13032	0.35786	0.1409	0.22354	-1.4896	-2.4146	-1.85	-2.0167	-2.2229	-1.9146	-2.15	-2.3937	-1.7042	-2.1854	-2.1979	-1.9667	-2.2854	-2.0167	-1.9458	-2.3521	49.515	325.591	48.148	308.114	369.326	114.920	100.231	366.201	27.693	326.672	302.170	364.236	346.966	367.957	185.621	378.762	0.0016593	0.00017868	0.0003382	705.3	1.1987e-05	6.4879e-06	920.12	289.08	1.0713e-05	6.0483e-06	450.85	210.84	130.17	75.08	1.2399e-05	120.74	0.0014101	0.0014174	0.00039149	737.01	1.5339e-05	1.5502e-05	952.06	301.85	1.528e-05	1.5616e-05	468.3	216.35	138	77.58	1.5407e-05	123.47	82.051	376.853	160.643	40.296	135.703	163.189	39.682	45.397	170.441	139.333	43.683	47.775	49.318	53.244	169.073	50.878	-8191	255	
1460.361	1	1	0	0	0.25941	0.081178	0.33233	0.28376	0.23424	0.11145	0.32292	0.11333	0.19015	0.1366	0.24855	0.37818	0.30023	0.27136	0.11829	0.19823	-1.1417	-2.3417	-1.9792	-2.0833	-2.2875	-1.7521	-2.0354	-2.3083	-1.7625	-2.2292	-2.1396	-2.1021	-2.3146	-2.0187	-1.9333	-2.575	127.984	210.806	161.313	380.354	260.807	243.000	296.309	32.274	75.449	229.475	42.781	31.747	302.913	38.690	101.739	345.513	0.0016069	0.0010931	0.00025164	702.5	7.6713e-06	6.3531e-06	919.37	290.73	4.3032e-06	1.4531e-05	449.35	211.02	131.17	75.388	7.1698e-06	121.53	0.0014244	0.0014298	0.00038726	736.46	1.5389e-05	1.5395e-05	950.62	302.96	1.5298e-05	1.5487e-05	468.83	217.08	138.51	77.75	1.5143e-05	124.08	82.927	128.012	170.582	40.285	117.401	188.251	39.592	45.125	136.030	139.532	43.819	47.787	49.459	53.159	229.259	51.173	-8191	255	
1460.457	1	1	0	0	0.18976	0.17891	0.26371	0.079055	0.20779	0.20014	0.082966	0.28315	0.13667	0.055917	0.17466	0.25685	0.098628	0.32012	0.034584	0.35684	-1.2479	-2.1208	-2.1562	-1.7437	-2.1375	-1.8792	-1.9896	-2.3688	-1.8917	-1.9813	-2.2938	-1.7	-2.1979	-2.0438	-1.8813	-2.4771	193.407	118.520	110.565	297.400	286.654	97.139	386.761	357.833	141.639	324.381	385.504	381.627	87.130	371.477	339.293	47.341	0.0016273	0.00094221	0.00030604	702.78	3.9145e-06	8.1387e-06	918.78	290.04	4.709e-06	8.1643e-06	453.12	210.52	130.75	75.512	1.7385e-05	120.8	0.0014131	0.0014161	0.00039154	735.99	1.5621e-05	1.5497e-05	952.59	303.01	1.5391e-05	1.5496e-05	470.36	216.46	138.08	77.705	1.5279e-05	123.55	83.217	103.150	141.510	40.333	205.116	164.942	39.601	45.099	98.799	180.635	43.425	47.687	49.300	53.151	194.202	50.948	-8191	255	
1460.554	1	1	0	0	0.32008	0.090879	0.34559	0.27674	0.2365	0.14535	0.26747	0.20514	0.015222	0.11252	0.11912	0.38283	0.15408	0.24727	0.24158	0.11688	-1.5042	-2.1333	-2.3417	-1.7458	-2.1979	-2.1958	-2.1104	-2.3979	-1.8687	-1.9229	-2.2896	-1.775	-1.9521	-2.2771	-1.7563	-2.4854	265.881	75.515	328.802	352.357	126.979	280.538	367.727	73.603	361.028	329.927	41.551	332.788	109.790	42.548	226.114	299.472	0.0016329	0.00092724	0.00018103	705.09	1.2045e-05	1.1655e-05	915.41	288.18	1.0553e-05	1.0139e-05	450.56	210.02	130.75	74.902	8.8354e-06	120.46	0.0014213	0.001414	0.00039086	737.79	1.5466e-05	1.5434e-05	950.52	301.95	1.5457e-05	1.5427e-05	467.42	215.5	137.92	77.481	1.5331e-05	123.22	87.377	114.239	180.314	40.010	172.434	125.390	39.523	44.969	158.457	137.411	43.582	47.685	49.041	53.083	100.217	50.856	-8191	255	
1460.650	1	1	0	0	0.38176	0.28477	0.22797	0.14559	0.17942	0.19291	0.23749	0.31004	0.10275	0.31581	0.20965	0.063108	0.24655	0.12528	0.10912	0.19906	-1.3292	-1.8937	-1.975	-2.0375	-2.1417	-2.1708	-1.775	-2.5646	-1.9312	-1.9875	-2.35	-1.8146	-2.2667	-2.3542	-1.9208	-2.475	358.799	318.655	286.415	71.634	227.180	186.204	303.117	298.096	181.249	252.425	85.655	92.538	340.778	40.742	320.856	354.147	0.0013864	0.00083121	0.00012406	703.67	4.5117e-06	3.9237e-06	915.65	290.05	1.0898e-05	1.2906e-05	450.25	209.64	130.41	75.198	6.2326e-06	120.9	0.001405	0.0013951	0.00039155	734.88	1.5357e-05	1.5309e-05	948.93	301.94	1.5273e-05	1.5319e-05	467.85	215.65	137.66	77.541	1.5415e-05	123.4	80.260	70.980	113.647	40.057	158.529	217.354	39.569	45.056	126.823	224.195	43.273	47.575	49.219	53.079	179.647	51.054	-8191	255	
1460.746	1	1	0	0	0.1116	0.19895	0.11597	0.08106	0.16084	0.17717	0.23	0.19234	0.28661	0.18071	0.028268	0.32373	0.10959	0.29168	0.15613	0.14059	-1.4729	-2.0542	-2.1312	-2.0187	-2.0083	-2.1604	-1.8354	-2.2438	-1.7583	-1.7979	-2.5042	-1.9396	-1.975	-2.4708	-1.9292	-2.3292	40.361	107.603	41.769	32.802	249.022	228.775	89.912	72.074	351.904	173.174	54.793	44.468	51.391	64.301	150.852	330.917	0.0015491	0.0011581	0.00020411	701.7	6.4108e-06	7.3725e-06	918.62	289.51	1.1127e-05	7.8554e-06	450.33	210.6	130.83	75.376	1.1484e-05	121.44	0.0013982	0.0013837	0.00039394	733.9	1.5062e-05	1.5235e-05	950.26	302.15	1.5127e-05	1.5183e-05	468.72	216.5	138.06	77.773	1.5278e-05	124.09	75.687	97.244	138.058	40.193	218.435	153.706	39.555	45.198	152.848	211.864	43.850	47.737	49.228	53.173	193.854	51.050	-8191	255	
1460.866	1	1	0	0	0.080832	0.20214	0.20756	0.074788	0.072385	0.2397	0.15495	0.13626	0.18637	0.16969	0.057041	0.18348	0.11145	0.18203	0.24221	0.074186	-1.7667	-1.8	-2.3625	-1.9417	-2.0646	-2.2542	-1.8813	-2.1646	-2.0708	-1.9062	-2.3771	-1.9937	-2.0979	-2.3396	-1.7521	-2.4417	119.333	68.779	193.929	28.689	364.193	366.311	111.854	351.815	57.908	346.519	75.860	147.062	334.098	338.942	175.817	211.463	0.0015612	0.0013825	0.00012206	698.96	2.5723e-06	2.1165e-06	916.79	289.68	5.3791e-06	1.2139e-05	450.91	210.16	130.83	75.02	5.8785e-06	119.87	0.0013914	0.0013925	0.00039156	734.64	1.4998e-05	1.5237e-05	948.98	303.18	1.5039e-05	1.5191e-05	468.87	215.86	137.7	77.406	1.5365e-05	123.11	83.570	81.426	125.621	40.098	248.898	234.422	39.494	45.044	131.137	174.116	43.193	47.735	49.559	53.035	113.810	50.987	-8191	255	
1460.961	1	1	0	0	0.1994	0.14863	0.11839	0.12588	0.1309	0.22653	0.12269	0.10502	0.061786	0.060964	0.19689	0.09574	0.21343	0.21943	0.11701	0.32088	-1.8	-1.8125	-2.2646	-2.0625	-1.7875	-2.1396	-2.0438	-2.3208	-2.0938	-1.7313	-2.3917	-2.1917	-1.9229	-2.4688	-1.7771	-2.2562	291.479	91.009	273.718	364.307	288.915	214.838	176.881	329.249	156.031	147.880	301.262	287.885	73.757	46.226	316.216	328.366	0.0016794	0.0014449	0.00030671	700.67	2.4242e-06	9.2144e-06	917.88	289.46	1.2592e-05	1.1877e-05	450.29	209.68	130.61	74.343	2.4289e-06	119.99	0.0013965	0.0014102	0.00039188	733.81	1.51e-05	1.5316e-05	947.7	301.6	1.5097e-05	1.5263e-05	467.35	215.11	137.17	77.14	1.5239e-05	122.7	83.516	123.250	163.029	39.962	113.237	219.411	39.411	44.924	165.432	125.326	43.238	47.664	48.882	53.202	207.949	50.794	-8191	255	
1461.057	1	1	0	0	0.1638	0.11954	0.29367	0.26912	0.3093	0.28511	0.19285	0.20832	0.089619	0.16575	0.098224	0.17176	0.48592	0.082881	0.057393	0.47227	-1.625	-1.6396	-1.9729	-2.0917	-1.7563	-2.125	-2.0854	-2.1688	-2.1437	-1.8979	-2.2458	-1.9937	-1.9813	-2.4729	-1.9417	-2.1125	231.124	160.386	149.614	331.919	88.919	235.691	90.195	177.059	103.231	78.040	95.089	230.396	125.811	113.986	386.811	303.645	0.0015795	0.00038296	0.0003355	699.99	1.4512e-05	3.3868e-06	914.77	289.92	1.3584e-05	1.2604e-05	448.68	209.61	130.57	74.718	6.641e-06	120.18	0.0013957	0.0014136	0.00039363	732.28	1.5108e-05	1.5457e-05	946.65	301.84	1.516e-05	1.539e-05	467.2	214.84	137.47	77.223	1.5175e-05	123.01	80.822	126.289	114.140	40.249	158.788	184.799	39.725	45.141	141.522	178.921	43.650	47.591	49.273	53.117	199.934	50.960	-8191	255	
1461.153	1	1	0	0	0.15248	0.24824	0.15846	0.064949	0.14267	0.067088	0.25568	0.42406	0.1632	0.12997	0.17621	0.40504	0.30725	0.29758	0.16912	0.2735	-1.8708	-1.6646	-2.0417	-2.0604	-2.0292	-2.3292	-1.8979	-1.9896	-2.2771	-1.9	-2.1542	-2.3167	-2.0667	-2.3937	-1.9229	-2.1146	373.068	76.539	201.226	317.978	125.390	228.371	378.236	309.926	189.085	335.124	34.128	27.623	41.690	83.266	163.548	294.818	0.0015372	0.00093082	0.00021267	702.28	4.5081e-06	7.141e-06	919.12	288.35	8.9972e-06	5.1171e-06	451.65	209.62	130.92	74.514	8.3801e-06	120.42	0.0014066	0.0013887	0.00038904	734.22	1.5144e-05	1.5551e-05	947.88	301.46	1.5344e-05	1.5463e-05	467.76	215.3	137.55	77.128	1.5209e-05	123.35	76.813	125.691	129.433	40.072	116.928	188.888	39.501	45.083	152.767	152.070	43.485	47.690	49.248	53.318	172.676	51.084	-8191	255	
1461.249	1	1	0	0	0.16102	0.20016	0.31303	0.41569	0.25595	0.22269	0.27378	0.14329	0.06092	0.16291	0.18698	0.19518	0.17133	0.091694	0.092323	0.21686	-1.7146	-1.7604	-2.0729	-2.3479	-1.7125	-2.325	-1.9979	-1.7208	-2.2417	-1.8375	-1.9937	-2.2021	-1.95	-2.3667	-2.2708	-1.9604	345.492	211.402	330.491	353.058	62.934	226.431	344.110	376.836	209.040	290.117	311.499	309.405	297.563	296.772	182.127	356.842	0.0016684	0.0008172	9.8991e-05	697.62	8.39e-06	5.1626e-06	916.54	289.6	3.3211e-06	1.3199e-05	450.14	208.72	129.8	74.669	1.5783e-05	119.75	0.0014113	0.0013999	0.00038981	732.52	1.5278e-05	1.544e-05	947.41	301.55	1.5349e-05	1.5467e-05	465.84	214.28	136.99	77.028	1.515e-05	122.47	85.986	97.557	128.241	40.251	162.166	145.079	39.443	44.931	64.443	193.675	43.443	47.644	49.381	53.168	188.837	50.874	-8191	255	
1461.345	1	1	0	0	0.06289	0.060938	0.18366	0.28865	0.14055	0.29653	0.11658	0.22146	0.045375	0.14622	0.092032	0.2221	0.19143	0.21778	0.2693	0.21249	-1.8417	-1.8333	-1.8667	-2.3625	-1.6958	-2.1417	-2.2354	-1.8979	-2.2917	-1.9417	-2.2792	-2.4292	-1.8042	-2.4188	-2.1104	-1.6812	371.813	230.362	288.960	214.879	300.817	246.764	295.940	329.763	305.949	311.139	71.675	343.553	117.922	59.835	322.089	384.938	0.0016573	0.00071063	0.00040719	700.08	5.2428e-06	1.4482e-05	914.54	288.22	5.212e-06	6.3436e-06	448.93	209.36	130.03	74.659	8.7691e-06	119.33	0.0014172	0.001395	0.00038553	733.31	1.5209e-05	1.5358e-05	944.45	301.12	1.5291e-05	1.5358e-05	465.31	214.49	136.99	77.067	1.5253e-05	122.37	82.483	86.760	141.169	40.226	176.583	162.675	39.515	45.142	127.479	161.085	43.354	47.459	49.319	53.289	175.055	51.145	-8191	255	
1461.466	1	1	0	0	0.28072	0.15229	0.076646	0.036928	0.15762	0.15034	0.10698	0.25781	0.1243	0.36042	0.26093	0.23195	0.0081746	0.20804	0.24703	0.24932	-1.8958	-1.8792	-1.7687	-2.3667	-1.7604	-2.05	-2.2125	-1.8375	-2.2271	-2.1208	-2.0458	-2.3708	-1.9021	-2.2333	-2.2229	-1.8937	120.023	155.505	179.138	28.583	193.496	253.995	248.690	323.621	374.117	139.525	202.727	358.443	218.895	363.973	263.673	79.416	0.0015498	0.00095798	0.00010135	697.48	3.5179e-06	3.6141e-06	909.5	287.92	9.8809e-06	6.2946e-06	449.6	209.86	129.71	74.594	6.7846e-06	120.13	0.001429	0.0013868	0.00038705	732.69	1.5122e-05	1.5391e-05	945.23	300.96	1.5364e-05	1.5104e-05	466	214.82	137.07	77.086	1.5164e-05	122.72	85.750	43.417	119.465	40.073	74.871	105.600	39.498	45.151	131.860	123.463	43.549	47.710	49.173	53.306	203.828	50.906	-8191	255	
1461.562	1	1	0	0	0.12923	0.19885	0.2778	0.35129	0.075735	0.26065	0.31271	0.30501	0.23498	0.084779	0.23281	0.22034	0.13298	0.19423	0.10643	0.045774	-1.8708	-1.8438	-1.7021	-2.2458	-2.0271	-2.0854	-2.2292	-2.0187	-2.1521	-2.0646	-1.9583	-2.45	-2.1979	-2.1917	-2.3583	-1.8333	125.585	301.018	356.382	36.253	31.820	66.778	309.474	348.663	381.693	308.559	58.911	372.332	350.951	255.953	282.189	62.066	0.0017192	0.00035429	0.00035486	701.48	1.291e-05	4.4296e-06	915.28	288.91	1.2018e-05	5.2865e-06	450.79	209.52	130.07	75.107	6.7449e-06	120.73	0.0014128	0.001388	0.00038969	733.71	1.5158e-05	1.5303e-05	947.17	301.87	1.5235e-05	1.5049e-05	467.47	215.22	137.28	77.351	1.52e-05	123.1	83.090	59.949	123.904	40.246	168.791	208.966	39.476	45.228	126.805	166.024	43.588	47.548	49.239	53.220	214.582	50.921	-8191	255	
1461.658	1	1	0	0	0.39383	0.14793	0.16765	0.18473	0.21851	0.1251	0.30779	0.23659	0.30212	0.074169	0.16399	0.21768	0.25748	0.11083	0.16279	0.19397	-1.5	-2.0104	-1.7146	-2.2542	-1.9917	-1.9667	-2.375	-1.9167	-2.0292	-2.0625	-1.7771	-2.2979	-2.1854	-1.9792	-2.2479	-2.0896	199.622	219.711	304.232	293.926	367.863	176.050	375.457	46.432	247.736	316.786	125.316	357.586	347.542	342.465	40.342	353.818	0.001665	0.00065272	0.00027886	697.94	6.4049e-06	7.2414e-06	913.6	288.23	1.2415e-05	6.5389e-06	451.5	209.4	130.07	74.69	1.1994e-05	119.67	0.0013957	0.0013902	0.00038849	732.26	1.5138e-05	1.5283e-05	946.96	301.53	1.5248e-05	1.5234e-05	467.38	214.55	136.87	77.052	1.5402e-05	122.55	86.928	69.646	233.437	40.014	165.308	88.902	39.636	45.295	150.844	181.747	43.491	47.814	49.211	53.247	200.470	50.981	-8191	255	
1461.755	1	1	0	0	0.2086	0.072951	0.22358	0.142	0.23699	0.27489	0.19982	0.45437	0.056265	0.26775	0.27228	0.22555	0.055997	0.23914	0.14318	0.43887	-1.6771	-1.9438	-1.5771	-2.3021	-1.8396	-1.7792	-2.4021	-2.0396	-1.9062	-2.0812	-1.7646	-2.1896	-2.025	-1.6562	-2.3021	-2.1104	123.656	128.375	261.018	351.095	194.072	137.792	264.934	304.820	100.730	134.812	333.177	372.895	56.718	284.567	229.915	335.145	0.0016018	0.00097163	0.00041337	699.82	1.5471e-05	1.0404e-05	911.53	289.2	6.7643e-06	4.1785e-06	448.27	207.81	130.25	74.754	7.2238e-06	119.35	0.0013916	0.0013874	0.00039059	733.16	1.5033e-05	1.5354e-05	944.48	301.15	1.5139e-05	1.5342e-05	466.05	213.98	136.9	77.041	1.5488e-05	122.41	81.072	104.360	145.217	40.191	181.203	197.568	39.452	45.151	107.200	215.840	43.658	47.750	49.444	53.069	157.121	51.122	-8191	255	
1461.849	1	1	0	0	0.097998	0.1259	0.09494	0.39506	0.016912	0.082532	0.11882	0.14037	0.10057	0.098812	0.33087	0.067174	0.11823	0.17699	0.3158	0.61124	-1.5063	-2.1167	-1.7458	-2.3208	-2.0417	-1.8083	-2.2854	-2.0583	-1.8771	-2.3542	-1.9542	-2.3667	-2.3063	-2.0021	-2.1125	-2.2979	144.820	138.305	119.555	313.744	236.936	200.905	332.632	214.092	217.059	65.084	372.818	361.596	40.115	324.168	254.696	299.938	0.0016324	0.0015041	0.00013042	701.49	1.2357e-05	2.6642e-06	911.96	289.49	6.9031e-06	9.5201e-06	449.83	209.02	129.94	74.746	5.9059e-06	119.98	0.001398	0.0014114	0.00039483	733.22	1.5132e-05	1.557e-05	945.79	301.76	1.5223e-05	1.5384e-05	466.98	214.49	136.84	77.157	1.547e-05	122.81	84.593	92.022	180.007	40.130	137.136	32.022	39.339	45.141	158.148	126.171	43.686	47.637	48.816	53.152	151.192	51.099	-8191	255	
1461.945	1	1	0	0	0.34014	0.048689	0.045766	0.26085	0.11987	0.059545	0.10994	0.24325	0.12442	0.18988	0.14595	0.16971	0.22528	0.21976	0.16466	0.30522	-1.375	-2.2	-1.8104	-2.0958	-2.1437	-1.5875	-2.3667	-2.0333	-1.6667	-2.1625	-1.8021	-2.075	-2.0375	-1.8312	-2.0542	-2.1813	28.279	256.990	353.781	379.983	83.000	238.908	42.234	354.157	35.269	38.923	32.586	103.451	49.083	344.521	137.151	380.901	0.0018083	0.0011084	0.00029963	700.23	8.7714e-07	8.7063e-06	916.22	289.59	1.4936e-05	7.592e-06	450.4	209.39	130.11	74.908	1.0037e-05	120.88	0.0014011	0.0014172	0.00038876	732.87	1.5149e-05	1.5435e-05	948.58	301.78	1.5167e-05	1.5494e-05	467.52	215.34	137.31	77.421	1.5362e-05	123.49	80.106	65.750	144.308	40.186	164.024	192.867	39.873	45.039	113.145	182.435	43.638	47.709	49.267	53.291	141.102	51.138	-8191	255	
1462.041	1	1	0	0	0.1418	0.057228	0.34035	0.19952	0.20006	0.24627	0.23084	0.31369	0.17106	0.16776	0.14983	0.21071	0.17029	0.26296	0.12538	0.32365	-1.3208	-2.15	-1.7958	-2.1604	-2.0938	-1.7479	-2.1792	-2.1229	-1.85	-2.225	-2.0687	-1.9792	-2.1688	-1.8208	-2.1688	-2.2333	264.922	331.253	159.443	30.130	131.274	292.223	338.145	383.003	266.069	330.295	286.333	345.444	337.135	271.083	155.766	36.598	0.0015735	0.00013997	0.00030132	698.39	6.5346e-06	3.2062e-06	915.41	288.88	4.1274e-06	5.4579e-06	450.67	210.27	130.02	74.835	5.8332e-06	120.89	0.0014042	0.0014207	0.00039124	733.18	1.5332e-05	1.5561e-05	948.85	301.88	1.5252e-05	1.5649e-05	467.42	215.03	137.22	77.309	1.5387e-05	123.09	79.911	81.366	145.045	40.011	158.733	56.024	39.494	45.153	53.322	94.112	43.370	47.720	49.457	53.219	154.980	51.066	-8191	255	
1462.137	1	1	0	0	0.28117	0.28449	0.27351	0.16039	0.064384	0.25959	0.24211	0.28728	0.34724	0.18809	0.39684	0.060292	0.23088	0.22472	0.13038	0.28294	-1.3625	-2.2667	-1.9958	-1.9604	-2.1792	-1.7792	-2.3229	-2.2771	-1.8146	-2.1521	-2.0438	-1.9708	-2.2542	-2.0771	-2.1125	-2.2625	364.135	49.985	138.180	302.187	290.936	335.363	31.583	123.937	86.945	217.691	355.209	374.313	309.876	327.072	198.581	259.554	0.0015688	0.00072343	0.0001652	700.56	4.0358e-06	4.499e-06	912.34	290.1	5.7125e-06	1.3378e-05	453.05	209.66	129.77	74.619	8.0228e-06	120.52	0.0014212	0.0014312	0.00038642	733.53	1.5392e-05	1.5576e-05	946.18	302.64	1.5313e-05	1.5605e-05	468.52	215.1	137.2	77.246	1.5285e-05	123.18	82.456	117.984	157.196	40.103	170.916	183.348	39.384	45.163	104.944	173.355	43.452	47.572	49.031	53.111	166.571	50.881	-8191	255	
1462.258	1	1	0	0	0.3741	0.077481	0.084591	0.046779	0.18931	0.28155	0.35607	0.10235	0.058778	0.37278	0.13006	0.40833	0.14369	0.12737	0.2095	0.31271	-1.2604	-2.0417	-1.9375	-1.9333	-2.3187	-1.7292	-2.1958	-2.2917	-1.6542	-2.1458	-2.3229	-1.9021	-2.4021	-2.0104	-1.9583	-2.6063	67.339	48.713	260.734	41.141	157.784	112.951	309.724	149.245	160.510	146.052	376.796	338.169	330.264	373.364	171.757	346.244	0.0014696	0.00029394	0.00024942	699.14	1.1086e-05	7.1741e-06	915.07	291.35	7.5328e-06	2.363e-06	451.31	210.43	130.24	75.128	9.0268e-06	121.44	0.001421	0.0014116	0.00038756	732.9	1.5294e-05	1.5219e-05	947.73	303.73	1.506e-05	1.5349e-05	469.16	215.8	137.47	77.501	1.5309e-05	124	77.063	213.975	152.799	40.236	137.957	193.119	39.745	45.047	122.043	256.337	43.378	47.639	49.229	53.344	208.526	50.935	-8191	255	
1462.354	1	1	0	0	0.11414	0.30334	0.10329	0.20918	0.23029	0.22519	0.2304	0.34853	0.065307	0.12295	0.20984	0.17567	0.20799	0.31814	0.037483	0.09682	-1.2104	-2.0062	-2.0771	-1.9083	-2.0479	-1.8667	-2.1167	-2.3083	-1.7354	-2.1063	-2.0542	-2.0604	-2.4708	-2.0208	-1.6938	-2.3375	45.078	232.665	386.673	361.086	33.458	180.554	128.315	358.297	375.541	242.127	359.371	212.167	317.965	340.830	65.782	366.521	0.001711	0.00076068	0.00026984	703.11	9.7011e-06	9.0012e-06	919.43	292.44	1.0593e-05	8.2435e-06	454.55	210.79	131.84	75.246	7.1539e-06	121.68	0.0014065	0.0014122	0.00039221	735.81	1.5328e-05	1.524e-05	950.59	304.24	1.5199e-05	1.5323e-05	471.13	216.58	138.11	77.743	1.5438e-05	124.34	83.049	76.798	178.232	39.961	125.821	178.646	39.515	45.001	102.056	179.207	43.621	47.812	49.616	53.184	223.874	50.960	-8191	255	
1462.426	1	1	0	0	0.18878	0.22396	0.018784	0.10854	0.15368	0.28832	0.10715	0.31186	0.18714	0.091359	0.12097	0.031671	0.10062	0.18126	0.30608	0.3247	-1.2958	-2.1271	-2.1854	-1.8021	-2.1854	-1.9146	-2.1229	-2.3896	-1.9125	-2.1	-2.2562	-1.8292	-2.2729	-2.0583	-1.8792	-2.425	287.578	214.302	173.471	354.376	57.021	333.434	311.537	32.680	173.183	104.299	297.107	273.490	110.854	50.427	31.951	325.094	0.0015381	0.00082681	0.0003832	700.04	9.1021e-06	4.5905e-06	912.79	291.57	1.2812e-05	1.1973e-05	451.61	209.79	129.95	74.991	4.9168e-06	120.71	0.0014131	0.0014139	0.00039248	733.91	1.5437e-05	1.5452e-05	948.76	303.84	1.5439e-05	1.543e-05	468.43	215.58	137.41	77.403	1.5498e-05	123.5	88.118	97.465	126.846	40.158	132.157	109.793	39.815	45.094	156.939	257.195	43.414	47.691	49.206	53.273	142.744	50.976	-8191	255	
1462.546	1	1	0	0	0.1643	0.089559	0.1258	0.096675	0.17369	0.15868	0.34583	0.16189	0.022808	0.15038	0.18042	0.12511	0.221	0.076288	0.15331	0.10906	-1.4625	-2.0812	-2.0187	-1.8104	-2.0604	-1.9625	-1.8646	-2.2938	-1.9229	-1.9604	-2.3479	-1.8917	-2.3333	-2.2958	-1.8417	-2.525	287.152	151.999	373.312	354.445	54.273	339.815	31.460	331.100	255.629	251.714	259.259	284.289	319.398	31.859	47.931	377.902	0.0016109	0.00091549	0.00027759	699.01	5.2838e-06	3.7774e-06	917.59	290.5	3.7135e-06	1.3308e-05	449.41	209.82	130.41	74.868	3.9939e-06	120.64	0.0014058	0.0014149	0.00039262	732.42	1.5264e-05	1.5511e-05	948.35	303.02	1.5324e-05	1.5626e-05	467.65	215.4	137.39	77.389	1.5555e-05	123.56	77.086	59.499	102.196	40.310	166.329	258.118	39.540	45.220	157.996	177.625	43.334	47.845	49.369	53.179	223.317	51.200	-8191	255	
1462.643	1	1	0	0	0.14269	0.20477	0.32812	0.34026	0.28299	0.1034	0.13245	0.065972	0.20132	0.20646	0.17784	0.29139	0.17388	0.13556	0.092817	0.13873	-1.4771	-1.9083	-2.0833	-1.8833	-2.1792	-2.1854	-1.9167	-2.3958	-1.7854	-1.9542	-2.4292	-1.8979	-1.9146	-2.3708	-1.5792	-2.4688	92.646	84.235	221.042	38.403	269.723	233.178	334.581	367.119	196.415	132.824	59.254	327.695	312.181	93.236	111.341	209.448	0.0015695	0.00069792	0.00031996	697.94	6.3188e-06	1.0992e-05	915.82	291.18	1.1505e-05	5.6148e-06	450.39	209.64	130.16	75.306	3.2493e-06	120.85	0.0014052	0.0014256	0.00039547	733.4	1.5297e-05	1.5458e-05	947.35	303.14	1.5312e-05	1.5538e-05	468.25	215.54	137.56	77.647	1.545e-05	123.78	81.764	158.230	121.897	40.308	158.688	152.057	39.427	45.211	172.462	214.807	43.446	47.751	49.239	53.266	158.677	51.120	-8191	255	
1462.739	1	1	0	0	0.27794	0.12222	0.10942	0.2149	0.17463	0.10724	0.21382	0.13673	0.04496	0.26242	0.30599	0.46085	0.1303	0.12532	0.11368	0.15507	-1.3312	-1.9042	-2.3646	-1.8146	-2.2062	-1.9125	-1.9167	-2.0521	-2.1312	-1.5812	-2.4208	-2.2625	-2.0833	-2.3771	-1.775	-2.3583	134.033	370.170	327.848	315.961	97.086	166.778	369.802	320.449	79.218	169.646	365.397	29.259	310.310	372.618	157.100	230.889	0.0016151	0.0011908	0.00034813	702.58	8.203e-06	9.114e-06	918.15	290.17	1.0057e-05	1.168e-05	451.56	210.32	130.75	75.041	7.5578e-06	120.42	0.0014071	0.0014166	0.0003965	733.54	1.5197e-05	1.5562e-05	948.64	303.27	1.5169e-05	1.5564e-05	469.82	215.87	137.65	77.654	1.561e-05	123.51	85.800	104.806	107.019	40.092	161.105	240.560	39.636	45.240	136.829	126.740	43.436	47.669	49.122	53.239	223.047	51.007	-8191	255	
1462.858	1	1	0	0	0.38651	0.2168	0.13917	0.1776	0.15805	0.16515	0.2102	0.27798	0.13992	0.10496	0.13718	0.19247	0.13944	0.3603	0.12729	0.53112	-1.5104	-1.8479	-2.2271	-1.8958	-1.9667	-2.1188	-1.9583	-2.3292	-1.9458	-1.7417	-2.275	-2.0292	-1.9521	-2.4604	-1.875	-2.3208	156.996	379.804	224.709	54.228	163.747	123.993	322.177	339.520	166.377	381.210	38.331	314.420	332.784	380.511	230.596	357.514	0.0016639	0.0005919	0.00027582	699.03	9.9844e-06	1.154e-05	915.09	291.11	1.4538e-05	6.1509e-06	449.88	208.81	130.16	75.125	1.6294e-05	119.79	0.0014294	0.0014307	0.00039724	732.01	1.5428e-05	1.5591e-05	946.51	303.43	1.5354e-05	1.5685e-05	467.49	214.31	137.39	77.395	1.5452e-05	122.81	85.015	39.552	111.680	40.067	171.193	157.758	39.517	45.112	132.858	177.454	43.411	47.583	49.606	53.285	163.196	50.982	-8191	255	
1462.954	1	1	0	0	0.10903	0.1289	0.069547	0.1791	0.1036	0.23483	0.21334	0.29524	0.21082	0.17256	0.1638	0.25164	0.21678	0.40035	0.14431	0.53977	-1.8438	-1.8021	-2.1708	-2.0875	-1.9167	-2.2833	-2.025	-2.2354	-2.2354	-1.7729	-2.3521	-1.9896	-1.8875	-2.3271	-2.0083	-2.3083	254.897	252.844	322.249	40.432	284.491	215.864	314.572	359.560	136.829	121.244	193.582	348.073	359.193	367.830	127.668	295.402	0.0016738	0.00031872	0.00014986	697.62	6.6101e-06	1.2188e-05	911.39	290.06	1.129e-05	4.9963e-06	449.05	208.22	130.27	74.816	1.3975e-05	120.1	0.0014226	0.0014288	0.00039601	731.03	1.5492e-05	1.5716e-05	944.54	302.69	1.5579e-05	1.572e-05	466.72	213.91	136.92	77.308	1.5359e-05	122.89	81.170	125.035	88.735	40.479	97.128	239.757	39.635	44.867	103.264	128.349	43.329	47.688	49.608	53.099	160.618	51.135	-8191	255	
1463.025	1	1	0	0	0.20773	0.24204	0.15559	0.24112	0.24239	0.31993	0.038696	0.069889	0.19704	0.24212	0.1144	0.25574	0.089742	0.16828	0.29522	0.22821	-1.7	-1.7854	-2.1958	-2.0583	-1.7	-2.3979	-2.1542	-2.1417	-2.2687	-1.7313	-2.1312	-2.2146	-2.0021	-2.3083	-1.8375	-2.2313	29.355	296.607	235.417	311.283	298.038	110.584	77.963	229.007	315.557	180.648	113.573	357.130	362.406	366.912	355.459	300.647	0.0016725	0.0003542	1.1533e-05	698.57	7.1638e-06	5.1089e-06	911.77	290.08	5.1573e-06	1.5584e-06	448	208.98	130.38	74.817	1.4877e-05	120.25	0.0014251	0.0014145	0.00039271	731.69	1.5638e-05	1.5724e-05	943.22	302.71	1.5473e-05	1.5492e-05	466.01	214.45	137.26	77.295	1.5246e-05	123.09	81.633	138.045	131.331	40.103	163.330	150.145	39.586	45.238	102.720	119.108	43.327	47.733	49.366	53.180	152.712	51.148	-8191	255	
1463.146	1	1	0	0	0.041836	0.16801	0.095244	0.20702	0.042923	0.077908	0.061754	0.09629	0.093591	0.11044	0.24241	0.44251	0.18906	0.54538	0.26397	0.1416	-1.8125	-1.5375	-1.9979	-2.0125	-1.7708	-2.3625	-1.9396	-1.7062	-2.2313	-1.6875	-2.0687	-2.4938	-1.7583	-2.3125	-1.8979	-2.1229	373.349	326.126	181.887	78.476	343.351	263.485	222.921	226.354	356.558	38.494	294.517	340.088	308.046	79.999	223.816	248.590	0.00164	0.00074905	0.00026127	699.87	8.7972e-06	1.3161e-05	910.97	290.07	5.9213e-06	1.4313e-06	447.98	208.53	129.83	74.914	5.096e-06	120.39	0.0014235	0.0014033	0.00038981	732.68	1.5472e-05	1.5516e-05	943.76	302.11	1.5726e-05	1.5383e-05	465.68	214.74	137.01	77.322	1.5337e-05	122.86	80.494	68.671	89.473	40.304	169.529	119.496	39.466	45.109	76.601	175.722	43.565	47.796	49.521	53.158	190.663	50.989	-8191	255	
1463.242	1	1	0	0	0.074769	0.14812	0.04987	0.15544	0.28036	0.1919	0.38028	0.14608	0.24672	0.129	0.050636	0.12332	0.12009	0.46817	0.15133	0.4141	-1.8667	-1.8292	-2.1896	-2.1646	-1.85	-2.2125	-2.2729	-1.8042	-2.4146	-1.7896	-2.2875	-2.3167	-1.8083	-2.2083	-2.0458	-2.0667	108.881	156.522	57.174	104.178	75.373	84.290	36.994	201.633	384.291	78.594	167.960	91.252	324.570	62.991	93.480	338.952	0.0016366	0.0010198	0.00050877	699.23	4.6179e-06	4.9182e-06	910.74	289.02	1.1231e-05	1.0722e-05	448.8	207.28	129.89	74.676	6.1098e-06	119.08	0.0014364	0.0014137	0.00039288	731.29	1.5361e-05	1.5744e-05	942.13	301.37	1.5491e-05	1.5299e-05	464.65	213.24	136.74	76.937	1.5566e-05	121.89	85.205	132.439	125.405	40.336	224.444	212.243	39.746	44.920	123.774	174.774	43.290	47.502	49.672	53.192	193.555	50.996	-8191	255	
1463.338	1	1	0	0	0.050918	0.38204	0.1495	0.12356	0.028021	0.12945	0.11486	0.15395	0.36625	0.2871	0.13072	0.38736	0.063777	0.32313	0.2381	0.21177	-1.9208	-1.7271	-1.8292	-2.3167	-1.7667	-2.0271	-2.2375	-1.7	-2.3021	-1.9167	-2.3521	-2.3646	-1.8479	-2.4021	-1.9667	-2.0542	224.175	122.360	346.275	319.186	78.206	161.674	311.217	334.922	251.173	46.690	281.324	353.709	82.411	385.697	47.799	299.872	0.0014883	0.00013247	0.00042643	696.4	8.0273e-06	6.1436e-06	907.19	289.02	7.1311e-06	7.5947e-06	447.6	207.28	129.27	74.484	1.1194e-05	119.61	0.0014374	0.0014127	0.00039545	731.04	1.5338e-05	1.5539e-05	942.88	302.22	1.5476e-05	1.5369e-05	465.36	213.26	136.22	77.025	1.547e-05	122.33	82.863	166.072	153.166	40.064	177.940	145.297	39.593	45.386	121.975	139.748	43.464	47.720	49.345	53.141	186.182	50.924	-8191	255	
1463.435	1	1	0	0	0.26495	0.17477	0.17529	0.23087	0.1328	0.23891	0.14331	0.3215	0.072092	0.076313	0.26911	0.067957	0.099008	0.17297	0.44298	0.43598	-1.95	-1.8625	-1.7896	-2.2958	-1.8458	-2.1833	-2.3021	-1.7875	-2.1375	-2.1437	-2.0333	-2.4479	-1.9042	-2.1604	-2.2729	-1.9875	219.044	300.841	290.978	361.357	318.599	335.768	302.390	324.631	324.105	316.637	371.193	364.052	361.922	196.263	258.231	362.563	0.001539	0.00076088	0.00034084	699.13	4.7143e-06	6.0212e-06	907.64	289.34	8.0885e-06	4.5323e-06	449.46	207.72	129.81	74.966	1.3163e-05	120.24	0.0014221	0.0014061	0.00039763	730.83	1.528e-05	1.5683e-05	941.82	301.93	1.5407e-05	1.5392e-05	466.26	213.54	136.65	77.277	1.5448e-05	122.95	85.529	53.549	114.132	40.016	129.145	159.936	39.597	45.143	120.495	227.580	43.459	47.533	49.427	53.200	189.937	51.063	-8191	255	
1463.555	1	1	0	0	0.29183	0.18157	0.056419	0.25225	0.14805	0.24709	0.22467	0.040569	0.067331	0.11218	0.36874	0.11014	0.057887	0.19362	0.081404	0.29274	-1.65	-1.9833	-1.7479	-2.275	-1.85	-1.9354	-2.2271	-1.9229	-2.1354	-1.9854	-1.9375	-2.2458	-1.8646	-1.975	-2.2354	-1.9229	305.374	348.395	158.036	45.879	140.747	314.637	277.539	128.126	378.933	33.214	301.919	307.178	144.928	356.649	137.836	346.479	0.0016397	0.0011424	0.00030135	697.58	7.0209e-06	8.5964e-06	909.53	289.64	6.2716e-06	9.0322e-06	447.73	207.62	129.63	74.505	2.9795e-06	119.41	0.0014197	0.0014041	0.00039147	731.9	1.514e-05	1.5722e-05	944.37	302.05	1.5423e-05	1.5465e-05	465.51	213.8	136.39	77.116	1.5529e-05	122.25	77.856	118.813	135.844	40.347	129.394	193.167	39.528	45.194	133.208	192.304	43.372	47.652	49.645	53.196	105.947	51.080	-8191	255	
1463.627	1	1	0	0	0.055461	0.071152	0.35745	0.15245	0.13863	0.13418	0.24147	0.13199	0.29621	0.20326	0.31167	0.18	0.1818	0.087227	0.12496	0.33449	-1.5667	-1.9354	-1.8375	-2.3	-1.925	-1.925	-2.3229	-1.7521	-2.0771	-2.3792	-2.0438	-2.2604	-2.0896	-2.0521	-2.25	-2.0146	95.837	96.461	81.702	313.752	41.945	332.334	384.606	82.036	233.216	149.256	98.545	194.827	92.890	251.068	39.438	310.757	0.0015355	0.00073543	0.00032289	696.63	1.4729e-05	8.8357e-06	908.22	289.7	3.9022e-06	1.2432e-05	446.49	207.32	128.93	74.419	3.6116e-06	118.81	0.0014071	0.0014193	0.00039021	730.42	1.5072e-05	1.5481e-05	940.61	301.01	1.5207e-05	1.5554e-05	463.39	212.85	136.25	76.959	1.5437e-05	121.73	82.965	76.976	105.251	40.227	155.653	182.236	39.390	44.888	171.739	211.300	43.354	47.778	49.534	53.244	157.164	50.980	-8191	255	
1463.723	1	1	0	0	0.090706	0.15924	0.022819	0.17481	0.28912	0.18884	0.25009	0.22809	0.26834	0.12725	0.058488	0.27673	0.17074	0.2849	0.10944	0.15034	-1.8667	-2.2729	-1.6917	-2.2146	-1.925	-2.0062	-2.2896	-1.9521	-1.9937	-2.1104	-1.8208	-2.4229	-2.0208	-2.0896	-2.2396	-2.1479	305.004	126.705	327.502	351.775	222.843	357.388	87.242	367.936	309.563	115.605	303.846	344.728	172.239	319.796	237.862	286.839	0.0016217	0.00025023	7.642e-05	697.81	7.2326e-06	4.2583e-06	909.36	288.37	2.0956e-06	1.0181e-05	447.4	207.54	129.64	74.725	8.5007e-06	120.07	0.0014127	0.0014075	0.00039188	730.08	1.5221e-05	1.5599e-05	939.83	300.9	1.5305e-05	1.5465e-05	464.26	213.22	136.64	77.156	1.5426e-05	122.19	81.077	134.749	124.272	40.219	168.989	107.454	39.673	44.981	196.964	172.385	43.364	47.679	49.371	53.102	193.760	50.925	-8191	255	
1463.819	1	1	0	0	0.12315	0.26549	0.28617	0.19764	0.19623	0.25293	0.19575	0.1456	0.17514	0.14766	0.13315	0.21863	0.075354	0.25648	0.12738	0.19911	-1.4458	-2.2875	-1.5771	-2.2104	-1.8833	-1.8479	-2.4437	-2.1292	-2.0875	-2.3354	-1.875	-2.3729	-2.1125	-2.1208	-2.2146	-2.2062	182.333	45.198	186.524	351.436	265.263	89.968	340.307	364.245	335.541	270.859	254.846	346.935	224.129	370.877	367.289	34.773	0.001606	0.00043064	0.00020651	697.39	6.8503e-06	5.707e-06	911.32	288.9	1.1421e-05	9.152e-06	449.49	207.61	129.27	74.823	1.2757e-05	120.04	0.0014202	0.0014294	0.00039111	730.39	1.5347e-05	1.5595e-05	942.74	301.42	1.5336e-05	1.5504e-05	465.11	213.69	136.76	77.193	1.537e-05	122.67	77.043	79.497	123.076	40.090	168.790	47.932	39.524	45.257	148.287	212.259	43.489	47.678	49.405	53.231	104.326	51.205	-8191	255	
1463.938	1	1	0	0	0.036136	0.23777	0.14021	0.11326	0.14748	0.24337	0.23176	0.15233	0.15253	0.10139	0.11096	0.023295	0.18176	0.1828	0.25209	0.031776	-1.4167	-2.1562	-1.6396	-2.2062	-2.1917	-1.7604	-2.3896	-2.1458	-1.8458	-2.3063	-2.0229	-1.9708	-2.3667	-1.8521	-2.3146	-2.275	88.387	205.433	321.852	315.252	209.715	110.320	319.872	33.870	179.986	133.313	313.283	373.960	42.872	323.305	279.102	337.384	0.0014885	0.00082251	0.00015483	697.01	1.0498e-05	7.0468e-06	911.63	289.41	3.7799e-06	3.7248e-06	445.98	207.28	129.27	74.223	7.0073e-06	119.26	0.0014209	0.001427	0.00038911	731.03	1.5469e-05	1.5606e-05	942.23	301.89	1.5409e-05	1.547e-05	464.48	213.24	136.51	77.023	1.5211e-05	122	89.492	107.249	131.195	40.031	208.797	225.984	39.479	45.041	127.321	185.036	43.624	47.750	48.872	53.248	141.258	50.901	-8191	255	
1464.034	1	1	0	0	0.16007	0.13051	0.12456	0.11925	0.09107	0.096897	0.13697	0.098143	0.25181	0.13535	0.16409	0.22923	0.35219	0.32414	0.046898	0.22585	-1.4104	-2.2917	-1.8208	-2.0187	-2.05	-1.7313	-2.3479	-2.2125	-1.9292	-2.3833	-2.1396	-2.075	-2.2062	-2.0042	-2.2	-2.2208	254.277	383.830	56.269	101.501	263.052	324.738	146.565	58.934	134.435	377.106	53.822	354.628	92.353	365.060	348.502	314.158	0.0014883	0.00064557	0.00024571	697.38	7.4896e-06	8.1196e-06	905.77	288.91	1.3302e-05	2.2123e-06	446.06	207.24	128.87	74.539	7.4812e-06	119	0.0014169	0.0014109	0.00038533	729.19	1.5317e-05	1.5356e-05	940.19	301.53	1.5325e-05	1.5437e-05	463.21	212.49	136.35	76.941	1.5168e-05	121.8	79.755	86.591	81.705	40.059	143.274	171.115	39.532	44.904	122.805	134.575	43.469	47.377	49.432	53.157	188.867	50.853	-8191	255	
1464.130	1	1	0	0	0.13525	0.27188	0.28126	0.41064	0.20922	0.29115	0.23946	0.23788	0.12474	0.045676	0.21284	0.34614	0.22573	0.065981	0.13285	0.37732	-1.5187	-2.3625	-1.85	-2.0396	-2.1479	-1.6042	-2.1917	-2.2833	-1.7875	-2.2083	-2.0896	-1.9375	-2.3917	-1.7375	-2.0521	-2.3646	291.160	27.762	126.044	360.161	381.388	272.226	131.614	72.223	269.274	201.192	37.537	252.593	88.957	322.365	200.827	330.281	0.0015912	0.00078272	0.00044414	697.58	2.6952e-06	7.5058e-06	909.7	288.2	8.4128e-06	7.1149e-06	447.3	207.43	128.69	74.434	1.3859e-05	119.23	0.0014051	0.001391	0.00038406	729.96	1.523e-05	1.5278e-05	941.41	301.63	1.5257e-05	1.5389e-05	464.42	213	136.33	76.735	1.5223e-05	122.07	76.476	163.647	145.423	40.222	188.218	139.009	39.259	45.001	166.364	144.208	43.445	47.707	49.269	53.118	169.906	50.943	-8191	255	
1464.226	1	1	0	0	0.033155	0.21257	0.085634	0.27924	0.18058	0.13501	0.06345	0.1831	0.015082	0.093234	0.49038	0.32267	0.1298	0.22665	0.10765	0.32979	-1.2563	-2.1958	-1.875	-1.7812	-2.2667	-1.975	-2.1958	-2.2562	-1.6146	-2.1917	-1.9417	-1.8417	-2.1479	-1.8375	-2.0833	-2.45	84.468	128.219	302.757	343.071	341.939	145.584	280.181	325.293	384.240	119.420	299.513	356.436	93.412	362.445	248.821	334.555	0.0017222	0.00050254	0.00045585	697.72	9.6776e-06	6.7432e-06	911.35	290.3	7.1111e-06	5.4098e-06	449.28	207.75	129.28	74.364	3.8946e-06	119.74	0.001411	0.0013966	0.00038879	730.57	1.5243e-05	1.5258e-05	942.65	302.21	1.5065e-05	1.5343e-05	466.2	213.54	136.53	76.891	1.5422e-05	122.72	83.807	92.168	154.059	40.335	144.806	190.580	39.838	45.176	176.900	264.566	43.560	47.803	49.151	53.263	142.234	51.084	-8191	255	
1464.323	1	1	0	0	0.25765	0.20092	0.10158	0.39756	0.10058	0.15911	0.31006	0.4371	0.27261	0.19785	0.29076	0.25883	0.13724	0.41391	0.16392	0.34351	-1.3083	-2.2667	-1.9854	-1.8333	-2.2333	-1.9375	-2.0042	-2.2313	-1.9271	-2.1583	-2.2667	-1.8479	-2.3688	-2.1437	-1.9188	-2.4396	35.070	29.834	79.093	345.909	355.969	256.408	319.951	326.479	344.339	109.144	39.196	342.310	143.648	371.750	263.946	310.016	0.0015479	0.0016419	0.0001669	698.22	8.2887e-06	1.5064e-05	912.64	290.75	9.6607e-06	7.0755e-06	450.04	206.6	129.56	74.333	1.891e-05	119.02	0.0014084	0.0014037	0.00039394	731.38	1.5223e-05	1.5312e-05	944.2	303	1.5007e-05	1.5414e-05	466.34	212.9	136.49	76.863	1.5351e-05	121.83	82.913	126.168	197.486	40.047	164.624	152.677	39.591	45.136	102.324	141.964	43.407	47.771	49.421	53.012	190.054	51.063	-8191	255	
1464.419	1	1	0	0	0.23004	0.039781	0.10873	0.098306	0.071599	0.06714	0.21921	0.22046	0.208	0.20185	0.14284	0.16061	0.082595	0.051436	0.20571	0.042524	-1.3896	-2.1167	-2.1479	-1.8875	-2.1958	-1.8208	-2.1063	-2.2542	-1.8458	-2.0646	-2.3708	-1.9333	-2.3187	-2.0687	-1.7979	-2.4938	368.000	267.300	357.369	40.407	363.759	32.986	294.284	337.523	306.794	84.407	385.136	332.238	92.107	125.142	275.205	292.508	0.0015851	0.00056022	0.00012529	694.08	2.1062e-06	1.2146e-05	910.13	288.96	1.4197e-05	1.4142e-05	447.8	207.5	129.72	74.394	4.4528e-06	118.93	0.0014003	0.0014123	0.00039652	729.3	1.5178e-05	1.5424e-05	942.09	301.66	1.5253e-05	1.554e-05	464.81	212.48	136.33	76.827	1.5356e-05	121.6	81.200	130.417	139.634	39.940	194.682	161.032	39.436	45.212	128.916	170.939	43.540	47.883	49.166	53.108	210.349	51.052	-8191	255	
1464.539	1	1	0	0	0.27465	0.17803	0.2532	0.34618	0.41941	0.12947	0.10763	0.26546	0.024385	0.24289	0.29632	0.27826	0.2502	0.35644	0.23966	0.32451	-1.2375	-2.0708	-1.9937	-1.8521	-2.1625	-2.2021	-2.0896	-2.5187	-1.9792	-2.0062	-2.4271	-2.0417	-2.2687	-2.3292	-1.6917	-2.4917	356.577	145.078	266.718	359.371	167.744	215.930	371.231	382.570	252.900	240.897	308.721	41.582	303.690	379.035	109.780	34.023	0.0016685	0.00080633	0.00018168	695.45	8.4401e-06	1.1698e-05	906.54	288.51	1.0709e-05	1.2644e-05	445.71	207.91	129.55	74.27	5.8016e-06	119.21	0.0013902	0.001422	0.00039624	729.69	1.5247e-05	1.5555e-05	942.08	302.17	1.5209e-05	1.5567e-05	464.29	213.19	136.44	76.91	1.5384e-05	121.98	82.256	117.868	184.951	39.949	204.596	199.299	39.612	45.122	134.103	196.791	43.411	47.676	49.341	53.297	245.537	51.131	-8191	255	
1464.636	1	1	0	0	0.20494	0.164	0.16546	0.062608	0.083249	0.25932	0.2438	0.17268	0.095353	0.20073	0.18178	0.22749	0.14562	0.14847	0.25298	0.16164	-1.3583	-1.8354	-2.1312	-1.8896	-2.0833	-2.2292	-1.8979	-2.2729	-2.0125	-1.9271	-2.325	-1.9104	-2.0583	-2.3833	-1.6812	-2.5104	90.980	159.287	61.744	276.778	228.724	95.024	307.920	340.390	180.269	302.381	301.491	276.795	220.990	352.148	197.064	313.923	0.0016766	0.00023876	0.00027944	699.16	1.7599e-06	7.0925e-06	909.93	288.19	7.8874e-06	3.8258e-06	448.07	208.46	130	74.792	6.3633e-06	120.29	0.0014031	0.0014201	0.00039736	730.68	1.5238e-05	1.5663e-05	943.83	302.39	1.549e-05	1.5672e-05	466.54	214.07	137.16	77.272	1.5372e-05	122.95	78.594	85.931	145.420	40.124	176.755	77.711	39.599	45.007	98.130	226.661	43.576	47.772	49.483	53.130	105.906	50.916	-8191	255	
1464.732	1	1	0	0	0.16987	0.19746	0.23575	0.25717	0.10451	0.4119	0.22222	0.098634	0.14589	0.27497	0.27434	0.027029	0.15505	0.24262	0.18859	0.31449	-1.5583	-1.9083	-2.1583	-1.9042	-1.8563	-2.3417	-1.85	-2.2896	-2.0458	-1.7938	-2.3646	-2.0229	-2.1833	-2.1646	-1.7313	-2.3854	80.725	228.139	347.082	160.664	299.763	131.336	304.596	78.859	113.372	72.559	322.824	79.282	348.181	260.986	381.109	382.717	0.0015852	0.00064151	0.0003717	695.6	9.1705e-06	1.2676e-05	911.5	291.15	1.9362e-06	6.7962e-06	450.41	207.97	130.1	74.566	9.3851e-06	119.75	0.0014204	0.0014269	0.00039314	729.42	1.5404e-05	1.5561e-05	944.31	303.45	1.5354e-05	1.5526e-05	467.7	213.78	137.33	77.231	1.5404e-05	122.56	86.865	94.102	146.488	40.292	156.596	164.962	39.549	45.140	157.817	212.199	43.495	47.716	49.422	53.078	189.153	51.067	-8191	255	
1464.828	1	1	0	0	0.035166	0.28458	0.19559	0.081351	0.28886	0.33007	0.20095	0.13835	0.20273	0.26783	0.096614	0.28281	0.23659	0.2697	0.12909	0.10175	-1.675	-1.575	-2.2896	-1.9542	-1.9458	-2.1708	-1.8229	-2.2438	-2.05	-1.75	-2.3646	-2.2521	-1.9083	-2.4854	-1.7313	-2.2021	123.065	365.682	37.843	342.894	269.587	384.040	333.916	82.765	287.959	107.025	44.344	340.372	55.671	314.825	382.473	230.054	0.0017257	0.0010071	0.00035982	701.11	2.6586e-06	3.4981e-06	911.43	291.38	9.1948e-06	5.5008e-06	450.17	208.15	129.42	74.522	1.0687e-05	119.85	0.0014358	0.0014461	0.00039767	732.05	1.565e-05	1.5741e-05	945.06	303.23	1.5566e-05	1.5538e-05	466.87	213.6	137.18	77.148	1.5312e-05	122.81	77.787	136.955	133.361	40.051	106.992	88.057	39.716	45.203	64.492	148.105	43.568	47.727	49.480	53.320	151.558	51.176	-8191	255	
1464.922	1	1	0	0	0.16315	0.15351	0.18141	0.21146	0.19289	0.12877	0.24294	0.13352	0.02536	0.05449	0.12698	0.30454	0.39518	0.12013	0.18492	0.16189	-1.5229	-1.6729	-2.2604	-2.0896	-1.7771	-2.0583	-2.175	-2.25	-2.0875	-1.7313	-2.2229	-2.2125	-1.9083	-2.3875	-1.7854	-2.3312	108.768	224.867	331.909	29.256	160.321	239.781	292.184	338.057	184.685	369.749	338.745	373.856	90.911	197.083	199.106	326.223	0.0015771	0.00032101	0.00025186	700.93	1.059e-05	1.1262e-05	912.18	290.02	9.7561e-06	5.6409e-06	452.49	208.68	129.78	74.874	1.2836e-05	120.31	0.0014389	0.0014195	0.00039211	731.52	1.566e-05	1.5802e-05	945.67	303.99	1.5626e-05	1.5563e-05	468.78	214.61	137.45	77.335	1.5366e-05	123.23	72.789	90.120	104.965	39.981	157.323	161.394	39.515	45.137	179.596	171.062	43.362	47.689	49.368	53.281	164.980	50.976	-8191	255	
1465.018	1	1	0	0	0.23284	0.10571	0.21021	0.1391	0.14659	0.11165	0.08036	0.16427	0.08409	0.28273	0.10551	0.11205	0.30171	0.12459	0.30816	0.38793	-1.8417	-1.3687	-2.0812	-2.1375	-1.7437	-2.4062	-1.9167	-1.9375	-2.2583	-1.8333	-2.1896	-2.3292	-1.7687	-2.5062	-1.9312	-2.1917	137.746	50.571	78.225	240.174	353.694	187.108	159.215	305.257	325.000	315.518	281.960	41.158	369.316	370.701	165.388	343.499	0.0015366	0.00070599	0.00047271	696.39	4.2894e-06	9.0252e-06	914.27	291.94	1.5288e-05	4.4046e-06	453.02	209.85	130.52	75.026	9.9374e-06	120.69	0.0014339	0.0014153	0.00039795	731.73	1.5554e-05	1.5583e-05	947.16	304.61	1.5675e-05	1.5416e-05	470.19	215.39	137.7	77.429	1.5533e-05	123.58	83.279	68.571	76.018	40.216	79.396	195.590	39.379	44.990	144.601	133.311	43.667	47.652	49.145	53.028	155.994	50.992	-8191	255	
1465.115	1	1	0	0	0.15255	0.090421	0.20493	0.19558	0.31592	0.15724	0.083833	0.23462	0.2194	0.1825	0.18594	0.28748	0.061504	0.28088	0.099321	0.30244	-1.6708	-1.625	-2.1292	-2.0479	-1.7042	-2.2729	-1.9792	-2.0312	-2.1958	-1.7979	-2.2167	-2.1104	-1.9375	-2.2979	-1.9062	-2.1625	105.237	69.898	258.512	84.717	158.002	301.487	38.614	37.579	69.330	77.540	46.422	322.452	118.130	47.964	174.988	312.993	0.0016007	0.00074369	0.00035186	697.44	1.383e-05	3.394e-06	914.84	292.72	7.7461e-06	5.8568e-06	454.2	208.92	130.6	74.735	2.4658e-06	119.92	0.0014253	0.0014023	0.00039698	732.91	1.553e-05	1.5583e-05	948.44	305.21	1.5544e-05	1.5356e-05	469.49	214.77	137.64	77.144	1.5559e-05	122.99	83.883	151.087	133.129	40.242	157.328	158.116	39.811	44.803	161.269	124.211	43.325	47.738	49.475	53.222	203.699	51.163	-8191	255	
1465.235	1	1	0	0	0.081111	0.27375	0.24812	0.19486	0.30312	0.13997	0.27491	0.12071	0.2759	0.10838	0.14508	0.28734	0.21892	0.090909	0.12489	0.23101	-1.9896	-1.8104	-1.9792	-2.1292	-1.5354	-2.3271	-1.975	-1.9438	-2.4688	-1.8563	-2.1813	-2.3417	-1.9104	-2.4083	-2.0146	-1.9854	159.978	328.286	340.865	351.481	334.547	291.034	246.878	323.111	311.737	378.030	33.810	361.817	368.966	230.620	275.999	338.646	0.0015221	0.0010828	0.00021333	698.09	5.5711e-06	8.0186e-06	908.35	292.76	1.4142e-05	8.9801e-06	450.39	208.5	129.39	74.625	4.1615e-06	120.39	0.0014221	0.0014071	0.0003998	731.84	1.5395e-05	1.5628e-05	946.43	304.91	1.5468e-05	1.5419e-05	469.22	214.53	137.15	77.204	1.5738e-05	123.09	83.698	75.324	97.784	40.312	95.979	123.480	39.739	45.112	84.715	161.182	43.578	47.650	48.997	53.251	217.760	51.174	-8191	255	
1465.331	1	1	0	0	0.14117	0.19474	0.16299	0.33725	0.14469	0.17489	0.31302	0.20313	0.17884	0.34841	0.37723	0.18555	0.27683	0.11372	0.33549	0.34076	-1.8167	-1.9438	-1.8667	-2.4333	-1.7167	-2.2854	-2.0896	-1.9042	-2.275	-1.95	-2.025	-2.2729	-1.9208	-2.4208	-2.0292	-1.9917	175.836	230.248	204.188	333.183	333.705	318.628	35.225	212.182	287.628	222.055	289.079	344.583	90.977	108.480	313.810	301.184	0.0015335	0.0010734	0.00016968	698.51	1.0415e-05	9.4395e-06	913.06	292.68	9.0829e-06	1.5803e-05	449.78	208.54	130.73	74.996	7.9281e-06	120.49	0.0014297	0.0014202	0.00040567	732.48	1.5319e-05	1.587e-05	947.25	304.99	1.5546e-05	1.5544e-05	469.63	214.85	137.69	77.41	1.5747e-05	123.37	82.532	110.052	116.188	40.396	170.294	185.641	39.485	45.125	152.841	182.823	43.635	47.475	49.538	53.102	145.239	51.056	-8191	255	
1465.427	1	1	0	0	0.24958	0.11393	0.1298	0.15033	0.061148	0.12321	0.14508	0.23258	0.090142	0.079432	0.15236	0.21956	0.046472	0.36944	0.20492	0.18684	-1.7083	-1.8208	-1.9604	-2.2625	-1.8021	-2.0083	-2.2667	-1.9104	-2.0292	-1.925	-1.9708	-2.3208	-1.8479	-2.0479	-2.1167	-1.9583	380.556	88.676	109.663	303.875	60.983	285.075	265.479	88.319	213.740	188.911	353.220	67.698	345.631	362.401	209.275	303.642	0.0016281	0.00030825	0.00021833	698.55	4.7617e-06	1.8752e-05	910.53	292.33	7.5076e-06	1.2881e-05	451.97	209.83	131.29	75.22	1.3757e-05	120.7	0.0014309	0.001445	0.00040474	733.22	1.5408e-05	1.5894e-05	946.88	305.01	1.5564e-05	1.5634e-05	469.43	215.33	137.91	77.735	1.5824e-05	123.45	85.646	176.109	115.916	40.209	197.812	152.005	39.599	45.140	188.319	208.075	43.323	47.532	49.189	53.171	176.106	51.155	-8191	255	
1465.524	1	1	0	0	0.13978	0.24589	0.21947	0.23986	0.011405	0.11449	0.15941	0.032825	0.1673	0.10794	0.12757	0.21978	0.071295	0.26875	0.26256	0.27142	-1.7708	-1.8958	-1.8479	-2.4875	-1.7625	-1.9583	-2.25	-1.7875	-2.0833	-2.0042	-1.9896	-2.5083	-2.0271	-2.1229	-2.3417	-1.8854	52.455	236.880	292.895	76.433	237.788	311.574	315.877	30.500	61.618	205.601	176.102	279.580	278.734	372.391	125.583	329.329	0.0015852	0.00081731	0.00025272	693.93	5.4565e-07	4.1915e-06	911.62	292.61	7.908e-06	3.1559e-06	449.97	208.69	129.53	74.846	5.1852e-06	119.67	0.0014502	0.001457	0.00040644	731.12	1.5677e-05	1.5937e-05	944.27	304.02	1.5705e-05	1.5932e-05	467.74	214.36	137.3	77.35	1.5841e-05	122.43	81.643	108.970	164.077	40.227	255.813	61.326	39.569	45.164	95.123	149.338	43.693	47.761	49.099	53.260	215.288	50.928	-8191	255	
1465.620	1	1	0	0	0.14305	0.24064	0.14887	0.16127	0.17539	0.0333	0.22045	0.15975	0.10375	0.20537	0.19029	0.15971	0.2349	0.5206	0.23128	0.089179	-1.7938	-2.0938	-1.75	-2.3771	-1.9646	-1.8833	-2.3958	-1.8062	-2.0792	-2.1229	-1.9583	-2.3792	-2.05	-2.0417	-2.3354	-2.1667	110.776	175.328	202.530	353.653	60.432	322.988	365.872	326.487	144.373	93.999	352.008	326.795	55.398	382.516	122.587	173.985	0.0016131	0.0010089	0.00025069	694.44	8.0056e-06	7.601e-06	908.99	290.41	6.3532e-06	5.8391e-06	447.14	207.81	129.94	74.742	1.1649e-05	119.66	0.0014425	0.0014604	0.00040188	730.97	1.5649e-05	1.5976e-05	943	303.45	1.5794e-05	1.5959e-05	464.97	213.76	137.3	77.299	1.5643e-05	122.49	80.387	95.568	124.202	40.316	147.602	135.991	39.647	45.308	124.314	222.391	43.596	47.590	49.193	53.081	179.988	51.051	-8191	255	
1465.714	1	1	0	0	0.35274	0.15489	0.17084	0.15186	0.10021	0.1238	0.17722	0.079781	0.080644	0.05599	0.23587	0.07551	0.35848	0.32754	0.16535	0.2301	-1.7437	-2.1354	-1.7062	-2.2958	-1.9604	-1.7646	-2.3646	-1.9333	-2.1271	-2.1583	-2.0729	-2.2271	-2.0333	-1.8542	-2.3229	-2.1667	302.067	196.158	221.559	237.073	36.084	336.519	332.325	130.183	161.671	64.086	279.881	353.224	40.932	323.541	52.296	314.189	0.0015567	0.00093333	0.00027658	696.62	6.2989e-06	1.1441e-05	906.97	290.03	1.2213e-05	7.7108e-06	449.47	208.94	130.77	74.852	1.1531e-05	119.71	0.0014627	0.0014538	0.00039688	731.05	1.569e-05	1.6042e-05	941.27	303.34	1.586e-05	1.5998e-05	466.71	214.28	137.83	77.425	1.5552e-05	122.7	82.586	109.413	112.335	40.201	226.645	126.595	39.582	45.228	156.510	178.232	43.511	47.764	49.123	53.297	152.026	51.154	-8191	255	
1465.810	1	1	0	0	0.05158	0.35317	0.46354	0.15117	0.060875	0.070882	0.27555	0.014645	0.12335	0.21562	0.41222	0.20104	0.13514	0.28362	0.34673	0.068375	-1.4375	-2.2229	-1.7792	-2.2146	-1.9646	-1.8292	-2.4125	-1.9167	-1.9021	-2.0896	-1.9271	-2.1896	-2.1562	-1.75	-2.4354	-2.2083	352.093	131.718	77.710	371.548	317.501	121.499	309.407	259.843	247.860	204.711	343.207	380.726	343.115	43.763	107.911	370.658	0.0015421	0.0015625	0.00029038	696.02	7.5246e-06	8.5404e-06	911.99	291.2	6.4704e-06	4.0864e-06	451.41	208.97	130.25	74.86	1.0835e-05	120.08	0.0014537	0.0014455	0.00039556	730.78	1.5703e-05	1.5757e-05	944.6	303.95	1.5838e-05	1.5687e-05	466.85	214.65	137.58	77.374	1.5649e-05	122.75	84.350	91.584	143.243	40.077	124.296	122.422	39.602	44.996	156.380	138.822	43.444	47.475	49.318	53.167	190.831	51.073	-8191	255	
1465.906	1	1	0	0	0.28901	0.2095	0.10742	0.1645	0.27552	0.21717	0.20908	0.18332	0.20096	0.022539	0.26971	0.1646	0.37405	0.18665	0.086171	0.12171	-1.5125	-2.175	-1.7938	-2.1021	-2.0479	-1.8292	-2.1646	-1.9375	-1.8813	-2.3396	-1.9854	-2.1167	-2.2854	-1.8438	-2.2896	-2.3125	202.566	317.265	379.257	30.926	218.857	296.055	267.162	370.989	356.271	302.860	328.373	312.317	334.994	336.164	252.249	331.907	0.0015806	0.00047956	7.5773e-05	695.55	8.7146e-06	6.2753e-06	912.28	290.58	9.8819e-06	7.738e-06	446.5	206.86	129.12	74.53	3.0213e-06	118.79	0.0014515	0.0014434	0.00039698	731.55	1.5717e-05	1.5612e-05	943.52	303.7	1.5796e-05	1.5701e-05	464.57	212.91	136.85	77.016	1.5669e-05	121.63	85.158	117.128	266.733	40.122	102.567	99.065	39.549	45.199	100.964	205.988	43.490	47.775	49.236	53.284	308.557	51.004	-8191	255	
1466.027	1	1	0	0	0.091188	0.079931	0.063902	0.055638	0.30916	0.13987	0.22405	0.15896	0.12485	0.46301	0.20606	0.41089	0.13752	0.23124	0.11322	0.1824	-1.4833	-2.2521	-1.8813	-2.0646	-2.1479	-1.8917	-2.4	-1.8687	-1.6042	-2.3354	-2.1188	-2.1604	-2.4021	-2.0833	-2.1083	-2.4146	52.299	40.553	220.877	117.297	79.979	252.069	313.731	73.695	164.209	204.779	56.007	281.190	123.563	369.346	262.616	340.991	0.0017887	0.00088918	0.0001491	693.83	3.6337e-06	1.2581e-05	900.61	291.7	5.4619e-06	5.5752e-06	445.72	205.94	129.87	74.526	7.036e-06	118.94	0.0014336	0.0014261	0.00039709	729.82	1.5578e-05	1.5533e-05	937.7	303.3	1.5441e-05	1.5513e-05	463.72	212.28	137.09	77.1	1.5589e-05	121.87	80.384	75.075	82.632	39.932	134.006	143.361	39.905	44.757	164.812	183.257	43.379	47.954	49.208	53.349	135.157	50.891	-8191	255	
1466.123	1	1	0	0	0.037359	0.1168	0.094808	0.026963	0.1886	0.1826	0.15473	0.27214	0.23675	0.18893	0.061927	0.10958	0.13541	0.18291	0.23041	0.21006	-1.3875	-2.2687	-1.7771	-1.9542	-2.2229	-1.6333	-2.0833	-2.1583	-1.7146	-2.1875	-2.0021	-1.9521	-2.2375	-1.9125	-1.9562	-2.4062	117.763	82.201	159.389	121.415	183.858	188.674	184.352	316.798	263.768	232.368	379.794	111.160	345.475	313.786	128.818	268.489	0.001733	0.00098552	0.00043686	695.12	6.3303e-06	1.1683e-05	906.9	289.6	1.4263e-05	6.682e-06	444.86	207.22	129.71	74.856	1.1615e-05	119.55	0.0014235	0.0014307	0.00039925	728.57	1.5465e-05	1.5627e-05	939.03	303.07	1.5513e-05	1.5631e-05	464.8	213.06	136.99	77.182	1.589e-05	122.07	82.839	173.151	114.692	40.175	124.720	167.148	39.607	45.053	129.862	123.403	43.385	47.570	49.336	53.051	162.087	51.064	-8191	255	
1466.219	1	1	0	0	0.047554	0.14681	0.11376	0.13175	0.17948	0.10079	0.060787	0.26519	0.12671	0.24108	0.054759	0.35777	0.14895	0.34263	0.18929	0.043268	-1.3	-2.2646	-1.7938	-2.0167	-2.0875	-2.0375	-2.0687	-2.2146	-1.9312	-2.2646	-2.0896	-1.9083	-2.3292	-1.9729	-2	-2.2771	270.254	323.943	44.190	383.788	212.299	112.861	74.230	293.049	101.611	86.396	268.707	335.194	77.627	351.650	190.510	297.557	0.0015124	0.00079901	3.5003e-05	695.93	4.9419e-06	1.015e-05	908.17	291	1.1556e-05	9.3618e-06	448.8	207.16	130.21	74.681	1.2385e-05	119.23	0.0014204	0.0014355	0.00039954	731.09	1.5373e-05	1.5627e-05	941.64	303.78	1.5354e-05	1.5807e-05	464.98	213.14	137.06	77.096	1.5837e-05	121.96	83.554	78.516	300.271	40.148	172.233	159.074	39.671	45.036	129.762	204.014	43.667	47.685	49.368	53.169	168.929	51.013	-8191	255	
1466.314	1	1	0	0	0.12859	0.15274	0.20964	0.26375	0.11907	0.17009	0.20576	0.1477	0.25903	0.074623	0.10915	0.143	0.12831	0.25718	0.21322	0.10967	-1.2271	-1.925	-1.9438	-1.7292	-2.3438	-1.7646	-1.9188	-2.2562	-1.7167	-2.15	-2.0958	-1.7958	-2.2812	-2.0333	-1.9521	-2.4479	93.366	249.033	357.606	35.262	336.116	335.195	304.905	256.719	279.878	238.955	269.671	149.460	84.512	326.080	246.242	373.105	0.001634	0.00072475	0.00032786	695.96	1.8223e-06	2.3613e-06	902.5	289.76	1.2549e-05	9.376e-06	445.63	206.06	129.9	74.411	3.7891e-06	118.31	0.0014212	0.0014466	0.00040113	729.33	1.5273e-05	1.5727e-05	937.96	302.8	1.5419e-05	1.5774e-05	463.08	211.83	136.65	76.98	1.5662e-05	121.09	81.051	59.416	118.633	40.025	231.572	158.507	39.687	44.808	154.879	160.525	43.411	47.732	49.620	53.106	166.154	51.154	-8191	255	
1466.410	1	1	0	0	0.12636	0.11239	0.21213	0.099153	0.2608	0.23742	0.0278	0.15914	0.29456	0.13772	0.10969	0.24006	0.17702	0.24746	0.18031	0.071844	-1.4083	-1.9688	-2.1125	-1.9438	-2.3583	-2.0687	-1.9688	-2.4896	-1.7125	-2.0312	-2.3563	-1.725	-2.1375	-2.1437	-1.8875	-2.3479	365.076	275.188	198.964	232.857	57.613	155.165	385.912	303.404	131.237	267.549	237.460	381.335	33.746	384.622	65.016	284.577	0.0015202	0.00065673	8.4756e-05	695.58	9.9109e-06	8.6058e-06	902.76	290.38	6.5859e-06	7.4868e-06	445.59	206.06	129.26	74.53	2.623e-06	118.93	0.0014243	0.001443	0.0004037	729.98	1.5482e-05	1.5815e-05	937.6	303.21	1.5341e-05	1.578e-05	463.81	211.96	136.85	76.952	1.5613e-05	121.41	80.816	131.992	250.984	40.233	171.522	211.515	39.423	45.138	183.598	125.454	43.484	47.649	49.127	53.119	205.768	50.884	-8191	255	
1466.506	1	1	0	0	0.18404	0.27575	0.30523	0.12699	0.062537	0.094124	0.43093	0.10884	0.083144	0.17444	0.39215	0.31853	0.13406	0.39996	0.20459	0.5121	-1.5708	-1.9083	-2.1437	-2.1292	-2.2229	-1.9021	-2.0812	-2.5667	-1.9542	-1.9792	-2.0812	-1.7375	-2.1937	-2.0792	-1.6437	-2.5833	301.533	246.045	122.351	336.533	109.292	231.994	342.239	359.396	113.316	209.715	323.694	315.128	356.548	354.636	234.814	293.069	0.0016355	0.00049978	9.6419e-05	697.61	1.242e-05	1.3544e-05	908.51	289.93	8.4591e-06	1.997e-05	446.62	206.65	130.1	74.805	1.3248e-05	119.56	0.0014289	0.0014399	0.0003975	727.36	1.5542e-05	1.5793e-05	938.61	302.88	1.5489e-05	1.581e-05	463.36	212.14	136.99	77.186	1.5406e-05	122.09	81.683	88.851	159.321	40.127	199.213	169.762	39.554	45.081	89.115	156.578	43.426	47.680	49.170	53.107	165.576	51.061	-8191	255	
1466.627	1	1	0	0	0.096866	0.25582	0.11281	0.15138	0.33781	0.088555	0.52316	0.084131	0.23909	0.21919	0.068804	0.076663	0.069326	0.2474	0.17782	0.44852	-1.4917	-1.9396	-2.2417	-1.9042	-2.0062	-2.2167	-1.7583	-2.2062	-1.8521	-1.8792	-2.2958	-1.9917	-1.9937	-2.4188	-1.725	-2.4354	323.946	358.562	41.817	304.901	206.883	314.740	335.344	288.138	380.631	123.655	80.962	295.575	148.665	30.837	167.307	329.152	0.0015935	0.0012141	0.00033083	692.23	1.3242e-05	4.9978e-06	907.14	289.41	5.6385e-06	8.7525e-06	445.83	207.17	128.91	74.701	8.1485e-06	119.02	0.0014256	0.0014402	0.00039065	727.21	1.5532e-05	1.5856e-05	938.15	303.01	1.5599e-05	1.5734e-05	463.25	212.58	136.89	77.283	1.5428e-05	121.76	85.985	118.750	116.932	40.200	160.428	76.489	39.710	45.112	147.342	165.251	43.533	47.677	49.210	53.159	224.191	50.869	-8191	255	
1466.723	1	1	0	0	0.17639	0.2279	0.13426	0.11676	0.14363	0.084607	0.19812	0.063756	0.14959	0.088871	0.15427	0.36485	0.28299	0.1845	0.20581	0.42194	-1.4667	-1.8792	-2.1042	-1.8188	-1.9792	-2.1	-1.7125	-2.1958	-1.925	-1.8396	-2.3125	-2.0187	-2.0604	-2.3229	-1.6354	-2.25	312.726	185.686	325.575	363.182	243.571	350.438	303.181	37.294	374.522	339.139	99.353	307.543	53.729	356.660	255.898	276.224	0.0015375	0.00073673	8.7475e-05	697.12	4.2257e-06	1.5003e-05	902.25	290.29	1.5818e-05	1.0364e-05	446.49	205.76	129.62	74.467	7.5131e-06	118.19	0.0014269	0.0014151	0.00039236	729.25	1.5535e-05	1.5659e-05	935.92	302.99	1.5485e-05	1.5578e-05	462.93	211.69	136.76	77.02	1.5327e-05	121.18	79.713	94.395	110.468	39.966	178.576	180.435	39.435	45.221	149.462	182.567	43.542	47.664	49.299	53.244	145.100	51.076	-8191	255	
1466.795	1	1	0	0	0.1235	0.14983	0.17442	0.089689	0.093494	0.12085	0.22737	0.071122	0.19232	0.36446	0.19852	0.085615	0.33861	0.33648	0.15444	0.094139	-1.5917	-1.7687	-2.3083	-2.0312	-1.8646	-2.2833	-1.8729	-2.2229	-2.0979	-1.5688	-2.2938	-2.1937	-2.1562	-2.2583	-1.7625	-2.3854	318.491	228.284	148.315	183.484	241.484	217.450	287.158	150.870	152.528	163.885	68.198	387.004	303.939	347.163	379.737	305.110	0.0016737	0.0012704	0.00033042	694.48	5.2953e-06	7.9821e-06	903.47	291.47	1.6038e-06	5.6535e-06	447.27	206.63	130.67	74.782	9.6594e-06	118.67	0.0014368	0.0014237	0.00039598	728.45	1.5551e-05	1.5624e-05	936.48	303.19	1.5513e-05	1.5477e-05	463.59	212.31	137.25	77.205	1.537e-05	121.61	86.009	102.651	175.488	40.254	101.011	175.157	39.693	45.018	365.948	197.783	43.201	47.908	49.043	53.051	163.801	50.962	-8191	255	
1466.915	1	1	0	0	0.099387	0.11883	0.051334	0.21444	0.21989	0.098375	0.15524	0.16136	0.079832	0.25023	0.37922	0.19533	0.049806	0.172	0.09811	0.35102	-1.5688	-1.8354	-2.1625	-2.0938	-1.8937	-2.2812	-1.8792	-2.0938	-2.0812	-1.8375	-2.3021	-1.975	-1.9188	-2.6333	-1.5979	-2.2146	330.394	117.700	192.254	380.595	216.317	99.208	330.608	270.273	69.487	273.407	325.416	100.478	153.127	275.990	265.868	318.246	0.0015956	0.0014353	0.00037439	693.46	7.484e-06	9.1127e-06	902.95	291.21	1.2119e-05	7.0768e-06	448.57	206.98	130.46	75.248	1.7599e-05	119.37	0.0014371	0.0014105	0.00039619	728.48	1.5509e-05	1.5465e-05	937.33	303.96	1.5436e-05	1.5394e-05	464.17	213.16	137.36	77.575	1.5597e-05	122.4	84.967	128.694	171.359	40.065	188.861	125.991	39.647	44.995	153.206	120.247	43.401	47.532	49.293	53.239	177.861	50.979	-8191	255	
1467.011	1	1	0	0	0.14317	0.087266	0.28333	0.086683	0.086257	0.094984	0.19488	0.079651	0.19561	0.095458	0.227	0.099189	0.092384	0.39995	0.30215	0.23471	-1.9375	-1.6479	-2.1354	-2.2521	-1.6396	-2.3187	-2.0771	-2.0583	-2.2271	-1.9562	-2.2542	-2.275	-1.7625	-2.5208	-1.9646	-2.2042	54.412	161.984	218.047	326.555	337.354	374.014	360.019	113.501	52.928	146.186	294.188	307.430	62.173	370.051	290.838	319.153	0.0015495	0.00065218	0.00021708	693.64	1.3599e-05	9.0943e-06	911.91	291.14	9.6061e-06	9.6195e-06	447.44	207.43	129.88	74.904	4.7013e-06	119.08	0.0014451	0.001415	0.00039832	729.22	1.5533e-05	1.5602e-05	940.44	304.35	1.5409e-05	1.536e-05	465.37	212.87	137.17	77.372	1.5618e-05	121.95	79.857	73.421	145.966	40.343	182.430	198.840	39.420	45.317	161.385	182.184	43.563	47.835	49.314	53.117	140.078	51.002	-8191	255	
1467.107	1	1	0	0	0.24908	0.19486	0.25857	0.10446	0.27177	0.1226	0.35467	0.21242	0.048508	0.135	0.049369	0.1897	0.19319	0.15559	0.13132	0.23759	-1.6771	-1.7938	-2.2438	-2.1458	-1.7062	-2.1937	-2.1312	-2.0687	-2.2396	-1.7812	-2.2125	-2.3563	-1.9021	-2.3937	-1.8271	-2.2313	378.425	160.425	234.093	233.663	251.933	208.280	310.676	294.198	237.822	117.790	299.694	344.494	221.302	274.576	148.851	338.060	0.0014277	0.00034488	0.00023834	696.97	1.025e-05	9.1318e-06	903.91	292.29	7.2961e-06	3.7036e-06	446.1	206.68	130.2	74.695	1.0331e-05	118.8	0.0014192	0.0014154	0.00040109	728.91	1.5304e-05	1.5632e-05	936.77	304.08	1.542e-05	1.5513e-05	463.77	212.2	136.73	77.271	1.5698e-05	121.62	78.502	81.315	187.772	40.293	140.519	231.706	39.518	44.885	169.698	222.401	43.366	47.631	49.351	53.227	209.715	50.986	-8191	255	
1467.204	1	1	0	0	0.12898	0.1	0.34231	0.092529	0.099976	0.028541	0.24521	0.16911	0.14505	0.20607	0.21726	0.22323	0.20064	0.23117	0.17247	0.19033	-1.8521	-1.7417	-2.2167	-2.0979	-1.4188	-2.0729	-2.1979	-1.8	-2.2479	-1.9271	-1.8792	-2.425	-1.725	-2.2958	-1.9458	-1.9854	327.999	318.616	279.279	379.124	281.310	51.171	305.204	305.862	95.101	371.176	206.218	306.659	384.989	365.350	366.064	351.441	0.0014157	0.00085827	0.000366	695.66	1.3214e-05	9.1618e-06	900.96	291.36	7.0529e-06	5.212e-06	446.94	206.7	129.96	74.869	1.1298e-05	119.16	0.0014046	0.0014296	0.00040012	728.41	1.5318e-05	1.5689e-05	936.61	303.46	1.5469e-05	1.5795e-05	464.74	212.44	137.18	77.402	1.5683e-05	122.1	81.591	124.238	174.997	40.257	164.756	162.147	39.514	45.035	73.518	167.211	43.379	47.652	49.342	53.197	197.640	50.978	-8191	255	
1467.300	1	1	0	0	0.18141	0.22569	0.063834	0.074616	0.050082	0.073211	0.11631	0.050217	0.22914	0.1657	0.13833	0.14875	0.19711	0.34648	0.28382	0.13579	-1.7646	-1.7042	-2	-2.4104	-1.675	-2.2208	-2.1917	-1.8875	-2.2104	-2.1042	-2.1958	-2.4292	-2.0062	-2.3208	-2.0458	-1.9708	377.832	202.271	172.118	122.835	212.477	232.053	346.415	354.912	54.055	377.985	42.320	373.977	331.270	291.825	257.914	290.205	0.0015551	0.00031409	0.00041451	693.95	4.8524e-06	1.0365e-05	906.98	291.13	8.6357e-06	8.9875e-06	447.92	208.42	130.71	74.872	1.7735e-05	120.06	0.0014196	0.0014316	0.00040241	730.01	1.525e-05	1.5732e-05	940.17	304.41	1.5504e-05	1.5677e-05	466	213.54	137.48	77.583	1.5749e-05	122.63	84.340	65.954	110.605	39.801	160.035	215.912	39.657	45.140	72.948	181.840	43.773	47.815	49.532	53.118	185.438	51.153	-8191	255	
1467.419	1	1	0	0	0.11395	0.042669	0.12897	0.411	0.32429	0.25319	0.44524	0.235	0.26102	0.17337	0.20229	0.29602	0.10003	0.28009	0.35707	0.18865	-2.0917	-1.9521	-1.8479	-2.4271	-1.7583	-2.175	-2.3917	-1.9875	-2.1229	-1.8208	-2.1875	-2.4646	-1.85	-2.2583	-2.0833	-1.8563	46.558	126.114	69.088	353.946	373.466	347.059	273.327	293.713	376.019	357.853	332.251	318.621	114.302	377.221	222.648	359.722	0.0015517	0.00038264	0.00019275	696.91	8.8623e-06	6.4486e-06	909.18	291.38	7.9589e-06	7.6361e-06	449.76	207.78	130.43	74.844	8.7416e-06	119.5	0.0014345	0.0014456	0.00040006	731.36	1.5356e-05	1.5908e-05	943.17	305.33	1.56e-05	1.5755e-05	466.94	213.56	137.69	77.476	1.5589e-05	122.22	81.030	120.147	182.712	40.151	173.063	149.125	39.503	45.132	67.101	171.580	43.217	47.823	49.394	53.128	174.410	51.011	-8191	255	
#DATA ENDS
