BOXY.EXE: ISS Imagent and Oximeter Data Acquisition Program Version 0.80
Ascii Record File

#ACQ INFORMATION
2  Detector Channels 
16  External MUX Channels 
1  Auxiliary Channels 
5000  Waveform (CCF) Frequency (Hz)
1  Waveforms Skipped 
30  Waveforms Averaged 
1  Cycles Averaged 
16  Acquisitions per Waveform 
10.0806  Updata Rate (Hz) 

#FILE INFORMATION
TRUE -- External MUX Channel results are PARSED.
FALSE -- AC DC and Phase are NOT grouped.
TRUE -- Companion Program Settings File CREATED.
FALSE -- AC data not excluded
FALSE -- DC data not excluded
FALSE -- Phase data not excluded
FALSE -- Auxillary Chn. data not excluded
Tab delimiters

#CALIBRATION STATE
TRUE -- Waveform Calibration Values APPLIED.


#AUX CALIBRATION VALUES
Val Type	aux-1	

Term	1.0000e+00	
Factor	0.0000e+00	


#WF CALIBRATION VALUES
A = Detector Channel
Val Type	A-AC1	A-AC2	A-AC3	A-AC4	A-AC5	A-AC6	A-AC7	A-AC8	A-AC9	A-AC10	A-AC11	A-AC12	A-AC13	A-AC14	A-AC15	A-AC16	A-DC1	A-DC2	A-DC3	A-DC4	A-DC5	A-DC6	A-DC7	A-DC8	A-DC9	A-DC10	A-DC11	A-DC12	A-DC13	A-DC14	A-DC15	A-DC16	A-Ph1	A-Ph2	A-Ph3	A-Ph4	A-Ph5	A-Ph6	A-Ph7	A-Ph8	A-Ph9	A-Ph10	A-Ph11	A-Ph12	A-Ph13	A-Ph14	A-Ph15	A-Ph16	

Term	0.00000e+00	0.00000e+00	0.00000e+00	0.00000e+00	0.00000e+00	0.00000e+00	0.00000e+00	0.00000e+00	0.00000e+00	0.00000e+00	0.00000e+00	0.00000e+00	0.00000e+00	0.00000e+00	0.00000e+00	0.00000e+00	0.00000e+00	0.00000e+00	0.00000e+00	0.00000e+00	0.00000e+00	0.00000e+00	0.00000e+00	0.00000e+00	0.00000e+00	0.00000e+00	0.00000e+00	0.00000e+00	0.00000e+00	0.00000e+00	0.00000e+00	0.00000e+00	0.00000e+00	0.00000e+00	0.00000e+00	0.00000e+00	0.00000e+00	0.00000e+00	0.00000e+00	0.00000e+00	0.00000e+00	0.00000e+00	0.00000e+00	0.00000e+00	0.00000e+00	0.00000e+00	0.00000e+00	0.00000e+00	
Factor	1.00000e+00	1.00000e+00	1.00000e+00	1.00000e+00	1.00000e+00	1.00000e+00	1.00000e+00	1.00000e+00	1.00000e+00	1.00000e+00	1.00000e+00	1.00000e+00	1.00000e+00	1.00000e+00	1.00000e+00	1.00000e+00	1.00000e+00	1.00000e+00	1.00000e+00	1.00000e+00	1.00000e+00	1.00000e+00	1.00000e+00	1.00000e+00	1.00000e+00	1.00000e+00	1.00000e+00	1.00000e+00	1.00000e+00	1.00000e+00	1.00000e+00	1.00000e+00	X	X	X	X	X	X	X	X	X	X	X	X	X	X	X	X	

B = Detector Channel
Val Type	B-AC1	B-AC2	B-AC3	B-AC4	B-AC5	B-AC6	B-AC7	B-AC8	B-AC9	B-AC10	B-AC11	B-AC12	B-AC13	B-AC14	B-AC15	B-AC16	B-DC1	B-DC2	B-DC3	B-DC4	B-DC5	B-DC6	B-DC7	B-DC8	B-DC9	B-DC10	B-DC11	B-DC12	B-DC13	B-DC14	B-DC15	B-DC16	B-Ph1	B-Ph2	B-Ph3	B-Ph4	B-Ph5	B-Ph6	B-Ph7	B-Ph8	B-Ph9	B-Ph10	B-Ph11	B-Ph12	B-Ph13	B-Ph14	B-Ph15	B-Ph16	

Term	0.00000e+00	0.00000e+00	0.00000e+00	0.00000e+00	0.00000e+00	0.00000e+00	0.00000e+00	0.00000e+00	0.00000e+00	0.00000e+00	0.00000e+00	0.00000e+00	0.00000e+00	0.00000e+00	0.00000e+00	0.00000e+00	0.00000e+00	0.00000e+00	0.00000e+00	0.00000e+00	0.00000e+00	0.00000e+00	0.00000e+00	0.00000e+00	0.00000e+00	0.00000e+00	0.00000e+00	0.00000e+00	0.00000e+00	0.00000e+00	0.00000e+00	0.00000e+00	-1.94344e+02	-1.48674e+02	-1.07227e+02	-1.84987e+02	-9.08407e+01	-7.85829e+01	-1.57988e+02	-1.62015e+02	-1.11268e+02	-7.23283e+01	-1.72886e+02	-1.71881e+02	-1.86190e+02	-1.78141e+02	-8.04851e+01	-1.51352e+02	
Factor	3.67444e-05	1.62840e-04	4.87540e-05	1.57284e-01	1.62940e-06	1.66336e-06	1.76798e-01	5.88739e-02	1.65447e-06	1.74198e-06	9.00523e-02	2.90411e-02	3.90052e-02	9.40174e-03	1.81285e-06	1.35102e-02	2.66912e-06	2.86867e-06	7.96089e-07	8.04055e-02	3.10196e-08	3.14591e-08	8.49095e-02	3.00481e-02	3.10529e-08	3.13860e-08	4.43970e-02	1.43626e-02	1.94229e-02	4.81836e-03	3.11608e-08	6.69425e-03	X	X	X	X	X	X	X	X	X	X	X	X	X	X	X	X	



#DISTANCE SETTINGS
A = Detector Channel
A-1	A-2	A-3	A-4	A-5	A-6	A-7	A-8	A-9	A-10	A-11	A-12	A-13	A-14	A-15	A-16	

2.5000e+00	3.0000e+00	2.5000e+00	3.0000e+00	2.0000e+00	3.0000e+00	1.5000e+00	3.0000e+00	3.0000e+00	3.0000e+00	3.0000e+00	3.0000e+00	3.0000e+00	3.0000e+00	1.5000e+00	3.0000e+00	

B = Detector Channel
B-1	B-2	B-3	B-4	B-5	B-6	B-7	B-8	B-9	B-10	B-11	B-12	B-13	B-14	B-15	B-16	

1.0000e+01	1.0000e+01	1.0000e+01	1.4400e+00	1.0000e+01	1.0000e+01	1.5100e+00	1.9400e+00	1.0000e+01	1.0000e+01	1.9900e+00	2.4900e+00	2.4100e+00	2.9000e+00	1.0000e+01	2.9800e+00	




#DATA BEGINS
time	group	step	mark	flag	A-AC1	A-AC2	A-AC3	A-AC4	A-AC5	A-AC6	A-AC7	A-AC8	A-AC9	A-AC10	A-AC11	A-AC12	A-AC13	A-AC14	A-AC15	A-AC16	A-DC1	A-DC2	A-DC3	A-DC4	A-DC5	A-DC6	A-DC7	A-DC8	A-DC9	A-DC10	A-DC11	A-DC12	A-DC13	A-DC14	A-DC15	A-DC16	A-Ph1	A-Ph2	A-Ph3	A-Ph4	A-Ph5	A-Ph6	A-Ph7	A-Ph8	A-Ph9	A-Ph10	A-Ph11	A-Ph12	A-Ph13	A-Ph14	A-Ph15	A-Ph16	B-AC1	B-AC2	B-AC3	B-AC4	B-AC5	B-AC6	B-AC7	B-AC8	B-AC9	B-AC10	B-AC11	B-AC12	B-AC13	B-AC14	B-AC15	B-AC16	B-DC1	B-DC2	B-DC3	B-DC4	B-DC5	B-DC6	B-DC7	B-DC8	B-DC9	B-DC10	B-DC11	B-DC12	B-DC13	B-DC14	B-DC15	B-DC16	B-Ph1	B-Ph2	B-Ph3	B-Ph4	B-Ph5	B-Ph6	B-Ph7	B-Ph8	B-Ph9	B-Ph10	B-Ph11	B-Ph12	B-Ph13	B-Ph14	B-Ph15	B-Ph16	aux-1	digaux	

1149.833	1	1	0	256	0.13281	0.23426	0.1811	0.049115	0.12546	0.19673	0.068094	0.14168	0.31148	0.30571	0.21003	0.15567	0.12419	0.3085	0.098318	0.099888	-1.8125	-2.0438	-1.7021	-2.3354	-1.9771	-1.8667	-2.45	-2.0187	-1.9333	-2.1083	-1.8375	-2.3937	-2.075	-2.0312	-2.3021	-2.1083	391.641	431.676	191.825	157.458	221.597	452.363	132.133	332.400	306.050	475.969	409.228	367.329	249.945	124.246	296.804	466.487	0.0011259	0.00039347	0.00015621	507.17	3.1626e-06	3.7913e-06	581.61	187.97	2.1926e-06	7.3492e-06	249.76	119.99	90.349	43.642	7.9071e-06	55.867	0.00094936	0.00094793	0.00026304	547.82	1.0245e-05	1.0405e-05	623.64	203.26	1.0369e-05	1.0403e-05	269.99	127.33	97.798	46.802	1.0279e-05	59.897	476.990	156.441	267.847	135.943	197.161	322.955	135.138	141.432	177.476	231.631	140.207	143.132	144.986	148.281	277.076	145.547	-8191	255	
1149.953	1	1	0	0	0.29809	0.15189	0.080023	0.077388	0.18283	0.41397	0.17519	0.13589	0.16086	0.092869	0.33331	0.17849	0.18793	0.43416	0.12205	0.13453	-1.6083	-2.2458	-1.7625	-2.075	-2.2354	-1.7729	-2.2979	-2.2292	-2.0625	-2.2417	-1.8813	-2.4188	-2.2417	-1.8958	-2.2438	-2.0896	241.614	430.597	476.958	185.145	417.582	266.598	427.728	400.963	197.453	429.676	413.509	421.416	462.169	479.323	334.854	202.056	0.0012625	0.00017581	5.8803e-05	509.18	5.2907e-06	6.6384e-06	585.63	189.62	8.0595e-06	3.3921e-06	250.76	120.59	91.046	43.648	9.134e-06	56.285	0.00093592	0.00094094	0.00026114	550.32	1.0197e-05	1.0263e-05	628.03	204.88	1.0226e-05	1.0338e-05	271.42	128.34	98.231	46.995	1.014e-05	60.297	474.093	275.409	377.841	135.979	181.821	210.036	135.105	141.896	205.796	311.714	140.005	142.941	145.057	148.379	246.468	145.657	-8191	255	
1150.049	1	1	0	0	0.22574	0.25848	0.20402	0.19877	0.11122	0.097012	0.19979	0.015754	0.22828	0.1413	0.16748	0.12197	0.11502	0.013669	0.27433	0.15562	-1.6396	-2.3	-1.6833	-2.2396	-2.1271	-2.0042	-2.2979	-2.2	-1.8354	-2.5208	-1.9208	-2.2812	-2.1396	-1.7583	-2.2479	-2.2125	194.515	460.920	471.845	366.328	303.036	211.194	416.234	478.332	370.756	356.905	223.549	158.613	356.539	284.875	326.824	448.851	0.00126	0.00032846	5.1065e-05	510.32	2.9677e-06	2.6163e-06	589.42	190.79	8.5121e-06	6.9676e-06	251.6	122.37	91.471	43.963	4.4186e-06	56.266	0.00093568	0.00092718	0.00025772	549.41	1.0062e-05	1.0189e-05	630.74	205.49	1.0199e-05	1.0285e-05	272.6	129.4	98.648	47.276	1.0335e-05	60.474	475.778	420.888	166.861	136.228	272.996	184.811	135.327	141.822	227.288	282.109	139.860	142.792	144.979	148.314	239.142	145.857	-8191	255	
1150.146	1	1	0	0	0.15216	0.092849	0.19205	0.13087	0.16179	0.25923	0.19879	0.12531	0.29146	0.040431	0.10985	0.1459	0.12873	0.24506	0.10645	0.30061	-1.4604	-2.3896	-1.9333	-2.2792	-2.1271	-1.8021	-2.3625	-1.7917	-1.7229	-2.3292	-2.0812	-2.1437	-2.2625	-1.8104	-2.1312	-2.0563	247.534	476.840	409.751	293.901	225.874	357.507	129.292	238.594	190.770	133.190	373.362	440.230	166.096	437.095	316.086	475.814	0.0011208	0.00080988	0.00012852	510.65	9.669e-07	6.2298e-06	588.25	191.32	6.3345e-06	5.9128e-06	252.19	121.24	91.531	44.174	4.8214e-06	56.379	0.00094242	0.00093263	0.00026051	551.19	1.0148e-05	1.0196e-05	631.19	205.71	1.0169e-05	1.0226e-05	272.96	129.27	98.796	47.423	1.0308e-05	60.382	480.238	220.141	149.503	135.853	443.417	257.978	135.357	141.971	282.502	231.090	140.145	142.965	144.806	148.327	228.621	145.861	-8191	255	
1150.242	1	1	0	0	0.28125	0.22762	0.040045	0.23624	0.25422	0.13103	0.27797	0.4751	0.12339	0.25731	0.19589	0.21742	0.13066	0.29354	0.24355	0.18655	-1.3708	-2.5021	-1.8896	-2.1083	-2.0833	-1.7938	-2.3333	-2.1917	-1.7313	-2.2833	-2.2271	-2.0521	-2.3354	-1.9833	-2.1688	-2.3542	227.861	295.882	380.472	426.663	356.521	341.561	404.810	451.898	300.094	433.817	400.536	478.935	214.314	473.736	397.143	277.720	0.0012078	0.00036786	0.00013477	507.31	9.9288e-06	8.1164e-06	584.41	188.88	1.0774e-05	5.4095e-06	251.8	121.6	91.263	44.277	2.6579e-06	56.581	0.00093894	0.00093551	0.00025865	547.89	1.0093e-05	1.0158e-05	625.96	204.39	1.0106e-05	1.0226e-05	271.52	129.69	98.862	47.439	1.0161e-05	60.426	474.306	153.658	244.837	136.156	229.479	306.800	135.103	141.690	265.268	273.272	140.174	143.207	144.883	148.241	240.816	145.791	-8191	255	
1150.338	1	1	0	0	0.12665	0.297	0.12132	0.13002	0.11534	0.23616	0.066818	0.19419	0.10417	0.13876	0.13764	0.14161	0.35852	0.23464	0.19024	0.26262	-1.4312	-2.1542	-2.0667	-2.0729	-2.3312	-1.9208	-2.0563	-2.2604	-1.7771	-2.3896	-2.1875	-2.1562	-2.2271	-2.0229	-2.1021	-2.4	404.146	418.309	363.297	247.890	135.795	158.237	148.365	376.628	299.735	395.273	340.729	476.064	326.672	481.849	292.461	357.240	0.0012254	0.00029388	8.9053e-05	507.01	8.8081e-06	2.8238e-06	586.56	189.81	4.4427e-06	1.8451e-06	252.52	121.4	91.024	43.926	1.0274e-05	56.469	0.0009299	0.00093343	0.00026007	548.6	1.0218e-05	1.0262e-05	629.3	204.95	1.0178e-05	1.0281e-05	273.07	129.02	98.698	47.371	1.0317e-05	60.733	479.475	464.228	238.709	136.039	215.079	237.671	135.265	142.017	201.623	155.722	140.127	143.013	145.191	148.296	291.150	145.653	-8191	255	
1150.434	1	1	0	0	0.30383	0.13626	0.31964	0.084466	0.053373	0.075604	0.31742	0.24021	0.1849	0.19276	0.28843	0.46654	0.14243	0.080318	0.085887	0.17481	-1.35	-2.15	-2.0229	-1.925	-2.175	-2.1229	-2.0958	-2.3917	-1.8875	-2.3063	-2.1792	-2.075	-2.3542	-2.0958	-2.1542	-2.4521	239.297	270.403	146.405	419.594	423.606	166.801	443.252	435.425	366.915	456.371	404.953	147.145	280.316	396.989	461.234	395.146	0.0014575	0.0006009	0.00019314	511.53	5.1071e-06	1.1141e-06	590.17	191.25	6.2132e-06	1.186e-05	254.07	121.95	91.283	44.354	8.0744e-06	57.049	0.00093831	0.00094118	0.00026011	551.87	1.022e-05	1.0314e-05	633.88	206.69	1.0265e-05	1.0443e-05	275.45	129.76	99.06	47.645	1.0478e-05	60.974	473.304	166.324	245.056	136.298	211.214	200.182	135.060	142.072	278.324	324.773	140.020	142.839	144.848	148.296	257.114	145.859	-8191	255	
1150.553	1	1	0	0	0.10331	0.10177	0.092345	0.13689	0.088848	0.12425	0.22069	0.012868	0.3366	0.12523	0.10501	0.087852	0.15122	0.3045	0.27868	0.019108	-1.3438	-2.0979	-2.1896	-1.7958	-2.3937	-1.9646	-2.0208	-2.4292	-1.6896	-2.0542	-2.2333	-2.0271	-2.3521	-2.2708	-1.925	-2.4479	437.327	201.478	452.661	139.305	313.662	372.981	409.549	479.693	344.768	176.459	357.970	271.241	385.418	463.119	449.086	298.820	0.0012966	0.00063725	0.00010695	512.76	5.1699e-06	7.1191e-06	593.39	191.81	4.6715e-06	7.1427e-06	254.44	122.39	91.651	44.41	1.1617e-05	56.745	0.00095875	0.0009666	0.00026573	553.37	1.035e-05	1.0448e-05	635.55	207.06	1.0338e-05	1.0467e-05	275.93	130.25	99.229	47.681	1.033e-05	60.873	479.926	205.544	228.985	136.133	233.677	222.795	135.304	141.921	206.797	228.994	139.907	142.927	145.015	148.528	281.616	145.952	-8191	255	
1150.649	1	1	0	0	0.081684	0.11651	0.10969	0.13703	0.22003	0.19691	0.03482	0.32253	0.22323	0.1535	0.20814	0.30783	0.16533	0.12312	0.16291	0.13957	-1.5833	-2.0271	-2.2083	-1.8708	-2.3771	-2.15	-1.9062	-2.3896	-1.7292	-2.0438	-2.1646	-1.9167	-2.3208	-2.3312	-1.7687	-2.575	276.629	361.111	276.703	420.096	404.505	296.464	371.814	387.239	189.824	376.142	364.828	438.787	173.511	438.616	466.198	459.674	0.0014321	0.0002362	0.00021407	514.23	6.9786e-06	4.8564e-06	588.3	191.5	1.1329e-05	3.9706e-06	254.6	122.25	91.599	44.472	1.0521e-05	56.822	0.00094969	0.0009475	0.0002664	553.89	1.0384e-05	1.0398e-05	631.76	206.76	1.0253e-05	1.0415e-05	275.56	129.78	99.001	47.802	1.0347e-05	61.022	473.553	444.677	182.101	136.169	261.716	231.777	135.364	142.059	271.001	275.432	140.047	143.030	144.745	148.389	279.976	145.952	-8191	255	
1150.745	1	1	0	0	0.10018	0.034155	0.098502	0.16221	0.142	0.096299	0.15409	0.32762	0.060332	0.19	0.10034	0.16945	0.1395	0.32144	0.35223	0.26965	-1.5688	-2.0771	-2.35	-1.7313	-2.2562	-2.0583	-2.0042	-2.4083	-1.9583	-1.9458	-2.4229	-1.9125	-2.1979	-2.3708	-1.9438	-2.5833	279.037	381.230	324.901	436.624	364.896	325.893	131.989	472.369	406.407	347.620	169.441	128.749	345.550	453.952	479.439	131.479	0.0013782	5.5946e-05	0.00017437	513.24	3.491e-06	2.4136e-06	594.34	192.39	5.9898e-06	7.2899e-06	255.28	122.05	91.605	44.371	2.3151e-06	56.989	0.00094152	0.00095839	0.00026397	552.57	1.0344e-05	1.0456e-05	635.06	207.47	1.0264e-05	1.0391e-05	276.15	129.91	99.192	47.764	1.0358e-05	61.233	475.556	137.146	251.859	136.204	257.932	231.056	135.285	141.976	242.267	280.893	139.974	142.824	145.245	148.617	288.222	145.934	-8191	255	
1150.841	1	1	0	0	0.12149	0.27025	0.15899	0.17092	0.17422	0.098343	0.52616	0.16047	0.28174	0.20721	0.17087	0.097204	0.25702	0.31367	0.39598	0.2405	-1.5021	-2.0563	-2.2938	-1.9479	-2.0979	-2.0312	-1.8167	-2.4521	-2.1125	-2.1063	-2.4813	-1.8833	-2.1437	-2.4813	-1.8583	-2.5438	450.667	359.649	451.736	150.339	340.254	435.098	418.171	370.981	267.096	267.789	409.321	403.355	476.232	465.057	198.667	287.211	0.0013193	0.00018862	5.9594e-05	514.77	6.2006e-06	7.9555e-07	592.84	192.39	8.1613e-06	2.7784e-06	255.57	122.62	91.997	44.458	3.3609e-06	56.988	0.00094369	0.00094732	0.00026225	553.31	1.0251e-05	1.0402e-05	636.87	207.51	1.0276e-05	1.0361e-05	277.02	130.25	99.377	47.721	1.0352e-05	61.208	478.536	246.726	175.989	136.008	257.988	206.445	135.157	141.676	217.087	240.827	140.089	143.148	144.898	148.683	161.187	146.070	-8191	255	
1150.938	1	1	0	0	0.10788	0.2116	0.29305	0.14597	0.21734	0.19102	0.13435	0.18261	0.26993	0.1862	0.0095492	0.20322	0.10088	0.084856	0.10877	0.26105	-1.8937	-1.8396	-2.4813	-2.0021	-2.2313	-2.2729	-1.8687	-2.3542	-2.15	-1.8771	-2.3729	-2.1437	-2.0812	-2.5375	-1.9333	-2.3625	461.899	266.151	262.748	417.629	205.602	422.726	371.915	419.500	437.298	194.750	473.984	440.251	172.855	194.888	231.459	441.723	0.001276	0.0010454	8.7244e-05	511	2.8575e-06	4.2407e-06	594.09	191.95	8.4324e-06	7.926e-07	256.49	122.53	91.449	44.536	1.8677e-06	57.044	0.00095125	0.00095356	0.00026368	552.71	1.0294e-05	1.0454e-05	637.69	206.98	1.0174e-05	1.0289e-05	276.92	130.48	99.268	47.923	1.0264e-05	61.239	479.428	221.283	207.683	136.247	473.145	292.146	135.280	141.793	231.272	216.704	140.244	143.005	145.400	148.467	175.539	146.012	-8191	255	
1151.034	1	1	0	0	0.14321	0.067729	0.23587	0.26373	0.036215	0.11259	0.13259	0.26034	0.14179	0.048846	0.22184	0.33574	0.22055	0.13245	0.074816	0.1578	-1.6854	-2.0917	-2.3312	-2.15	-1.9708	-2.1667	-1.9875	-2.325	-2.1188	-1.95	-2.2104	-2.1521	-1.9479	-2.4146	-1.9458	-2.3146	207.796	247.527	325.378	142.678	448.396	144.266	447.785	163.166	390.886	281.252	185.345	401.768	382.532	137.692	393.466	455.483	0.0012285	0.0011596	6.5821e-05	510.73	5.3976e-06	4.9857e-06	590.24	192.1	6.3487e-06	4.5424e-06	255.97	122.54	92.25	44.859	2.5328e-06	56.886	0.00095726	0.00094851	0.00026457	551.84	1.0353e-05	1.0442e-05	633	207.52	1.0286e-05	1.0392e-05	276.4	130.32	99.442	48.079	1.0357e-05	61.265	475.493	184.192	278.925	136.388	249.111	283.750	135.237	141.750	298.806	258.480	139.909	143.201	145.091	148.622	188.396	145.915	-8191	255	
1151.130	1	1	0	0	0.092007	0.15643	0.31109	0.25144	0.17754	0.2165	0.26902	0.38391	0.090808	0.16252	0.079194	0.28362	0.23508	0.13323	0.22987	0.1141	-1.9833	-1.75	-2.1646	-1.9625	-2.1	-2.4646	-2.1521	-2.325	-2.1896	-1.8937	-2.3312	-2.1208	-1.8917	-2.4208	-2.0646	-2.0646	216.585	275.790	323.514	209.588	423.261	410.900	478.906	418.868	457.869	407.829	326.858	432.303	236.845	273.984	355.317	186.053	0.0012289	0.00042325	0.0002911	513.25	2.6984e-06	4.1881e-06	592.11	192.27	3.6986e-06	1.4147e-06	257.61	122.87	92.351	44.597	5.8928e-06	57.41	0.00095007	0.00095168	0.00026631	553.15	1.0327e-05	1.0392e-05	635.05	207.51	1.0316e-05	1.0472e-05	277.79	130.61	99.674	48.091	1.0427e-05	61.676	473.745	299.901	225.980	136.298	253.049	276.099	135.201	141.834	204.824	216.049	139.881	142.961	144.944	148.673	266.286	146.082	-8191	255	
1151.250	1	1	0	0	0.333	0.15688	0.1105	0.34648	0.2348	0.087627	0.21304	0.21773	0.052187	0.11191	0.24407	0.25712	0.18241	0.27291	0.12925	0.19588	-1.7958	-1.7396	-2.1	-2.0958	-1.8563	-2.4104	-2.0812	-1.9333	-2.3875	-1.8625	-2.3583	-2.2271	-2.0167	-2.3833	-2.1917	-1.9271	347.231	349.575	147.242	415.604	199.116	195.726	360.913	400.471	384.750	315.293	372.733	442.217	205.723	461.383	264.084	478.538	0.0012628	0.00052687	0.00015986	515.05	8.4497e-06	4.8461e-06	596.85	194.09	5.3162e-06	3.4653e-06	259.25	123.34	92.791	45.419	4.9518e-06	57.974	0.00096068	0.00095756	0.00026773	555.93	1.0426e-05	1.0547e-05	638.4	209.32	1.0622e-05	1.0571e-05	280.01	131.63	100.41	48.695	1.0575e-05	62.123	474.158	152.461	232.618	136.198	253.892	269.338	135.616	141.738	254.670	291.050	140.049	142.875	145.199	148.420	249.527	145.940	-8191	255	
1151.345	1	1	0	0	0.28878	0.15294	0.035086	0.17055	0.15026	0.2517	0.16845	0.2409	0.3517	0.10951	0.24113	0.06057	0.033517	0.23898	0.18234	0.079831	-1.9167	-1.7583	-2.0854	-2.3167	-1.775	-2.4979	-2.3187	-2.0979	-2.3271	-1.8813	-2.2083	-2.1667	-1.8333	-2.3729	-1.9333	-1.9438	342.247	305.846	283.733	442.460	359.794	438.162	390.549	424.716	353.526	235.268	366.687	418.902	143.697	152.785	346.418	201.847	0.0012682	0.00077698	0.00014714	515.84	5.7466e-06	9.0102e-06	597.84	193.7	1.1592e-05	5.1663e-06	257.52	123.82	93.163	45.229	3.6603e-06	57.694	0.00096682	0.00097174	0.00026971	556.64	1.0462e-05	1.0634e-05	640.34	209.56	1.0489e-05	1.057e-05	279.37	131.69	100.46	48.589	1.0544e-05	61.805	479.655	169.897	275.527	136.132	216.141	359.696	135.514	141.926	200.833	275.388	139.995	143.133	144.968	148.527	148.722	145.923	-8191	255	
1151.441	1	1	0	0	0.1974	0.21056	0.16637	0.21694	0.23823	0.16988	0.10176	0.15074	0.18147	0.13668	0.25964	0.17985	0.30189	0.10561	0.34781	0.1936	-1.9958	-1.9375	-2.025	-2.3958	-1.9667	-2.275	-2.4271	-1.9688	-2.4896	-1.8271	-2.1125	-2.2417	-1.7	-2.075	-2.2604	-1.9292	447.342	466.812	162.436	469.516	308.801	178.309	479.207	150.764	204.046	274.604	192.996	476.985	151.077	151.496	452.175	415.729	0.0012834	0.00086222	9.7184e-05	513	4.1475e-06	1.202e-06	590.91	192.04	3.503e-06	5.724e-06	256.59	123.49	92.694	45.107	1.2087e-05	57.534	0.00097307	0.00096879	0.00026603	554.18	1.0393e-05	1.0614e-05	634.28	208.01	1.05e-05	1.0481e-05	277.5	131.62	100.31	48.59	1.049e-05	61.835	473.683	208.209	205.922	136.333	234.139	393.637	135.411	141.743	191.034	263.862	140.057	143.042	145.129	148.568	250.946	145.892	-8191	255	
1151.514	1	1	0	0	0.29355	0.20197	0.33578	0.2782	0.094559	0.12066	0.3131	0.24345	0.13553	0.08984	0.27906	0.19059	0.15125	0.18229	0.20519	0.2368	-2.0021	-2.1854	-1.9646	-2.5354	-1.8188	-2.175	-2.1271	-2.0229	-2.35	-2.0354	-2.1271	-2.3187	-1.8917	-2.2083	-2.1667	-2	191.796	144.870	278.458	465.429	448.823	149.754	386.161	470.503	261.982	198.246	130.871	425.839	389.051	197.007	262.142	451.943	0.0013335	0.00029601	0.00011645	512.67	9.007e-06	9.7883e-06	592.7	194.94	5.5713e-06	4.6058e-06	257.81	124.47	93.886	45.727	8.3104e-06	58.245	0.00096698	0.00096311	0.00026849	554.36	1.0454e-05	1.0635e-05	636.27	209.41	1.0476e-05	1.0558e-05	279.37	132.17	100.85	49.167	1.0535e-05	62.676	476.202	475.586	294.345	136.285	285.266	276.668	135.323	141.744	252.645	282.704	139.899	143.050	145.120	148.658	227.543	145.888	-8191	255	
1151.633	1	1	0	0	0.12447	0.14036	0.29493	0.095378	0.11273	0.20102	0.1706	0.15924	0.40095	0.21879	0.16869	0.12129	0.22547	0.22703	0.25614	0.2839	-1.8479	-1.9833	-1.8563	-2.4021	-1.8687	-2.2417	-2.3708	-1.8292	-2.2687	-2.0333	-2.0438	-2.4437	-1.9062	-2.1979	-2.25	-1.9813	286.057	408.906	192.778	333.681	400.479	255.161	166.350	139.977	340.198	308.183	403.228	182.536	189.985	434.699	230.027	426.664	0.0013414	0.00063197	1.5351e-05	515.33	4.2541e-06	8.9957e-06	596	194.63	5.0362e-06	9.9815e-06	260.45	125.17	93.643	45.736	8.657e-06	58.37	0.00097456	0.00097082	0.00027034	557.5	1.0504e-05	1.0726e-05	639.24	210.37	1.0607e-05	1.0718e-05	281.5	133.01	101.31	49.097	1.0559e-05	62.525	473.933	263.376	223.655	136.274	233.499	275.780	135.430	141.967	232.357	300.620	140.014	143.111	144.998	148.449	302.616	146.072	-8191	255	
1151.729	1	1	0	0	0.079797	0.11764	0.12555	0.15471	0.443	0.22202	0.10342	0.32358	0.12917	0.097152	0.13831	0.16793	0.38514	0.12911	0.27162	0.20637	-1.8229	-2.0729	-1.9312	-2.5438	-1.9208	-2.1063	-2.3438	-1.9083	-2.1646	-2.1063	-1.9667	-2.4854	-1.8687	-2.0542	-2.2917	-1.9188	464.421	354.786	291.438	191.429	296.098	453.655	468.891	478.319	187.755	405.893	441.622	139.040	150.410	240.262	371.270	339.602	0.0013285	0.0004245	0.00020425	513.65	3.6772e-06	7.0024e-06	600.33	195.26	2.9948e-06	7.5055e-06	259.14	125.32	93.233	45.495	6.1481e-06	58.173	0.00097268	0.00097113	0.0002704	555.93	1.0497e-05	1.075e-05	641.11	210.69	1.0505e-05	1.0672e-05	280.54	133.24	101.16	48.99	1.0587e-05	62.312	481.230	182.728	291.874	136.553	266.108	255.331	135.060	142.086	206.420	313.089	140.340	143.079	144.930	148.526	243.035	145.829	-8191	255	
1151.826	1	1	0	0	0.15842	0.1846	0.1079	0.24717	0.20604	0.10414	0.077239	0.099088	0.06925	0.11372	0.12199	0.43591	0.26375	0.14164	0.21106	0.16702	-1.625	-2.1792	-1.6417	-2.1542	-2.0438	-1.925	-2.4979	-1.7229	-2.0979	-2.1125	-1.8625	-2.3271	-1.9417	-2.1167	-2.2521	-1.925	236.913	368.393	451.396	463.322	275.756	233.772	298.599	391.800	139.068	124.600	358.885	137.878	454.485	133.688	414.277	479.067	0.0012866	0.00059298	5.2986e-05	514.92	6.851e-06	2.6606e-06	591.97	194.34	8.1357e-06	6.0166e-06	258.43	124.57	93.601	45.616	3.3708e-06	57.664	0.00097209	0.00097246	0.0002683	553.89	1.0525e-05	1.069e-05	634.76	209.31	1.0521e-05	1.068e-05	279.79	132.69	100.99	49.046	1.0603e-05	61.996	473.618	204.258	429.015	136.102	247.893	276.896	135.460	142.050	202.066	293.643	140.427	143.072	145.140	148.571	343.743	145.934	-8191	255	
1151.922	1	1	0	0	0.22206	0.1378	0.084572	0.13736	0.22865	0.11135	0.22446	0.12247	0.19442	0.41998	0.22067	0.23331	0.031175	0.12527	0.072355	0.021748	-1.5208	-2.2438	-1.5562	-2.2917	-2.0542	-1.8979	-2.45	-2.0458	-2.0146	-2.4042	-1.8542	-2.1292	-2.1104	-2.1604	-2.4042	-2.1896	465.954	181.368	382.751	183.092	421.122	240.954	435.310	155.172	411.449	317.940	482.019	133.133	236.712	391.434	296.418	348.906	0.001391	9.1176e-05	0.00022754	512.43	6.4793e-06	4.7656e-06	592.32	193.93	4.8649e-06	1.7312e-06	257.13	124.95	93.813	45.359	7.6872e-06	58.068	0.00097943	0.00097825	0.00027232	554.76	1.0616e-05	1.0748e-05	637.34	209.05	1.0665e-05	1.0631e-05	279.35	132.91	100.85	48.844	1.0684e-05	62.153	470.405	440.210	223.376	136.259	242.614	218.286	135.273	141.987	237.423	210.555	140.185	143.082	144.869	148.635	251.636	145.954	-8191	255	
1152.042	1	1	0	0	0.025141	0.057141	0.24205	0.12827	0.18644	0.087399	0.3161	0.33893	0.055646	0.096287	0.21387	0.17593	0.086005	0.056789	0.22812	0.09641	-1.575	-2.1104	-1.6833	-2.2854	-2.0708	-1.8937	-2.3958	-1.9625	-1.8813	-2.3771	-1.9208	-2.3083	-2.2208	-2.0896	-2.3063	-2.1396	227.170	218.866	273.458	142.491	434.845	420.953	428.704	364.667	443.790	388.035	469.008	143.730	281.582	257.798	245.734	448.476	0.0014251	0.00056059	0.00042024	514.72	3.9593e-06	4.9663e-06	594.12	193.63	7.7976e-06	8.028e-06	257.6	124.85	92.854	45.232	3.3514e-06	58.044	0.00097749	0.00097679	0.00027249	555.65	1.0563e-05	1.0701e-05	638.62	209.27	1.0592e-05	1.0679e-05	279.99	132.89	100.52	48.611	1.0647e-05	62.351	475.971	141.452	231.726	135.998	271.560	253.633	135.233	141.945	211.035	261.751	140.119	142.616	144.969	148.584	290.522	145.912	-8191	255	
1152.114	1	1	0	0	0.17708	0.18158	0.19112	0.44879	0.24206	0.20031	0.10087	0.14853	0.28597	0.33763	0.37363	0.15478	0.18076	0.37508	0.29047	0.1201	-1.6562	-2.3688	-1.7146	-2.2146	-2.1333	-1.7188	-2.3479	-2.0687	-2.0458	-2.3	-1.9083	-2.2333	-2.2375	-1.7708	-2.25	-2.1562	174.551	481.557	422.600	427.101	432.910	396.687	404.308	197.770	481.637	483.091	293.610	458.873	270.572	473.265	134.293	222.441	0.0013046	0.00094089	0.00014298	513.65	3.3643e-06	5.5999e-06	597.95	193.58	5.7974e-06	6.7542e-06	258.89	124.87	92.424	45.084	9.952e-06	58.055	0.00097603	0.00097774	0.00027048	556.24	1.0552e-05	1.0649e-05	641.26	209.75	1.0628e-05	1.0661e-05	281.17	132.78	100.47	48.534	1.0594e-05	62.193	482.841	207.307	235.459	136.287	283.768	315.231	135.406	141.858	181.242	331.774	140.250	142.896	145.007	148.324	262.203	146.126	-8191	255	
1152.235	1	1	0	0	0.38601	0.21709	0.32243	0.14409	0.11086	0.129	0.45848	0.16089	0.15797	0.12559	0.10767	0.17003	0.14852	0.16435	0.075479	0.20564	-1.4021	-2.3229	-1.8	-2.4625	-2.2979	-1.9188	-2.4104	-2.35	-1.9292	-2.4792	-1.9833	-2.1479	-2.3958	-2.0292	-2.1583	-2.1688	423.051	255.284	167.681	352.676	165.683	208.039	381.135	384.522	408.879	465.717	297.281	350.967	351.167	484.094	338.652	459.771	0.0012141	0.00049689	8.5551e-05	513.75	4.6046e-06	6.0376e-06	594.97	193.48	3.0517e-06	8.1365e-06	258.05	124.14	92.731	45.069	9.4429e-06	57.763	0.0009692	0.0009733	0.00026899	554.48	1.0514e-05	1.0555e-05	638.25	208.57	1.0516e-05	1.0562e-05	279.38	132.17	100.17	48.383	1.0485e-05	62.125	472.873	233.143	243.766	136.380	190.913	318.397	135.102	142.136	211.198	313.000	140.215	142.891	144.752	148.337	258.551	146.173	-8191	255	
1152.331	1	1	0	0	0.21848	0.26375	0.34037	0.25692	0.09388	0.069239	0.12981	0.17322	0.28076	0.14663	0.2534	0.29694	0.20045	0.24672	0.12248	0.12852	-1.4625	-2.2583	-1.6479	-2.1083	-2.1792	-1.9583	-2.1896	-2.1854	-1.9354	-2.35	-2.1396	-1.8479	-2.2521	-1.9438	-2.05	-2.3063	409.022	411.296	234.168	476.801	291.780	351.304	366.578	344.477	436.074	242.632	385.734	187.121	388.652	461.411	198.194	132.028	0.0013314	0.00041653	0.00023806	514.48	7.6961e-06	1.0252e-05	593.91	192.63	5.1423e-06	3.4911e-06	258.82	125.1	92.525	45.216	8.773e-06	58.014	0.00096818	0.00097141	0.00026729	553.87	1.0519e-05	1.0549e-05	638.43	208.11	1.0479e-05	1.0542e-05	279.87	132.98	100.44	48.69	1.0511e-05	62.434	474.988	198.802	194.327	136.302	249.110	275.597	135.479	141.824	228.599	251.264	140.087	143.063	144.618	148.349	189.602	146.018	-8191	255	
1152.425	1	1	0	0	0.16418	0.17671	0.2341	0.23489	0.21262	0.12905	0.065757	0.13779	0.083294	0.14134	0.066616	0.23155	0.2048	0.19984	0.096951	0.24671	-1.3563	-2.2208	-1.9729	-1.9208	-2.2042	-1.8854	-2.1333	-2.2708	-1.9	-2.0375	-2.0708	-1.9625	-2.2646	-1.9813	-2.1042	-2.2542	419.510	417.629	402.726	467.050	415.146	423.829	202.301	390.028	378.001	258.653	171.458	165.375	234.196	141.901	195.148	401.437	0.0013482	0.00038199	0.00010135	512.27	8.8962e-06	4.5428e-06	597.72	192.77	7.1682e-06	6.4865e-06	258.44	125.65	92.555	45.311	1.1897e-05	58.232	0.00096851	0.00097113	0.00026871	555.43	1.0559e-05	1.056e-05	640.35	208.71	1.0477e-05	1.0638e-05	280.69	133.46	100.47	48.618	1.0558e-05	62.466	474.726	198.501	267.097	136.119	225.271	331.455	135.447	141.599	214.361	240.061	139.931	143.140	144.842	148.508	237.359	146.074	-8191	255	
1152.523	1	1	0	0	0.23276	0.22848	0.15209	0.27672	0.18299	0.11262	0.078766	0.063544	0.35849	0.066758	0.10766	0.47032	0.10183	0.3121	0.083403	0.075947	-1.2583	-2.0146	-1.9521	-1.9771	-2.2646	-2.0167	-2.2125	-2.4146	-1.9188	-2.2104	-2.1875	-1.8833	-2.3771	-1.8896	-2.025	-2.5333	450.836	352.729	363.975	427.349	313.000	204.679	285.735	159.034	429.947	377.741	444.700	458.723	246.490	183.316	181.589	423.003	0.0012378	0.00071701	0.00024636	514.12	7.2774e-06	7.5943e-06	598.02	192.82	1.7153e-06	2.8848e-06	259.14	125.52	93.085	45.133	3.1701e-06	57.928	0.00096638	0.00097543	0.00026816	553.98	1.0521e-05	1.0549e-05	641.85	208.53	1.048e-05	1.0686e-05	280.56	132.98	100.45	48.386	1.0588e-05	62.083	475.750	225.437	185.386	136.141	153.535	272.874	135.396	141.943	330.601	331.139	140.400	143.015	145.075	148.448	331.498	145.666	-8191	255	
1152.642	1	1	0	0	0.17018	0.11108	0.3673	0.27946	0.2601	0.085317	0.16972	0.2578	0.13778	0.1206	0.15541	0.1986	0.07517	0.37131	0.097865	0.12603	-1.4771	-2.1437	-2.1146	-1.8167	-2.4833	-2.0646	-2.1104	-2.4062	-1.8646	-2.1708	-2.2333	-1.9354	-2.275	-2.2375	-1.75	-2.4667	265.873	171.142	176.558	418.166	159.158	464.660	148.261	434.579	337.120	436.715	340.675	148.625	308.631	425.845	241.149	152.038	0.0014214	0.00045571	0.00013496	510.45	1.1325e-05	7.944e-06	592.8	191.81	3.1364e-06	5.7361e-06	255.57	124.31	92.511	44.735	1.4972e-06	57.588	0.00095867	0.00097249	0.00026829	552.63	1.0328e-05	1.0593e-05	635.62	207.37	1.0306e-05	1.0579e-05	277.81	132.08	99.803	48.085	1.0503e-05	61.747	480.188	306.058	273.336	136.323	252.693	227.040	135.091	141.927	253.463	309.150	139.864	143.050	144.757	148.422	230.103	146.030	-8191	255	
1152.714	1	1	0	0	0.17538	0.078819	0.16076	0.28046	0.11681	0.079513	0.21235	0.25538	0.037233	0.21067	0.13264	0.21397	0.31277	0.23083	0.30623	0.35836	-1.3937	-1.8917	-2.3021	-1.8021	-2.2208	-2.2333	-1.8813	-2.2021	-2.0604	-2.05	-2.2542	-1.7729	-2.2625	-2.1729	-1.9792	-2.6271	307.117	154.696	389.898	387.235	427.251	302.400	431.236	137.694	125.007	259.891	261.087	409.460	292.361	191.007	305.729	426.349	0.00137	0.00059363	0.00020255	511.54	6.3056e-06	3.8504e-06	591.17	191.75	5.6766e-06	6.5616e-06	256.92	125.16	93.048	44.679	1.2042e-06	57.825	0.00095739	0.00096355	0.00026754	551.44	1.0474e-05	1.0564e-05	635.39	206.88	1.0406e-05	1.0541e-05	278.28	132.74	100.42	48.109	1.0481e-05	61.923	474.967	152.758	229.521	136.110	257.535	211.149	135.474	141.808	218.438	187.049	140.071	143.012	144.973	148.368	476.962	145.857	-8191	255	
1152.810	1	1	0	0	0.19255	0.11518	0.14288	0.12413	0.11108	0.23688	0.090888	0.2877	0.069893	0.036245	0.18002	0.13155	0.22919	0.34451	0.27944	0.10626	-1.55	-2.0917	-2.2917	-1.9333	-2.1729	-2.3021	-1.8937	-2.4479	-2.025	-1.8188	-2.5021	-1.7812	-2.0521	-2.3688	-1.7083	-2.4979	290.181	208.026	260.847	440.596	405.539	350.106	360.193	341.423	243.764	463.054	483.320	438.529	475.619	196.715	397.212	280.450	0.0013115	0.00040986	5.9041e-05	511.46	2.3284e-06	5.653e-07	595.23	191.17	3.6032e-06	4.3323e-06	255	124.93	92.346	44.457	7.9589e-06	57.417	0.00095531	0.00096158	0.00026604	551.55	1.0446e-05	1.0583e-05	637.04	206.67	1.0474e-05	1.0537e-05	277.67	132.62	99.803	47.761	1.0375e-05	61.713	479.058	182.558	131.699	136.230	269.413	321.755	135.165	141.819	212.296	271.054	140.014	143.134	144.952	148.203	252.526	145.668	-8191	255	
1152.930	1	1	0	0	0.24893	0.167	0.16934	0.10016	0.13768	0.24841	0.22051	0.089219	0.087412	0.098778	0.1578	0.33408	0.13821	0.26725	0.11545	0.11572	-1.6604	-1.8312	-2.2896	-1.9646	-2.075	-2.1708	-2.0062	-2.5083	-2.0333	-2.0667	-2.3958	-2.0563	-1.9979	-2.4562	-1.8625	-2.2875	154.625	239.854	176.085	465.648	471.876	190.687	372.475	351.419	246.145	482.658	411.457	458.644	292.170	416.346	379.813	154.822	0.0013727	0.00048168	0.00020616	509.55	3.3774e-06	6.199e-06	594.42	191.34	6.1601e-06	8.0406e-06	257.79	125.13	91.956	44.343	8.2583e-06	57.447	0.00095604	0.00095737	0.00026683	550.51	1.0478e-05	1.0506e-05	637.45	206.87	1.0457e-05	1.0531e-05	278.34	133.01	100.02	47.733	1.0331e-05	61.606	478.458	219.936	190.055	136.327	223.388	241.282	135.302	141.775	238.088	226.839	140.164	142.898	144.732	148.127	256.346	145.783	-8191	255	
1153.027	1	1	0	0	0.43943	0.20835	0.15906	0.19379	0.13938	0.16525	0.16528	0.20796	0.087381	0.278	0.34158	0.046844	0.14166	0.032706	0.11489	0.16462	-1.8708	-1.7854	-2.2479	-1.9104	-2.1688	-2.2771	-2.1188	-2.3063	-2.3521	-1.9833	-2.2854	-2.2083	-2.0375	-2.4771	-1.875	-2.4437	403.590	453.332	194.214	373.846	261.651	177.732	375.267	468.757	312.037	369.072	429.047	376.891	353.771	140.767	161.395	419.187	0.0012758	0.00075104	8.4506e-05	508.73	1.8569e-06	2.8345e-06	587.83	190.56	9.0193e-06	6.7032e-06	256.25	124.78	92.898	44.43	4.0209e-06	57.312	0.00094975	0.00095962	0.00026507	548.56	1.0317e-05	1.0429e-05	632	206.36	1.0333e-05	1.0426e-05	277.25	132.53	100.09	47.832	1.0476e-05	61.519	477.010	201.560	472.189	136.149	201.284	420.468	135.495	142.054	227.538	233.389	140.125	142.969	144.979	148.159	267.218	145.899	-8191	255	
1153.123	1	1	0	0	0.20172	0.18834	0.33578	0.1655	0.16744	0.11244	0.063089	0.1062	0.14682	0.025816	0.30182	0.30667	0.051966	0.035198	0.20576	0.23731	-1.7875	-1.8021	-2.4271	-2.0438	-1.7125	-2.4104	-2.0729	-2.2833	-2.1437	-1.7729	-2.3646	-2.1188	-2.0625	-2.5729	-1.875	-2.2125	267.609	462.965	288.484	456.089	332.301	221.753	349.603	309.992	153.922	474.283	247.325	349.039	267.085	137.028	397.646	399.636	0.0012218	0.00079181	0.00011079	508.63	3.5361e-06	4.9969e-06	589.98	191.28	9.5526e-06	5.1848e-06	255.99	124.36	92.704	44.36	8.1664e-06	57.275	0.00095493	0.00094611	0.00026712	549.13	1.031e-05	1.0446e-05	631.26	206.28	1.029e-05	1.037e-05	277.32	132.78	100.13	47.846	1.0422e-05	61.601	473.386	192.419	299.785	135.872	359.262	176.206	135.256	141.811	219.704	254.252	139.907	142.824	145.006	148.435	287.157	146.037	-8191	255	
1153.219	1	1	0	0	0.23065	0.31905	0.10425	0.057114	0.13287	0.056403	0.06106	0.21743	0.08333	0.17026	0.2649	0.40647	0.13566	0.14466	0.22141	0.18773	-1.9896	-1.8896	-2.0896	-1.9917	-1.9646	-2.4521	-2.1771	-2.1021	-2.3521	-1.7229	-2.4167	-2.1937	-1.8354	-2.4125	-2.0875	-2.0146	256.251	155.194	142.485	176.024	292.746	438.925	163.550	238.044	270.095	268.539	271.131	428.916	165.247	164.268	127.214	480.904	0.0011541	0.00046485	0.00012181	510.11	5.3893e-06	2.7299e-06	590.67	191.74	6.9135e-06	6.0203e-06	256.42	124.77	92.283	44.428	1.8286e-06	57.554	0.00095007	0.00096143	0.00026684	549.21	1.0295e-05	1.0449e-05	633.74	206.64	1.0333e-05	1.0395e-05	278.36	132.51	99.722	47.816	1.0407e-05	61.608	478.791	188.351	179.521	136.228	222.248	186.107	135.233	141.869	226.653	307.337	140.193	142.996	144.821	148.335	283.029	145.828	-8191	255	
1153.338	1	1	0	0	0.12557	0.20509	0.17349	0.19834	0.11767	0.27848	0.1339	0.17171	0.11292	0.15524	0.21439	0.13862	0.26422	0.34712	0.057201	0.22281	-1.925	-1.7833	-2.1292	-2.2021	-1.7104	-2.1729	-2.1708	-2.2	-2.25	-2.05	-2.1396	-2.275	-1.8438	-2.325	-1.8333	-2.0646	275.643	218.439	425.929	413.495	145.451	305.225	344.410	469.930	397.840	331.702	328.671	147.269	352.549	442.671	177.653	288.498	0.0011036	0.00041051	0.00011626	511.7	3.495e-06	1.0626e-05	593.82	192.24	7.8885e-06	9.7518e-06	258.36	125.14	91.956	44.572	5.0284e-06	57.394	0.00096836	0.00095851	0.00027031	551.19	1.0489e-05	1.0583e-05	637.05	207.41	1.051e-05	1.0581e-05	279.5	133.09	99.779	47.901	1.0464e-05	61.66	476.077	215.408	184.179	136.341	281.029	236.513	135.184	141.736	190.035	282.167	139.799	143.205	144.999	148.179	227.554	145.685	-8191	255	
1153.411	1	1	0	0	0.15861	0.23951	0.19767	0.050529	0.15608	0.13663	0.15055	0.088368	0.27067	0.43309	0.065188	0.12426	0.1648	0.20927	0.40388	0.18368	-1.7917	-1.7917	-2.1021	-2.3312	-1.6979	-2.2188	-2.2583	-1.9062	-2.4125	-1.9	-2.1875	-2.5917	-1.9937	-2.2396	-2.1875	-1.9	227.090	183.990	393.680	264.393	171.331	224.949	399.485	305.930	146.718	415.831	333.687	424.235	386.875	406.894	398.006	333.457	0.0012634	0.00075933	0.00012344	507.64	6.9696e-06	5.8862e-06	588.73	190.52	7.4085e-06	5.6314e-06	257.13	124.08	92.226	44.496	1.1447e-05	57.254	0.00096591	0.00096155	0.00026728	549.05	1.0418e-05	1.0485e-05	632.42	206.51	1.0463e-05	1.0447e-05	277.28	131.83	99.655	47.859	1.0466e-05	61.406	475.464	166.522	325.582	136.238	310.491	228.972	135.041	141.759	206.331	249.195	140.405	142.776	145.023	148.153	235.620	146.120	-8191	255	
1153.506	1	1	0	0	0.26452	0.19668	0.11835	0.18223	0.10483	0.12823	0.27633	0.24258	0.038067	0.14703	0.016751	0.21151	0.21689	0.18812	0.16554	0.14509	-2.1688	-1.9104	-1.9688	-2.4875	-1.8563	-2.2958	-2.2729	-1.9	-2.1688	-1.9333	-2.1875	-2.4146	-1.8042	-2.4625	-2.2979	-1.9458	325.431	478.133	458.904	254.649	277.650	475.073	453.240	479.940	322.972	129.916	198.473	439.377	160.343	470.070	331.530	473.140	0.0012271	1.4575e-05	0.00010604	507.83	5.1837e-06	4.4934e-06	591.97	191.47	6.3976e-06	4.1159e-06	257.86	124.31	91.792	44.466	8.3639e-06	57.329	0.00096644	0.00096568	0.00026913	549.21	1.0458e-05	1.061e-05	633.54	206.85	1.0457e-05	1.046e-05	278.74	132.18	99.458	47.874	1.0472e-05	61.571	473.400	203.257	424.434	136.176	285.677	253.362	135.219	141.848	210.406	268.065	139.852	142.975	145.186	148.401	244.150	145.766	-8191	255	
1153.604	1	1	0	0	0.025453	0.014033	0.18002	0.16294	0.19454	0.28271	0.4076	0.21705	0.21204	0.20864	0.03749	0.078197	0.4241	0.11921	0.34766	0.17054	-1.9542	-1.9917	-1.9271	-2.4229	-1.8979	-2.1646	-2.2021	-1.9562	-2.3875	-1.9979	-2.0417	-2.3792	-1.8771	-2.4229	-2.3125	-1.9604	333.687	165.947	477.209	425.269	319.580	271.017	468.695	178.164	422.183	363.280	417.052	413.277	266.919	187.456	252.801	461.490	0.0011496	0.00029761	0.00019127	508.81	8.7709e-06	6.4021e-06	591.24	191.41	2.2558e-06	8.0251e-06	258	124.58	91.986	44.534	3.072e-06	57.554	0.00096827	0.00095753	0.0002672	550.16	1.0482e-05	1.0653e-05	635.16	207.05	1.05e-05	1.0486e-05	278.77	132.32	99.373	47.872	1.057e-05	61.778	476.546	206.877	219.492	136.413	209.617	262.349	135.284	141.731	309.962	258.822	140.118	142.871	145.018	148.311	283.826	146.161	-8191	255	
1153.722	1	1	0	0	0.21476	0.25206	0.047138	0.1694	0.077213	0.077033	0.10099	0.15711	0.13623	0.34446	0.088776	0.21192	0.11406	0.15132	0.061083	0.1852	-1.9813	-2.2542	-2.0062	-2.3854	-1.8104	-2.0729	-2.2104	-1.8708	-2.2104	-1.9458	-1.8229	-2.4917	-1.9896	-2.1833	-2.1958	-1.7021	325.259	295.134	166.237	251.730	227.891	434.270	397.608	459.958	225.427	359.918	478.295	468.084	350.776	157.522	432.741	474.092	0.0013593	0.00078193	0.00012946	514	8.8146e-06	2.3632e-06	596.64	191.53	7.6999e-06	7.8449e-06	259.29	124.82	92.537	44.477	1.2522e-05	57.786	0.00097948	0.00096865	0.00026975	554.03	1.0433e-05	1.0679e-05	640.51	207.33	1.0644e-05	1.0645e-05	280.36	132.73	99.755	48.007	1.0634e-05	61.928	476.835	219.824	193.497	136.437	241.956	223.395	135.272	141.798	201.843	348.227	139.953	142.990	145.073	148.328	237.349	145.963	-8191	255	
1153.819	1	1	0	0	0.10918	0.14031	0.23455	0.20988	0.18896	0.33966	0.26689	0.18874	0.42105	0.11309	0.23849	0.1162	0.13528	0.22229	0.15357	0.40392	-1.6604	-2.0604	-1.9354	-2.5146	-1.8563	-1.95	-2.3958	-1.6562	-2.1688	-2.1104	-1.9521	-2.3333	-1.9688	-1.8833	-2.375	-1.9917	164.676	405.902	429.765	372.935	477.052	418.158	148.405	348.543	178.440	269.275	159.380	440.469	191.976	200.216	219.763	470.882	0.0011896	0.00048789	0.00026425	509.32	3.5468e-06	4.5431e-06	592.65	191.71	1.6632e-05	7.0107e-06	255.24	123.86	91.543	44.276	3.2701e-06	57.278	0.00097342	0.00097122	0.00026977	551.93	1.0504e-05	1.0606e-05	636.11	207	1.0536e-05	1.0454e-05	277.74	131.8	99.191	47.694	1.0498e-05	61.405	475.116	255.763	245.946	136.251	271.677	237.638	135.089	141.602	220.859	260.924	140.080	142.846	144.819	148.439	208.429	146.166	-8191	255	
1153.915	1	1	0	0	0.18354	0.21933	0.2021	0.075903	0.10009	0.22098	0.24489	0.23261	0.10849	0.25182	0.23678	0.11203	0.17651	0.068583	0.011724	0.20516	-1.6729	-2.0708	-1.8188	-2.4813	-2.1063	-2.0083	-2.3729	-1.825	-2.1063	-2.3542	-1.875	-2.3104	-2.1375	-2.0812	-2.1958	-2.0083	309.637	345.402	408.509	459.391	442.873	449.387	352.892	416.401	327.426	380.710	446.737	381.293	246.800	163.448	419.823	400.809	0.0011731	0.00042524	0.00024084	509.68	7.2198e-06	3.678e-06	591.95	190.76	6.1684e-06	5.0359e-06	256.86	123.6	91.82	44.411	7.8009e-06	57.345	0.00096099	0.00096306	0.00026768	551.04	1.0436e-05	1.0544e-05	635.35	206.54	1.0467e-05	1.0496e-05	277.73	131.75	99.293	47.693	1.0432e-05	61.421	473.263	131.893	264.150	136.238	204.426	359.470	135.160	141.953	169.356	284.705	140.245	143.010	144.609	148.403	227.824	146.027	-8191	255	
1154.011	1	1	0	0	0.20997	0.19708	0.2198	0.12191	0.23681	0.1567	0.15493	0.4519	0.185	0.25882	0.15873	0.25109	0.16732	0.050118	0.041427	0.36393	-1.7313	-2.3187	-1.7375	-2.2958	-2.1292	-1.9771	-2.5396	-2.0583	-1.8646	-2.3396	-1.9979	-2.0875	-2.1375	-1.9062	-2.2104	-2.0729	128.777	360.258	274.731	219.399	224.344	151.196	381.633	406.068	256.085	252.258	181.994	422.267	417.505	234.673	216.102	377.715	0.0012632	0.00050098	0.00016267	508.81	4.9763e-06	2.0319e-06	591.79	190.74	5.2996e-06	6.6854e-06	256.54	124.64	91.434	44.26	4.0994e-06	57.519	0.00096131	0.00096206	0.0002648	551.01	1.0315e-05	1.05e-05	636.2	206.72	1.0399e-05	1.0434e-05	278.49	132.11	99.282	47.642	1.0445e-05	61.645	471.120	170.748	310.668	136.137	205.730	253.632	135.095	141.894	252.244	257.786	140.143	142.989	144.692	148.355	275.361	146.028	-8191	255	
1154.107	1	1	0	0	0.082949	0.20326	0.11908	0.39243	0.063525	0.13342	0.050116	0.07299	0.061068	0.22385	0.21039	0.14129	0.1595	0.16374	0.22996	0.29497	-1.6708	-2.3771	-1.9292	-2.2958	-2.25	-1.6896	-2.4313	-1.9	-1.8417	-2.2229	-1.8375	-2.2083	-2.1562	-1.8104	-2.1708	-2.0687	197.307	280.635	265.092	156.643	262.966	236.275	427.155	447.867	258.481	165.110	408.725	399.057	285.221	233.563	365.895	378.120	0.0013144	0.00034872	7.9848e-05	513.43	4.3302e-06	4.298e-06	595.94	191.66	5.9914e-06	4.3586e-06	259.15	124.62	91.79	44.527	6.8131e-06	57.346	0.00096555	0.00096843	0.00026631	553.12	1.0482e-05	1.0584e-05	640.11	207.49	1.0551e-05	1.0551e-05	280.76	132.64	99.445	47.845	1.0521e-05	61.732	475.515	243.140	158.688	136.021	241.099	237.808	135.313	141.775	172.419	241.307	140.126	142.920	144.873	148.391	288.416	145.966	-8191	255	
1154.203	1	1	0	0	0.1103	0.18206	0.21594	0.14639	0.20043	0.24195	0.034248	0.23724	0.24969	0.088042	0.2436	0.061923	0.13318	0.093612	0.15976	0.21128	-1.4083	-2.3854	-1.9604	-2.1542	-2.2167	-1.9667	-2.4667	-2.1917	-1.8896	-2.3333	-1.9813	-2.2021	-2.3104	-2.0458	-2.0687	-2.2	326.079	192.008	318.115	350.102	222.618	143.812	275.222	422.622	232.896	376.821	184.153	443.800	430.558	383.868	178.842	142.926	0.0012129	0.00073512	8.8461e-05	514.5	7.1748e-06	6.3067e-06	593.31	191.39	5.9618e-06	7.6362e-06	257.3	124.46	92.302	44.621	1.1293e-05	57.371	0.00096515	0.00096794	0.00026634	552.86	1.0379e-05	1.0478e-05	635.97	206.87	1.0345e-05	1.0636e-05	278.7	132.57	99.829	47.924	1.0603e-05	61.587	475.385	174.396	175.640	136.214	152.499	300.630	135.240	141.641	203.904	293.728	139.977	143.207	144.895	148.282	245.744	145.854	-8191	255	
1154.324	1	1	0	0	0.19533	0.23347	0.080126	0.24717	0.28882	0.17252	0.17374	0.08417	0.20865	0.14401	0.048194	0.23452	0.036148	0.11892	0.17196	0.18565	-1.3188	-2.1854	-2.05	-2.0938	-2.2583	-1.9708	-2.2208	-2.175	-1.7896	-2.2458	-2.0146	-1.9792	-2.3708	-1.9375	-2.2292	-2.2708	387.312	310.363	282.619	458.191	216.303	399.967	448.766	353.850	402.745	472.919	210.753	467.718	375.107	477.338	221.266	190.638	0.0012521	0.0003152	6.2359e-05	508.68	7.5322e-06	1.0737e-05	593.26	191.37	2.4311e-06	5.1752e-06	256.23	125	92.379	44.7	4.6643e-06	57.286	0.00095827	0.00096421	0.00026827	549.72	1.0402e-05	1.0567e-05	633.49	206.82	1.0502e-05	1.0566e-05	278.07	132.78	99.893	47.948	1.054e-05	61.649	474.063	481.412	147.894	136.177	266.035	289.582	135.182	141.769	262.563	201.922	140.042	142.780	144.972	148.577	204.607	146.154	-8191	255	
1154.418	1	1	0	0	0.26927	0.077977	0.059156	0.30526	0.017228	0.20116	0.41662	0.26677	0.13178	0.10983	0.13566	0.059477	0.25456	0.21648	0.16444	0.12598	-1.2042	-2.2604	-2.0292	-1.9937	-2.3187	-1.7417	-2.3563	-2.2042	-1.7896	-2.3	-2.2417	-1.7583	-2.3125	-1.8917	-2.0021	-2.2896	183.701	340.203	176.324	429.731	391.063	180.312	477.940	429.998	426.306	341.573	447.354	135.038	172.733	456.699	253.241	167.633	0.0012325	0.0007485	0.00017658	510.6	1.0211e-05	8.5759e-06	590.4	192.57	7.4253e-06	1.0552e-05	259.18	125.36	92.741	45.192	6.6434e-06	58.303	0.00096386	0.00096552	0.00026852	551.27	1.0436e-05	1.0558e-05	636.57	208.09	1.0478e-05	1.0564e-05	280.51	133.45	100.37	48.446	1.0577e-05	62.414	479.964	216.868	231.153	136.364	222.287	210.780	135.189	141.855	204.183	253.073	140.058	142.817	144.910	148.369	164.267	146.054	-8191	255	
1154.514	1	1	0	0	0.10832	0.22317	0.22582	0.30377	0.14363	0.20231	0.13742	0.20831	0.28045	0.10043	0.16309	0.35046	0.12701	0.32892	0.19443	0.26636	-1.2375	-2.3042	-2.1437	-1.8875	-2.3125	-1.7854	-2.2938	-2.2396	-1.8771	-2.3604	-2.0729	-1.8958	-2.2708	-2.0417	-2.0062	-2.3396	256.074	417.114	430.509	375.545	358.976	384.784	300.749	184.902	211.363	414.418	295.079	370.469	478.996	459.973	397.516	372.790	0.0013003	0.00010658	0.00014742	512.51	3.2411e-06	7.5346e-06	594.54	193.38	7.4483e-06	2.2096e-06	260.01	126.67	93.712	45.326	4.8692e-06	58.486	0.00096692	0.00097721	0.00027136	554.58	1.0659e-05	1.0744e-05	640.2	209.43	1.0631e-05	1.0772e-05	282.27	134.3	100.85	48.743	1.0639e-05	62.657	473.701	199.422	235.547	136.316	299.917	312.230	135.329	141.740	217.466	299.320	140.245	142.909	145.122	148.324	261.112	146.035	-8191	255	
1154.635	1	1	0	0	0.23812	0.1005	0.21476	0.030492	0.19347	0.25829	0.41096	0.0058391	0.30064	0.18617	0.17691	0.077588	0.1587	0.14688	0.15875	0.22949	-1.4292	-2.1875	-2.1229	-1.9188	-2.2812	-1.9833	-2.0979	-2.225	-1.9167	-2.2938	-2.4	-1.9188	-2.3542	-1.9813	-1.975	-2.3167	430.665	366.599	439.640	126.920	160.323	168.839	394.908	385.605	409.661	473.324	132.268	360.257	424.635	480.985	284.556	158.301	0.0013069	0.0008289	0.0001146	510.33	2.4913e-06	6.5417e-06	592.16	192.86	1.1963e-05	5.0021e-06	258.43	125.79	93.357	45.305	7.6015e-06	58.146	0.00096552	0.00097713	0.00026906	553.17	1.0637e-05	1.0678e-05	636.99	208.74	1.0556e-05	1.0712e-05	280.06	134	100.88	48.814	1.0622e-05	62.398	480.320	202.673	277.771	136.160	328.684	217.634	135.025	141.754	228.107	257.323	140.059	142.919	144.771	148.446	239.961	145.892	-8191	255	
1154.707	1	1	0	0	0.17835	0.19265	0.27433	0.10305	0.17764	0.12648	0.16377	0.18935	0.14148	0.049024	0.058927	0.22422	0.043929	0.2724	0.16557	0.10029	-1.3958	-1.9312	-2.1979	-1.8646	-2.0604	-2.2667	-2.0104	-2.4333	-1.9292	-2.2125	-2.4042	-2.0771	-2.4333	-2.1771	-1.8583	-2.4	212.746	442.397	361.574	481.602	483.854	471.810	319.537	426.430	130.342	242.843	408.046	430.748	399.712	160.158	259.678	471.070	0.0012488	0.00040745	0.00021546	513.03	2.6744e-06	3.5238e-06	593.51	194.51	5.2012e-06	5.8798e-06	259.06	126.19	93.557	45.685	6.4058e-06	58.267	0.00097395	0.00098423	0.00027232	552.86	1.0666e-05	1.0736e-05	635.8	209.75	1.0655e-05	1.0679e-05	281.31	134.36	101.19	49.047	1.0718e-05	62.664	477.509	176.316	180.221	136.412	220.901	215.260	135.330	141.953	251.160	251.872	140.007	143.042	144.682	148.483	250.418	146.120	-8191	255	
1154.803	1	1	0	0	0.22867	0.010799	0.018227	0.15558	0.11357	0.16003	0.19138	0.24895	0.25596	0.23111	0.13803	0.28732	0.10065	0.2475	0.20605	0.17825	-1.4562	-2.0021	-2.3146	-1.9312	-2.0625	-2.3	-1.6708	-2.2625	-1.9021	-1.9562	-2.4313	-2.0042	-2.1833	-2.2229	-2.0062	-2.6063	135.350	170.203	180.233	143.017	125.218	440.202	325.553	356.887	401.990	217.661	449.955	168.455	316.895	471.720	344.184	309.473	0.0013176	0.0005233	0.00019035	510.25	6.0967e-06	5.2087e-06	594.25	193.69	5.3917e-06	1.0929e-05	259.27	126.54	93.529	45.414	8.1842e-06	58.248	0.00098156	0.00098438	0.00027392	553.22	1.0666e-05	1.0733e-05	636.81	209.42	1.056e-05	1.0712e-05	281.59	134.75	101.29	48.978	1.0605e-05	62.608	475.981	220.127	239.986	136.242	201.965	280.029	135.306	141.622	166.888	247.094	140.299	142.895	144.777	148.455	233.863	146.054	-8191	255	
1154.897	1	1	0	0	0.032781	0.18422	0.061698	0.1	0.093681	0.1913	0.070472	0.27339	0.031106	0.092296	0.24576	0.18133	0.15514	0.30611	0.037786	0.25697	-1.6792	-2.0979	-2.4021	-2.0938	-2.3375	-2.1771	-1.9188	-2.5354	-2.0708	-2.0062	-2.5021	-2.1188	-2.2812	-2.4042	-1.7104	-2.4437	239.164	268.360	329.313	243.874	157.840	483.345	373.973	370.265	166.913	261.603	437.968	176.752	133.968	158.317	448.450	420.615	0.001267	0.00063561	0.00010606	511.65	4.8086e-06	6.4619e-06	596.61	193.27	8.1267e-06	2.7598e-07	260.63	127.43	93.469	45.359	7.84e-06	58.305	0.00098026	0.00098786	0.00027159	552.19	1.0614e-05	1.0789e-05	639.87	209.13	1.0581e-05	1.0622e-05	282.09	135.47	101.32	48.674	1.0566e-05	62.478	475.352	200.283	381.941	136.467	208.991	276.278	135.182	141.992	240.188	142.320	140.031	142.956	145.187	148.201	285.603	146.026	-8191	255	
1154.995	1	1	0	0	0.18164	0.16274	0.14288	0.11799	0.2458	0.26342	0.14449	0.32373	0.10034	0.47589	0.23008	0.38013	0.047675	0.33764	0.056971	0.21965	-1.6271	-1.8896	-2.4042	-2.0625	-2.1646	-2.3792	-1.9312	-2.1312	-2.1	-1.8604	-2.4604	-2.0417	-2.0083	-2.4271	-1.6708	-2.6125	135.356	384.241	278.448	163.445	362.443	289.426	400.239	457.728	249.548	216.637	409.215	421.769	408.321	482.301	430.642	428.064	0.0014148	0.00056987	0.00020953	511.6	4.7308e-06	8.8999e-06	592.06	193.1	5.5184e-06	1.5202e-06	259.45	126.66	93.406	45.126	9.265e-06	58.004	0.00097866	0.00097874	0.00027352	551.75	1.0641e-05	1.0725e-05	635.44	208.58	1.0601e-05	1.0839e-05	280.68	134.38	101.19	48.646	1.0738e-05	62.287	472.766	195.746	201.344	136.340	285.419	284.300	135.276	141.659	195.509	374.589	140.021	143.059	144.420	148.340	230.381	146.075	-8191	255	
1155.114	1	1	0	0	0.1968	0.19463	0.11564	0.2539	0.30948	0.13609	0.25783	0.29948	0.13551	0.13078	0.23271	0.19102	0.12841	0.11308	0.063329	0.20446	-1.7437	-1.7125	-2.0792	-2.0583	-1.9625	-2.3	-1.8792	-2.325	-2.1167	-1.8729	-2.3979	-2.1813	-2.0729	-2.3542	-1.9458	-2.2	434.197	337.617	377.543	474.513	471.487	390.170	378.311	479.345	413.875	429.124	305.576	468.854	213.251	149.433	206.691	130.364	0.0013836	0.00021118	0.00013672	509.59	7.6195e-06	4.0448e-06	591.37	192.69	7.9741e-06	3.0271e-06	258.87	126.3	93.279	45.305	3.9597e-06	57.901	0.00098266	0.00097832	0.00027368	551.47	1.0598e-05	1.0807e-05	635.76	208.66	1.0662e-05	1.078e-05	281.06	134.69	101.07	48.7	1.0646e-05	62.298	477.523	162.106	222.452	136.302	294.333	222.993	135.193	141.822	227.096	271.171	139.780	142.972	145.038	148.463	251.271	146.129	-8191	255	
1155.210	1	1	0	0	0.26718	0.16193	0.18167	0.1656	0.071788	0.23169	0.064	0.2458	0.051751	0.073006	0.082815	0.32107	0.075116	0.2731	0.25302	0.37608	-1.7292	-1.7771	-2.2062	-2.0771	-2.0521	-2.2812	-1.9479	-2.1042	-2.3708	-1.9146	-2.3	-2.1042	-1.9979	-2.3292	-1.9146	-2.0938	222.277	235.247	182.870	468.999	209.996	459.068	399.693	144.422	412.225	335.480	197.732	124.220	394.458	136.695	433.734	425.166	0.0013834	0.00056956	0.00013963	510.24	3.966e-06	1.0702e-05	591.27	193.5	7.671e-06	1.7925e-06	260.39	126.9	94.242	45.793	3.7579e-06	58.616	0.00098263	0.00098256	0.00027231	551.63	1.0622e-05	1.0716e-05	636.6	209.12	1.0665e-05	1.0648e-05	282.54	135.52	101.76	49.195	1.0719e-05	62.931	480.294	191.554	208.775	136.160	252.596	217.025	135.394	141.818	242.814	273.448	140.155	142.916	144.914	148.626	301.908	145.913	-8191	255	
1155.306	1	1	0	0	0.14225	0.17485	0.18852	0.23942	0.30181	0.11052	0.15896	0.17468	0.16701	0.05901	0.17814	0.1349	0.084276	0.11041	0.15487	0.30671	-2.0229	-1.8417	-2.2021	-2.2271	-1.7812	-2.325	-2.0125	-2.325	-2.3521	-1.9729	-2.2667	-2.1271	-1.8813	-2.4229	-2.1042	-1.9792	343.562	467.206	246.256	346.572	433.155	451.677	338.814	462.771	184.077	279.580	467.839	413.769	308.320	468.794	245.032	384.160	0.0012988	0.00053432	0.00012359	509.96	8.1711e-06	5.1388e-06	595.96	194.12	1.3962e-05	4.0975e-06	262.81	128.18	95.005	45.756	7.7792e-06	58.69	0.00098542	0.00098539	0.00027505	552.37	1.0719e-05	1.0916e-05	639.57	210.18	1.0636e-05	1.0788e-05	283.73	136.24	102.25	49.259	1.0679e-05	62.968	477.024	205.994	300.180	136.018	199.797	205.633	135.229	141.911	212.742	325.961	140.029	143.078	145.029	148.407	262.241	145.891	-8191	255	
1155.402	1	1	0	0	0.046186	0.25444	0.22521	0.13935	0.12012	0.030312	0.3197	0.15643	0.13561	0.097274	0.1557	0.18569	0.31793	0.27327	0.12298	0.098489	-1.8062	-1.725	-2.025	-2.2375	-1.7167	-2.5333	-1.8625	-2.0375	-2.2354	-1.775	-2.1292	-2.5646	-1.8083	-2.5646	-1.9979	-1.9875	208.747	405.150	344.799	130.564	223.197	382.170	423.591	204.835	244.518	152.141	177.530	412.544	417.619	442.181	250.721	450.983	0.0012884	0.0010311	0.00027871	510.72	7.2309e-06	3.3762e-06	593.3	192.97	7.5846e-06	5.3078e-06	258.51	127.48	94.449	45.408	6.118e-06	58.058	0.00098655	0.00098799	0.00027434	551.85	1.0642e-05	1.0818e-05	637.09	208.76	1.0699e-05	1.0714e-05	280.77	135.37	101.66	48.824	1.0652e-05	62.389	469.769	185.436	204.705	136.292	238.477	217.373	135.316	141.902	232.032	327.175	140.346	143.127	145.060	148.393	204.693	145.816	-8191	255	
1155.499	1	1	0	0	0.021325	0.10485	0.15297	0.2338	0.23462	0.18861	0.15257	0.12715	0.20377	0.036503	0.24092	0.29906	0.10778	0.19347	0.17105	0.25476	-1.9375	-2.0438	-1.9729	-2.3187	-1.6562	-2.1833	-2.1625	-2.0021	-2.4958	-2.0479	-2.125	-2.4771	-1.8958	-2.3563	-2	-1.8375	408.639	359.500	319.830	156.870	465.658	382.318	371.932	223.808	289.247	450.270	412.536	172.704	478.668	436.748	209.145	349.382	0.0012334	0.00062991	0.00010475	507.69	8.5818e-06	5.901e-06	589.11	192.15	7.8396e-06	7.4305e-06	259.05	126.97	92.802	44.885	2.1005e-06	57.602	0.00097987	0.00097228	0.00026966	549.51	1.0601e-05	1.068e-05	634.27	207.63	1.068e-05	1.0688e-05	280.06	134.78	100.92	48.369	1.0647e-05	61.952	476.444	191.150	339.975	136.087	238.033	248.548	135.340	141.584	221.038	262.934	140.214	143.092	144.742	148.359	179.803	146.080	-8191	255	
1155.595	1	1	0	0	0.21173	0.061486	0.050537	0.098715	0.10431	0.13582	0.077788	0.32414	0.062823	0.11964	0.11944	0.093088	0.20966	0.10131	0.11465	0.24024	-1.8667	-1.8042	-2.0917	-2.3271	-1.9771	-2.2229	-2.2562	-1.7667	-2.2146	-2.0625	-1.9583	-2.3688	-1.7938	-2.2417	-2.1917	-1.8729	435.515	148.132	333.521	469.627	290.037	428.670	471.935	381.305	275.321	410.472	124.367	341.599	406.528	431.268	176.517	441.803	0.0012419	0.00037045	4.5917e-05	508	5.582e-06	3.2728e-06	590.15	191.37	5.5599e-06	5.3945e-06	258.71	127.68	94.138	44.953	7.1796e-06	57.913	0.00098017	0.00097606	0.00026952	548.98	1.0584e-05	1.0757e-05	634.56	207.45	1.0649e-05	1.0593e-05	280.63	135.61	101.65	48.403	1.0698e-05	62.103	478.609	253.469	257.721	136.286	328.556	278.354	135.166	141.710	212.476	354.559	140.014	142.855	144.864	148.221	267.358	145.848	-8191	255	
1155.715	1	1	0	0	0.12473	0.096711	0.20033	0.11707	0.10645	0.098922	0.18732	0.16409	0.12613	0.083201	0.21139	0.12588	0.32532	0.22562	0.24273	0.13537	-1.7708	-1.9896	-1.8687	-2.4417	-1.8875	-2.0771	-2.3792	-1.7229	-2.3396	-2.15	-1.8833	-2.4375	-2.0042	-2.1625	-2.3854	-1.7542	451.043	394.473	237.074	390.237	378.576	441.030	357.499	414.573	290.942	449.724	159.536	404.152	189.443	462.006	462.312	460.384	0.0011578	0.00015643	0.00014139	509.21	3.5358e-06	4.4526e-06	591.73	192.35	4.6425e-06	5.0449e-06	261.01	128.88	94.01	44.931	4.3542e-06	58.026	0.00098884	0.00097922	0.0002741	549.83	1.0525e-05	1.0768e-05	636.52	207.75	1.07e-05	1.0761e-05	282.16	136.31	101.85	48.554	1.0738e-05	62.223	474.660	272.541	275.030	136.439	258.568	277.993	135.366	141.808	230.070	266.913	139.876	143.020	144.852	148.257	175.215	146.137	-8191	255	
1155.810	1	1	0	0	0.13844	0.21727	0.16795	0.26114	0.18453	0.049085	0.2724	0.096262	0.10796	0.29133	0.039453	0.3321	0.24048	0.23855	0.45787	0.38138	-1.9042	-2.0917	-1.9229	-2.2125	-1.9083	-2.1896	-2.2958	-1.9292	-2.2896	-2.1229	-2.0021	-2.375	-2.0917	-2.1312	-2.3	-1.6187	164.748	341.794	194.808	156.521	192.816	396.444	249.116	468.557	171.172	431.490	312.675	473.030	449.211	450.817	255.774	139.589	0.0013141	0.00048538	0.00015758	509.23	7.5729e-06	4.2276e-06	588.66	192.77	5.1315e-06	5.5588e-06	258.71	127.95	94.577	45.571	4.7504e-06	57.995	0.00098324	0.00098027	0.00027212	550.11	1.0601e-05	1.088e-05	634.66	208.08	1.0761e-05	1.0733e-05	280.57	136.25	102.26	49.045	1.0763e-05	62.444	479.361	207.542	126.667	136.284	190.341	261.823	135.236	141.971	172.984	278.879	140.027	142.957	144.843	148.341	207.869	145.961	-8191	255	
1155.908	1	1	0	0	0.11033	0.25072	0.10147	0.092088	0.097151	0.076401	0.43244	0.15159	0.11691	0.15134	0.12067	0.25611	0.20554	0.35709	0.080866	0.054575	-1.7417	-2.1792	-1.7667	-2.275	-1.9312	-2.05	-2.4292	-1.8813	-2.2271	-2.1771	-1.8208	-2.3479	-1.9083	-1.8375	-2.1813	-1.975	248.178	220.482	385.978	153.006	360.096	293.966	390.199	427.113	336.043	359.994	298.783	240.964	451.018	448.149	263.937	335.141	0.001257	0.00032139	9.78e-05	508.25	8.1521e-06	9.744e-06	593.64	193.04	9.3189e-06	5.9314e-06	258.59	127.25	93.908	45.435	8.878e-06	58.193	0.00099414	0.00098609	0.00027662	549.71	1.0813e-05	1.0943e-05	634.8	208.73	1.0837e-05	1.0845e-05	280.94	135.78	101.91	48.95	1.0839e-05	62.437	478.827	243.311	273.191	136.386	265.989	298.385	135.151	141.740	244.828	197.942	140.071	143.117	145.029	148.462	259.517	146.006	-8191	255	
1156.004	1	1	0	0	0.22883	0.19782	0.11507	0.11226	0.071656	0.23542	0.21118	0.13831	0.1175	0.14348	0.34051	0.026033	0.27358	0.17581	0.21218	0.17434	-1.5396	-1.9896	-1.7563	-2.3917	-2.1375	-2.0792	-2.3063	-1.6	-2.1	-2.1854	-1.8813	-2.1688	-2.0563	-1.8813	-2.3042	-2.1646	436.893	448.755	463.916	202.480	404.863	402.243	325.748	382.255	130.854	280.621	440.088	384.890	479.222	385.203	172.104	362.415	0.0012419	0.00029418	5.8712e-05	509.18	7.0062e-06	7.2557e-07	592.25	192.91	2.4133e-06	1.109e-06	260.69	128.06	94.638	45.538	6.8302e-06	58.482	0.00099796	0.00099888	0.00027551	550.81	1.0794e-05	1.0901e-05	636	208.62	1.0837e-05	1.083e-05	282.56	136.64	102.39	48.982	1.0852e-05	62.584	472.759	127.179	131.714	136.336	251.042	247.868	135.402	141.543	231.896	183.054	139.980	143.089	144.793	148.203	281.622	145.981	-8191	255	
1156.098	1	1	0	0	0.18824	0.12556	0.14119	0.12075	0.18534	0.17717	0.017421	0.33736	0.24886	0.21253	0.14707	0.13164	0.16287	0.12948	0.37243	0.12324	-1.7479	-2.2646	-1.9375	-2.1125	-2.4771	-1.9813	-2.4583	-2.1562	-2.0375	-2.4813	-1.9417	-2.3021	-2.2938	-1.9708	-2.3417	-2.1229	285.487	349.171	339.118	152.889	431.747	308.825	316.956	398.917	153.855	324.502	469.334	340.311	480.438	276.566	323.233	148.604	0.0012432	0.00047524	4.0913e-05	509.81	1.2338e-06	7.03e-06	592.55	193.03	2.5518e-06	6.1612e-06	261.11	128.49	93.858	45.666	1.8277e-06	58.149	0.00098965	0.00099622	0.00027356	551.3	1.0713e-05	1.092e-05	638.08	208.87	1.0799e-05	1.095e-05	283.39	136.75	102.12	49.135	1.0851e-05	62.61	472.948	439.604	287.419	135.988	310.150	243.783	135.415	141.745	291.447	297.133	140.113	143.135	144.708	148.478	266.324	146.271	-8191	255	
1156.194	1	1	0	0	0.22181	0.15906	0.079898	0.11179	0.29957	0.12029	0.18865	0.018136	0.091895	0.22854	0.030529	0.25394	0.1493	0.31858	0.06582	0.2368	-1.725	-2.2125	-1.9167	-2.3	-2.2896	-1.7708	-2.5708	-2.1125	-1.9417	-2.4375	-1.95	-2.1375	-2.3812	-1.9417	-2.1083	-2.1521	473.711	375.130	290.078	292.249	203.744	291.301	380.084	251.973	162.549	408.194	263.404	419.422	165.448	389.793	144.544	439.006	0.0012498	0.00041465	0.00018224	508.29	1.117e-05	3.4376e-06	591.43	194.28	2.6691e-06	3.2391e-06	260.52	128.5	94.808	46.047	6.1504e-06	58.425	0.00098997	0.0010011	0.00027655	550.72	1.0811e-05	1.0932e-05	635.78	209.66	1.0815e-05	1.0872e-05	282.24	136.48	102.65	49.482	1.0852e-05	62.791	474.988	224.646	209.014	136.020	235.133	247.487	135.574	141.858	224.580	327.791	140.021	143.118	144.642	148.261	329.635	145.895	-8191	255	
1156.290	1	1	0	0	0.29799	0.015591	0.12614	0.24426	0.16195	0.15806	0.17131	0.13739	0.17282	0.1917	0.14631	0.16544	0.1339	0.17415	0.13513	0.048764	-1.5479	-2.2979	-1.9417	-2.1104	-2.225	-1.8417	-2.1833	-2.1833	-1.7354	-2.3354	-2.0958	-1.8937	-2.3979	-1.7104	-2.2271	-2.2104	383.384	426.421	218.677	422.010	153.572	126.523	275.866	350.249	228.196	360.202	464.226	262.502	147.648	430.630	203.373	165.644	0.001213	0.0008268	5.5346e-05	510.46	9.7165e-06	4.919e-06	589.14	193.59	8.6425e-06	1.0788e-05	260.97	128.92	94.984	46.07	5.5458e-06	58.607	0.00099324	0.00099058	0.00027516	551.29	1.0655e-05	1.0885e-05	634.78	209.36	1.0853e-05	1.0886e-05	282.58	136.82	102.85	49.526	1.0992e-05	63.01	475.821	268.264	273.992	136.251	282.220	274.905	135.584	141.854	274.071	256.539	140.120	142.853	144.751	148.400	254.764	145.900	-8191	255	
1156.411	1	1	0	0	0.12503	0.17278	0.17657	0.1757	0.17705	0.16473	0.29347	0.095322	0.071122	0.25532	0.11096	0.2639	0.066949	0.12713	0.14047	0.071408	-1.4958	-2.2146	-2.0271	-2.0646	-2.3604	-2.0312	-2.1583	-2.4292	-1.7875	-2.3458	-2.0604	-2.0208	-2.3917	-2.0729	-2.175	-2.2313	385.323	158.792	404.095	309.379	437.828	269.280	405.280	279.951	433.017	129.219	427.619	134.737	291.479	252.079	473.503	325.247	0.0012371	0.00030812	4.8259e-05	512.23	8.4141e-06	9.779e-07	594.49	193.63	2.8189e-06	3.3472e-06	261.76	129.11	95.167	46.074	8.5625e-06	59.037	0.00099694	0.0010013	0.00027688	552.61	1.0825e-05	1.0976e-05	637.86	210.07	1.0845e-05	1.103e-05	283.53	137.23	103.04	49.568	1.096e-05	63.235	473.589	235.349	284.935	136.338	280.629	217.847	135.388	141.979	300.947	369.767	139.922	143.212	144.830	148.367	282.584	146.199	-8191	255	
1156.507	1	1	0	0	0.45038	0.18404	0.12202	0.2335	0.17947	0.091258	0.23005	0.096673	0.074986	0.063389	0.10827	0.31125	0.24147	0.17073	0.13057	0.17986	-1.3896	-2.275	-1.8604	-1.9167	-2.4062	-1.8354	-2.1771	-2.2542	-1.6896	-2.1542	-2.0604	-2.0292	-2.3646	-2.0229	-2.1083	-2.4125	125.716	367.702	309.763	213.011	442.364	308.395	284.905	408.014	299.867	357.041	343.915	427.875	267.809	330.812	387.887	213.653	0.0014426	0.00083963	0.00015785	512.9	2.7423e-06	4.6591e-06	598.25	195.03	2.1629e-06	9.4655e-06	263.13	130.27	95.489	46.36	2.9609e-06	59.344	0.0010147	0.001015	0.00027964	554.45	1.0918e-05	1.1019e-05	641.65	210.97	1.1019e-05	1.1078e-05	285.68	138.08	103.23	49.875	1.1051e-05	63.571	478.641	202.779	234.162	136.343	183.047	245.718	135.094	141.889	336.115	213.435	140.372	143.072	144.915	148.489	228.881	146.099	-8191	255	
1156.579	1	1	0	0	0.32022	0.088306	0.14938	0.1237	0.084526	0.10972	0.20183	0.24804	0.10826	0.16874	0.042438	0.36583	0.26781	0.058075	0.12336	0.29656	-1.4458	-2.1562	-2.05	-1.8438	-2.2292	-2.0208	-2.0604	-2.3479	-1.8312	-2.0729	-2.2146	-1.9	-2.4083	-2.0708	-1.9021	-2.5229	354.292	338.343	429.674	408.266	357.981	382.423	150.154	464.114	239.464	281.682	463.882	480.454	473.170	381.043	365.328	366.020	0.0013992	0.00070142	0.00023982	513.32	6.8213e-06	8.8693e-06	595.8	195.23	7.2323e-06	5.8061e-06	262.92	129.59	95.191	46.4	5.5757e-06	59.021	0.0010115	0.0010206	0.00028113	555.09	1.1087e-05	1.1096e-05	640.41	210.9	1.0981e-05	1.1058e-05	284.58	137.79	103.53	49.933	1.1049e-05	63.413	476.381	228.581	272.378	136.323	205.090	286.203	135.481	141.947	269.672	240.120	140.103	142.824	145.016	148.228	191.648	146.043	-8191	255	
1156.675	1	1	0	0	0.35147	0.078171	0.077867	0.40693	0.3235	0.24985	0.15046	0.19385	0.12133	0.046071	0.10594	0.1289	0.08355	0.15592	0.1758	0.25193	-1.4146	-2.1146	-2.125	-1.8604	-2.3187	-2.0667	-2.0042	-2.3729	-1.8521	-2.2333	-2.375	-1.7375	-2.5521	-2.2271	-1.9937	-2.5396	408.468	175.540	397.264	466.701	372.402	417.570	381.325	427.626	210.855	450.669	433.604	329.843	159.485	423.550	332.944	434.852	0.0013993	0.00050585	0.00021879	509.61	3.7152e-06	7.8519e-07	592.53	194.41	7.7835e-06	3.6846e-06	261.49	128.43	94.941	46.649	1.1813e-05	59.344	0.0010054	0.0010198	0.00028101	552.96	1.1037e-05	1.1076e-05	638.28	210.37	1.0985e-05	1.113e-05	284.46	136.52	102.96	50.09	1.0983e-05	63.66	476.675	216.780	242.369	136.329	222.855	291.468	135.671	141.833	258.138	180.714	139.952	143.150	145.249	148.429	269.788	146.150	-8191	255	
1156.794	1	1	0	0	0.061321	0.10622	0.091904	0.2679	0.14334	0.29849	0.14249	0.22259	0.17603	0.20899	0.11375	0.056631	0.10261	0.30718	0.15274	0.060698	-1.5125	-2.0896	-2.3354	-2.0125	-2.2479	-2.2667	-1.9312	-2.4792	-1.8104	-2.2438	-2.3854	-1.9167	-2.4333	-2.1813	-1.8333	-2.4771	333.460	465.658	338.690	431.717	142.951	231.284	193.255	378.857	181.635	404.499	433.332	438.216	469.538	438.593	164.291	430.754	0.0012727	0.00058306	0.0002031	513.48	5.8305e-06	4.3729e-06	595.09	194.92	4.1431e-06	6.0958e-06	262.99	129.19	95.549	46.589	3.7407e-06	59.654	0.0010139	0.001017	0.00028009	554.88	1.1042e-05	1.1029e-05	641.07	211.58	1.1038e-05	1.1114e-05	285.62	137.44	103.54	50.168	1.1067e-05	63.95	478.687	197.841	246.272	136.256	264.001	230.127	135.180	142.080	177.989	141.445	140.095	142.993	144.953	148.540	233.771	146.079	-8191	255	
1156.890	1	1	0	0	0.13395	0.11812	0.022339	0.022418	0.076202	0.20857	0.28448	0.1125	0.10553	0.049883	0.078058	0.39197	0.061331	0.23841	0.16107	0.1887	-1.6313	-2.0229	-2.1437	-2.0062	-2.1688	-2.0729	-1.9896	-2.4875	-1.9729	-1.9208	-2.4562	-2.0062	-2.1562	-2.3583	-1.8708	-2.4333	315.602	296.431	151.072	180.494	468.936	293.621	471.472	351.185	420.275	181.836	327.127	453.626	208.701	418.762	330.561	446.753	0.0013225	0.00062471	7.771e-05	513.28	7.8471e-06	5.2899e-06	602.96	194.95	8.4388e-06	1.7231e-06	264.51	130.23	95.477	46.681	5.4352e-06	59.772	0.0010062	0.0010127	0.00028161	555.28	1.0959e-05	1.1076e-05	644.23	211.83	1.0941e-05	1.1111e-05	287.09	138.26	103.75	50.31	1.0966e-05	64.091	475.634	196.380	162.909	136.461	233.709	229.539	135.072	141.877	223.434	342.595	140.105	142.986	144.911	148.634	193.278	146.469	-8191	255	
1156.988	1	1	0	0	0.17537	0.1738	0.16671	0.14181	0.048623	0.14077	0.25686	0.12245	0.17404	0.34917	0.28668	0.067039	0.19139	0.22241	0.20706	0.15029	-1.5583	-2.0208	-2.3333	-1.9562	-2.0604	-2.1937	-1.9854	-2.275	-2.0958	-1.8937	-2.2562	-1.8937	-2.1188	-2.3521	-1.8396	-2.4458	320.911	223.784	475.603	387.469	324.158	437.371	424.142	306.751	246.389	197.494	322.084	212.989	296.427	436.968	346.730	395.317	0.0013125	0.00075198	8.0179e-05	514.96	3.9127e-06	3.2149e-06	597.01	195.31	3.8267e-06	4.2238e-06	262.09	129.67	95.705	47.056	1.0477e-05	59.605	0.0010073	0.0010185	0.00028169	556.32	1.1077e-05	1.1084e-05	642.64	211.98	1.0922e-05	1.1158e-05	285.52	137.75	103.82	50.626	1.0964e-05	63.977	475.019	199.806	251.278	136.421	239.737	287.939	135.394	141.524	163.102	269.230	139.961	143.149	145.182	148.568	273.150	146.156	-8191	255	
1157.107	1	1	0	0	0.12209	0.1632	0.18017	0.058567	0.15519	0.20561	0.064018	0.077029	0.11083	0.2524	0.16285	0.24211	0.42984	0.14161	0.30041	0.10185	-1.85	-1.8792	-2.2625	-1.9771	-2.1688	-2.2229	-1.9417	-2.2375	-2.1021	-1.8188	-2.3792	-2.0292	-2.0833	-2.3312	-1.6979	-2.3396	178.000	313.138	380.033	439.634	303.616	461.034	202.595	268.023	124.376	191.222	461.236	207.558	224.881	401.430	269.714	364.345	0.0011825	0.00084894	4.2913e-05	510.8	3.284e-06	7.8672e-06	591.34	195.45	2.4714e-06	4.6391e-06	263.61	129.39	95.93	47.148	3.881e-06	59.855	0.0010115	0.0010189	0.00028179	553.78	1.1027e-05	1.1061e-05	639.04	211.71	1.1006e-05	1.0988e-05	285.94	137.83	103.91	50.722	1.1031e-05	64.223	478.440	185.315	265.441	136.316	272.752	229.510	135.524	141.934	211.542	334.540	140.036	143.149	144.887	148.507	243.014	146.124	-8191	255	
1157.179	1	1	0	0	0.36653	0.097032	0.244	0.17559	0.11626	0.086038	0.24205	0.17084	0.19548	0.22307	0.16796	0.1508	0.16061	0.066258	0.21593	0.15588	-1.7271	-2.0646	-2.1583	-1.9479	-2.025	-2.4542	-1.9375	-2.1792	-2.0938	-1.8563	-2.3833	-2.1021	-2.2375	-2.5	-1.9042	-2.0979	276.158	130.304	183.747	306.871	393.534	256.219	252.123	153.411	266.190	422.423	340.380	248.785	414.048	244.553	256.230	372.217	0.001413	0.00031191	0.00012076	511.89	8.4898e-06	1.0046e-05	595.15	196.33	8.9757e-06	3.9087e-06	265.39	130.48	95.941	47.08	8.4521e-06	59.603	0.0010093	0.0010125	0.00027987	555.18	1.1031e-05	1.1167e-05	641.41	211.99	1.0956e-05	1.1082e-05	286.82	138.36	103.94	50.58	1.0989e-05	64.21	473.857	178.490	184.570	136.386	285.018	238.480	135.411	141.944	264.883	284.688	140.055	143.017	145.112	148.428	306.802	145.838	-8191	255	
1157.275	1	1	0	0	0.14066	0.26198	0.21873	0.1341	0.24168	0.093828	0.35437	0.25875	0.068552	0.13846	0.10471	0.1824	0.045482	0.28032	0.099484	0.1624	-1.6812	-1.5562	-2.3104	-2.1667	-1.7792	-2.1854	-1.9667	-2.1708	-2.1875	-1.9875	-2.3729	-2.4771	-2	-2.4854	-1.8563	-2.3	372.162	333.593	144.161	342.056	422.350	127.494	437.022	420.353	454.517	346.239	447.719	345.660	155.225	480.806	301.606	462.318	0.0012883	0.00041271	0.00016512	512.27	9.6347e-06	1.1436e-05	598.11	196.97	5.0269e-06	3.2998e-06	265.87	130.69	96.858	47.167	1.107e-05	60.006	0.0010108	0.0010161	0.00028223	555.49	1.0999e-05	1.1114e-05	644.16	212.67	1.1138e-05	1.1071e-05	288.35	138.74	104.61	50.862	1.1145e-05	64.407	477.085	479.333	266.890	135.985	303.093	170.471	135.329	141.927	166.732	299.585	139.846	142.893	144.929	148.646	269.552	145.994	-8191	255	
1157.395	1	1	0	0	0.16975	0.26113	0.12806	0.10281	0.074861	0.35935	0.23224	0.26066	0.076451	0.14862	0.064946	0.31325	0.30082	0.19196	0.11188	0.27624	-1.8333	-1.7708	-2.2458	-2.1354	-1.8188	-2.2542	-2.0521	-2.0104	-2.3833	-1.7437	-2.3292	-2.2062	-1.9375	-2.4125	-2.1875	-1.9937	290.444	313.084	133.558	161.153	259.696	428.962	405.735	341.173	270.588	277.016	166.687	426.750	355.786	136.912	198.207	333.105	0.0013173	0.00064025	7.6811e-05	515.97	5.431e-06	4.2616e-06	597.29	196.22	6.2643e-06	6.5993e-06	264.66	130.26	96.383	47.412	1.7361e-06	59.583	0.0010168	0.0010176	0.00028455	556.7	1.0969e-05	1.1244e-05	641.93	212.85	1.0991e-05	1.1091e-05	286.88	138.4	104.39	50.881	1.1005e-05	64.011	477.247	224.847	235.435	136.264	241.893	264.217	135.340	141.751	228.109	231.805	139.950	142.980	144.964	148.713	328.092	146.198	-8191	255	
1157.491	1	1	0	0	0.14165	0.36746	0.16475	0.19961	0.067438	0.18989	0.17308	0.25778	0.069236	0.13509	0.16236	0.24022	0.12003	0.34393	0.19494	0.19443	-1.9708	-1.6396	-2.2188	-2.4292	-1.7542	-2.2083	-2.3125	-1.8417	-2.3333	-1.9396	-2.1937	-2.4417	-1.9021	-2.4146	-1.9604	-1.9375	146.275	408.091	417.402	482.965	199.309	462.760	155.399	424.328	227.047	472.789	208.052	478.152	468.885	430.419	157.066	392.113	0.001438	0.00024728	0.0001908	511.83	2.2181e-06	9.6699e-06	594.42	195.42	4.8777e-06	2.6911e-06	264.74	130.59	96.697	47.337	6.0778e-06	59.952	0.0010166	0.001012	0.00028254	553.81	1.0994e-05	1.1145e-05	639.17	211.83	1.1025e-05	1.0962e-05	286.27	138.5	104.31	50.879	1.0972e-05	64.177	477.913	469.581	314.184	136.126	363.643	328.729	135.375	141.953	210.675	295.191	140.084	142.729	144.876	148.685	218.357	146.145	-8191	255	
1157.588	1	1	0	0	0.1308	0.18372	0.0733	0.47967	0.32364	0.22997	0.11174	0.37494	0.031687	0.2973	0.12851	0.32759	0.080756	0.1775	0.14747	0.057405	-1.7979	-1.9562	-1.7646	-2.3229	-1.6125	-2.2417	-1.9771	-1.8271	-2.4479	-2.0021	-2.1479	-2.5563	-1.8667	-2.3083	-2.1063	-2.1437	224.067	480.139	293.905	420.591	168.014	308.325	432.661	390.225	142.513	262.560	145.081	389.546	327.685	362.415	292.742	354.788	0.0013741	0.00052979	0.00018154	513.24	8.801e-06	7.1498e-06	596.63	195.78	2.5532e-06	6.8703e-06	265.63	130.12	96.891	47.648	6.7093e-06	60.125	0.0010189	0.0010087	0.00028232	555.59	1.0988e-05	1.1167e-05	640.48	212.45	1.0977e-05	1.1147e-05	287.51	138.71	104.52	51.169	1.1125e-05	64.404	477.107	236.680	205.114	136.141	249.485	278.412	135.182	141.717	256.557	214.462	139.980	142.866	144.821	148.443	246.254	146.256	-8191	255	
1157.708	1	1	0	0	0.2268	0.041021	0.21983	0.0895	0.084312	0.10398	0.11014	0.27736	0.17582	0.21665	0.13178	0.28305	0.32536	0.20762	0.12131	0.16249	-1.9292	-1.7542	-1.6562	-2.2854	-1.8354	-2.2792	-2.3354	-1.8146	-2.2792	-1.9833	-1.9354	-2.2292	-1.8417	-2.2625	-2.2917	-1.8438	345.516	128.780	183.813	475.240	318.258	252.591	412.022	126.406	183.743	404.626	405.828	342.850	453.171	212.555	394.191	409.028	0.0013703	0.00053845	0.00026947	514.6	6.8137e-06	3.2063e-06	601.23	196.91	7.0621e-06	1.118e-05	265.84	131.25	96.44	47.443	1.0081e-05	60.375	0.001018	0.0010188	0.00028537	556.79	1.1015e-05	1.1188e-05	644.66	212.93	1.1093e-05	1.1208e-05	288.41	139.46	104.75	51.004	1.1146e-05	64.433	474.680	293.320	205.000	136.243	213.657	220.342	135.454	142.025	243.191	274.988	140.141	142.948	145.036	148.359	276.304	145.851	-8191	255	
1157.804	1	1	0	0	0.2346	0.14251	0.053034	0.11331	0.25071	0.20079	0.25359	0.10742	0.03607	0.17816	0.088904	0.21695	0.29573	0.17415	0.14885	0.24781	-1.7979	-1.9396	-1.7792	-2.2354	-1.9917	-2.0979	-2.1646	-1.8542	-2.4146	-2.0771	-2.0229	-2.5354	-2.1312	-2.0354	-2.4313	-1.7188	474.085	223.504	328.426	388.249	305.961	131.720	463.723	370.010	127.382	240.675	215.644	454.378	310.823	454.457	278.352	343.829	0.0013839	0.0002956	0.00013827	515.78	3.1624e-06	7.469e-06	595.87	197.11	6.2538e-06	6.4091e-06	264.52	130.52	96.58	47.199	9.9885e-07	59.286	0.0010227	0.0010226	0.00028147	556.15	1.0983e-05	1.1108e-05	641.82	212.96	1.1036e-05	1.1169e-05	287.28	138.69	104.45	50.874	1.1071e-05	63.868	471.427	191.189	245.146	136.402	314.730	259.827	135.450	142.380	272.855	286.791	140.192	143.087	144.907	148.418	296.563	145.947	-8191	255	
1157.876	1	1	0	0	0.23351	0.33776	0.072365	0.056207	0.15763	0.17078	0.057312	0.1708	0.076007	0.097165	0.21931	0.077534	0.11844	0.16243	0.27779	0.21141	-1.8687	-1.975	-1.8479	-2.3646	-2.0687	-1.975	-2.4313	-1.7479	-2.0292	-2.2542	-1.8687	-2.3208	-1.9458	-1.8188	-2.3542	-1.9792	422.181	333.446	257.890	158.786	283.970	143.143	161.754	405.693	348.069	391.983	166.012	321.671	156.459	241.896	362.530	195.624	0.0013326	0.00037173	4.863e-05	511.75	1.3349e-05	4.6464e-06	593.84	196.58	7.4695e-06	7.3575e-06	263.99	130.4	97.072	47.546	6.145e-06	59.889	0.0010212	0.0010186	0.00028011	554.27	1.104e-05	1.1181e-05	638.73	212.41	1.1121e-05	1.1106e-05	286.98	138.6	104.77	51.104	1.1164e-05	64.267	476.221	224.492	295.495	136.592	267.303	243.403	135.592	142.028	250.760	290.752	140.227	143.081	144.648	148.431	307.090	145.874	-8191	255	
1157.972	1	1	0	0	0.2641	0.058478	0.15686	0.24622	0.059339	0.19143	0.10946	0.16181	0.35671	0.21208	0.2683	0.22291	0.10381	0.25525	0.20946	0.42821	-1.5167	-2.1896	-1.7062	-2.4	-2.0812	-1.7375	-2.3104	-1.7917	-2.0604	-2.2979	-1.8563	-2.2375	-2.0458	-2.0167	-2.2667	-1.875	362.554	230.675	287.446	420.999	341.823	303.815	420.417	184.613	368.720	133.737	473.341	296.420	466.418	387.858	464.043	410.214	0.00138	0.00066461	0.00017989	513.64	5.1242e-06	5.1395e-06	598.47	197.21	4.8627e-06	7.9359e-06	263.96	130.55	96.654	47.443	7.2429e-06	59.919	0.0010233	0.0010217	0.00028048	556.43	1.1015e-05	1.1304e-05	642.69	213.02	1.1105e-05	1.1098e-05	287.45	138.93	104.77	51.152	1.1186e-05	64.372	478.025	173.676	343.347	136.276	298.942	302.878	135.374	142.044	241.380	258.808	140.111	142.878	144.790	148.651	225.942	145.995	-8191	255	
1158.091	1	1	0	0	0.24856	0.28601	0.10732	0.088694	0.070204	0.14915	0.07975	0.19938	0.15019	0.26558	0.14786	0.22206	0.12197	0.4193	0.027146	0.25134	-1.45	-2.2958	-1.8062	-2.3937	-2.1188	-2.0062	-2.4292	-2.1167	-2.1083	-2.3812	-1.9167	-2.3521	-2.3063	-1.9583	-2.2271	-2.0417	482.077	194.523	457.957	127.342	439.343	438.132	372.635	442.724	292.321	264.918	382.745	440.336	160.728	457.079	315.381	393.827	0.0011617	0.00058155	7.2102e-05	514.33	6.3785e-06	7.7628e-06	601.58	197.6	7.6695e-06	7.2914e-06	267.63	131.47	96.71	47.749	1.0264e-05	60.397	0.0010251	0.0010246	0.00028238	557.4	1.1008e-05	1.1251e-05	645.74	213.59	1.1125e-05	1.1209e-05	289.4	139.92	105.01	51.46	1.131e-05	64.889	472.937	208.248	281.044	136.227	207.347	251.623	135.352	141.939	167.537	296.999	139.844	142.927	144.748	148.572	225.376	146.338	-8191	255	
1158.187	1	1	0	0	0.39386	0.16685	0.20279	0.21988	0.16963	0.089492	0.22583	0.21472	0.10181	0.3426	0.39272	0.24142	0.13337	0.13949	0.17134	0.41742	-1.5792	-2.2062	-1.8312	-2.1625	-1.9312	-1.8771	-2.3708	-2.0604	-1.8792	-2.35	-1.9562	-2.2021	-2.3958	-1.8583	-2.1833	-2.2104	204.795	463.710	311.268	270.570	465.076	297.522	447.066	301.891	240.492	458.296	414.522	382.407	413.654	479.183	196.372	405.288	0.0012992	0.00057734	0.00024184	516.78	9.766e-06	4.8353e-06	600.63	197.48	6.0107e-06	6.4265e-06	265.76	131.76	97.626	47.657	9.5103e-06	59.878	0.0010249	0.0010296	0.00028285	559.13	1.11e-05	1.1226e-05	645.1	213.57	1.1084e-05	1.1179e-05	288.29	139.63	105.58	51.36	1.1206e-05	64.429	478.704	198.351	261.882	136.263	216.285	308.604	135.203	141.873	259.741	323.395	139.896	142.996	144.855	148.591	248.366	145.784	-8191	255	
1158.283	1	1	0	0	0.042393	0.10219	0.10441	0.23164	0.18298	0.068974	0.093423	0.16662	0.27127	0.28732	0.17291	0.069388	0.2238	0.19741	0.1768	0.23367	-1.5083	-2.1792	-1.8271	-2.1146	-2.2146	-1.975	-2.4542	-2.2604	-1.8792	-2.3979	-2.2042	-2.3438	-2.2229	-1.9292	-2.2771	-2.3854	222.007	192.324	240.907	416.457	219.805	419.868	148.691	154.602	325.328	137.567	155.204	460.678	202.685	473.519	283.782	350.225	0.0013722	0.00053064	0.00027846	513.01	3.7895e-06	1.9408e-06	596.16	197.35	1.8662e-06	8.969e-06	265.53	130.98	96.756	47.734	8.5556e-06	59.928	0.0010309	0.0010281	0.0002839	556.96	1.1111e-05	1.1167e-05	641.45	213.37	1.1022e-05	1.1105e-05	287.8	139.32	105.01	51.367	1.1128e-05	64.551	479.158	450.727	238.412	136.224	266.572	462.062	135.330	141.950	216.999	270.616	140.127	143.119	144.877	148.567	232.014	145.894	-8191	255	
1158.380	1	1	0	0	0.094317	0.087784	0.32239	0.33995	0.094053	0.11647	0.14568	0.18658	0.15983	0.25672	0.10312	0.025458	0.13381	0.23444	0.25335	0.14922	-1.6229	-2.3	-1.7958	-1.95	-2.2313	-1.7229	-2.0792	-2.1542	-1.8646	-2.3354	-2.0604	-2.2667	-2.4125	-1.9562	-2.2083	-2.3812	144.237	415.364	254.564	463.701	147.923	305.632	262.100	432.627	227.433	189.921	128.178	426.228	368.277	457.865	154.370	446.034	0.0013666	0.00032781	0.00019429	514.38	5.4119e-06	3.962e-06	598.11	197	7.4739e-06	1.1735e-05	265.42	130.72	97.221	47.78	7.3302e-06	60.443	0.0010257	0.001024	0.00028347	557.32	1.1151e-05	1.1184e-05	642.93	213.63	1.1125e-05	1.1204e-05	288.2	139.33	105.16	51.4	1.1173e-05	64.797	477.656	182.325	241.019	136.314	231.971	234.816	135.678	141.811	217.997	286.152	140.491	142.994	144.800	148.835	276.752	146.100	-8191	255	
1158.476	1	1	0	0	0.20831	0.15531	0.076619	0.25581	0.086895	0.2343	0.45206	0.1401	0.16904	0.25514	0.24036	0.18956	0.41492	0.3071	0.16619	0.2466	-1.3792	-2.3583	-1.8708	-2.0938	-2.4479	-1.9729	-2.2021	-2.2333	-1.7	-2.2562	-2.175	-1.9958	-2.3583	-1.9417	-2.0208	-2.3187	210.494	465.857	131.282	476.581	185.586	124.456	403.894	407.627	268.970	257.036	138.855	378.185	455.730	217.511	395.312	444.460	0.0013253	0.00040979	0.00011486	514.41	9.1538e-06	5.9088e-06	599.03	198.29	7.4806e-06	3.4803e-06	268.92	132.14	97.315	48.239	6.5624e-06	60.729	0.0010208	0.0010295	0.0002867	558.88	1.1142e-05	1.1231e-05	646.15	214.57	1.112e-05	1.1442e-05	290.81	140.59	105.73	51.81	1.1229e-05	65.218	472.904	142.500	246.703	136.075	271.306	232.706	135.449	142.049	264.597	200.903	140.073	142.887	145.068	148.654	227.382	146.036	-8191	255	
1158.572	1	1	0	0	0.136	0.21739	0.12677	0.20105	0.070032	0.087451	0.15337	0.11554	0.081587	0.1076	0.20877	0.31435	0.24765	0.38187	0.14375	0.51139	-1.3563	-2.2208	-2.0062	-1.9438	-2.3812	-1.9396	-2.0667	-2.2625	-1.85	-2.1188	-2.0125	-1.8208	-2.3854	-2.1646	-2	-2.4938	176.300	238.482	292.577	414.387	127.981	428.865	440.103	161.704	435.817	414.371	375.575	412.879	448.145	396.573	338.541	420.438	0.0014083	0.00083431	0.00016193	517.35	6.3191e-06	6.1226e-06	598.49	198.24	5.1908e-06	3.6198e-06	265.38	131.02	97.658	47.992	1.0775e-05	59.897	0.00102	0.001041	0.0002874	559.94	1.1205e-05	1.1152e-05	645.16	214.6	1.1093e-05	1.1267e-05	288.96	139.79	105.76	51.534	1.1146e-05	64.521	477.470	181.977	214.137	136.381	239.176	283.226	135.508	141.752	212.330	361.433	139.931	142.964	145.134	148.436	204.732	146.108	-8191	255	
1158.668	1	1	0	0	0.079091	0.17785	0.18799	0.1547	0.381	0.19967	0.060398	0.14435	0.12832	0.08793	0.06886	0.38677	0.13167	0.21209	0.23741	0.13674	-1.375	-2.0958	-2.0229	-1.7646	-2.3563	-2.1562	-2.1729	-2.375	-1.7875	-2.0833	-2.2812	-1.7917	-2.2229	-2.1	-1.8208	-2.3792	236.658	190.606	353.367	404.365	387.633	463.969	433.866	466.932	233.256	180.604	441.172	431.000	326.643	467.709	446.301	383.292	0.0012976	0.00023698	0.00019073	515.28	4.6657e-06	4.508e-06	596.44	197.89	6.0322e-07	9.5876e-06	266.08	131.58	97.567	47.882	6.8401e-06	60.105	0.0010133	0.0010182	0.00028192	556.89	1.1011e-05	1.1093e-05	642.17	213.34	1.0999e-05	1.1121e-05	287.89	139.79	105.61	51.483	1.117e-05	64.467	479.446	251.157	259.722	136.217	244.570	313.375	135.195	141.820	252.450	280.735	140.055	142.998	145.068	148.557	287.246	145.836	-8191	255	
1158.789	1	1	0	0	0.089884	0.13719	0.067836	0.17293	0.1278	0.32754	0.25125	0.18718	0.050124	0.12437	0.064576	0.14236	0.075264	0.27797	0.23497	0.16174	-1.4833	-2.0229	-2.2958	-1.7729	-2.2833	-2.0687	-1.9	-2.3417	-1.7917	-2.2812	-2.375	-1.7875	-2.4396	-2.2104	-1.9208	-2.2229	124.166	401.347	145.165	433.588	388.343	266.659	309.852	364.786	380.788	181.719	412.855	458.360	376.164	361.941	390.835	432.314	0.0012517	0.00052418	0.00020673	513.89	7.2075e-06	2.5817e-06	597.37	197.6	5.2331e-06	6.1509e-06	264.64	131.89	98.195	47.997	4.1276e-06	60.221	0.0010132	0.0010224	0.00028335	557.05	1.1132e-05	1.1189e-05	641.7	213.96	1.111e-05	1.1202e-05	287.76	140.49	106.15	51.639	1.1145e-05	64.714	478.296	215.983	255.817	136.274	231.907	412.924	135.401	141.797	291.072	319.693	140.161	142.866	144.631	148.439	241.056	145.944	-8191	255	
1158.883	1	1	0	0	0.3049	0.2126	0.10469	0.12873	0.16214	0.037113	0.015585	0.17544	0.22695	0.084043	0.22644	0.13116	0.15536	0.29727	0.32794	0.21985	-1.4354	-1.9542	-2.1104	-1.9625	-2.1063	-2.025	-1.8	-2.2625	-1.6833	-2.0417	-2.3146	-1.925	-2.2146	-2.2313	-1.7042	-2.4458	143.723	464.514	203.591	465.025	128.286	347.860	380.683	427.352	308.108	139.762	427.112	371.355	352.611	131.785	165.727	464.018	0.0013418	0.00054187	0.00015755	516.98	6.7045e-06	2.4288e-06	598.7	197.91	6.5638e-06	9.664e-06	267.39	133.15	99.085	48.416	1.3739e-05	60.524	0.0010203	0.0010323	0.00028307	559.18	1.116e-05	1.1265e-05	644.21	214.36	1.1098e-05	1.1255e-05	289.67	141.75	106.86	52.015	1.1219e-05	65.162	477.601	151.847	263.616	136.288	225.115	183.501	135.509	141.929	188.237	231.221	140.174	143.000	144.776	148.515	252.401	145.986	-8191	255	
1158.979	1	1	0	0	0.21015	0.12378	0.14192	0.20757	0.24706	0.16156	0.11217	0.062288	0.26881	0.12325	0.15427	0.12941	0.19353	0.039362	0.15395	0.17654	-1.4917	-1.9229	-2.2375	-1.7646	-2.125	-2.2875	-1.8646	-2.425	-2.1271	-2.0417	-2.3396	-1.7833	-2.025	-2.4479	-1.6229	-2.2938	301.826	394.122	387.428	385.892	264.423	403.026	450.197	236.964	354.778	230.195	476.240	443.986	343.284	446.419	289.234	441.680	0.0013274	0.0007352	0.00012284	513.64	4.9292e-06	3.883e-06	598.05	197.94	4.1893e-06	3.0743e-06	264.97	132.08	98.471	48.306	8.362e-06	59.952	0.0010206	0.0010243	0.00028449	557.79	1.1157e-05	1.1267e-05	642.47	214.38	1.1017e-05	1.1227e-05	287.95	140.64	106.61	51.812	1.106e-05	64.494	479.905	142.020	250.878	136.151	259.824	291.655	135.508	142.135	182.936	221.933	140.032	142.999	145.021	148.402	241.456	145.851	-8191	255	
1159.075	1	1	0	0	0.14843	0.087652	0.27668	0.14309	0.22826	0.21354	0.16257	0.16932	0.11971	0.13801	0.19293	0.073156	0.30326	0.05004	0.048128	0.24147	-1.7271	-2.0271	-2.3375	-1.9542	-1.8896	-2.3771	-1.8937	-2.3396	-1.8292	-1.9562	-2.3917	-2.0792	-2.0438	-2.4354	-1.7896	-2.3812	236.429	432.138	421.107	200.761	302.484	383.945	318.010	146.192	348.115	356.690	238.156	435.783	251.493	415.815	410.704	433.171	0.0013409	0.00089278	0.00020603	513.54	4.1134e-06	3.1489e-06	594.2	198.39	2.9728e-06	6.6105e-06	266.24	133.84	99.225	48.665	1.0496e-05	60.672	0.0010234	0.0010307	0.00028355	555.83	1.1083e-05	1.1208e-05	638.55	214.03	1.115e-05	1.1117e-05	288.66	141.78	107.42	52.359	1.1074e-05	64.983	470.693	236.095	166.893	136.423	306.681	267.700	135.303	141.895	212.856	255.318	140.210	142.827	145.012	148.430	231.288	146.023	-8191	255	
1159.171	1	1	0	0	0.10722	0.09952	0.081858	0.13286	0.13822	0.20964	0.24517	0.11316	0.3525	0.08521	0.024363	0.47386	0.14249	0.21268	0.12005	0.14739	-1.8813	-1.7354	-2.3854	-1.9312	-1.9292	-2.2396	-1.7563	-2.175	-2.1562	-1.7646	-2.4458	-1.8875	-1.9312	-2.4208	-1.7437	-2.1917	359.687	203.539	420.691	321.668	432.806	387.021	456.807	368.985	390.653	265.385	270.487	477.337	376.814	442.305	149.122	125.452	0.0013121	0.00058339	0.00021044	513.41	9.7513e-06	6.0628e-06	597.83	198.28	4.4423e-06	4.8284e-06	267.08	134.21	100.23	48.946	2.455e-06	60.978	0.0010258	0.0010301	0.00028834	557.27	1.123e-05	1.1307e-05	641.22	214.66	1.1158e-05	1.1181e-05	289.6	142.61	108.22	52.591	1.1239e-05	65.364	476.304	483.524	299.035	136.392	223.330	161.565	135.505	141.879	209.236	279.196	139.991	143.019	145.027	148.344	229.280	145.905	-8191	255	
1159.268	1	1	0	0	0.27435	0.17226	0.17184	0.29229	0.12554	0.054029	0.18657	0.12148	0.17122	0.21483	0.12939	0.15772	0.29321	0.25741	0.058862	0.060868	-1.9458	-1.8729	-2.275	-2.1854	-1.8854	-2.4979	-2.0208	-2.2333	-2.3458	-1.8354	-2.3	-2.2625	-1.9146	-2.3937	-1.9521	-2.2771	423.042	462.511	468.864	212.662	219.485	323.190	434.742	355.112	446.201	432.644	313.835	383.915	131.163	415.266	366.472	464.710	0.0013614	0.00049841	0.00018658	515.31	5.9746e-06	6.3738e-06	597.68	198.41	7.7699e-06	3.7943e-06	268.66	134.69	100.81	48.894	7.4172e-06	60.687	0.0010252	0.0010298	0.00028746	557.61	1.1318e-05	1.1354e-05	644.14	215.1	1.1327e-05	1.1358e-05	291.07	143.29	108.68	52.622	1.136e-05	65.384	474.038	152.557	252.150	136.366	280.183	277.269	135.235	142.044	254.382	313.610	140.210	142.955	144.900	148.525	234.623	145.948	-8191	255	
1159.388	1	1	0	0	0.032577	0.10145	0.035371	0.14948	0.12014	0.21051	0.26579	0.10773	0.21286	0.18273	0.14287	0.12529	0.089226	0.27889	0.10747	0.13672	-2.0083	-1.825	-2.1688	-2.2792	-1.9792	-2.3812	-1.8833	-2.1917	-2.25	-1.7146	-2.3458	-2.4729	-1.8771	-2.3479	-2.0187	-2.0896	168.029	309.460	161.360	387.158	433.757	208.942	469.547	387.488	242.854	413.899	382.328	440.317	290.467	282.016	354.618	383.908	0.0013285	0.0010984	0.00018075	515.32	4.5423e-06	8.4288e-06	597.05	198.29	6.8092e-06	2.1092e-06	268.07	133.63	99.602	48.496	7.0355e-06	60.358	0.0010365	0.0010432	0.00029164	558.57	1.124e-05	1.1345e-05	642.4	215.36	1.1243e-05	1.1294e-05	289.76	142.64	107.8	52.195	1.1291e-05	64.614	474.085	184.051	158.942	136.646	237.337	239.673	135.398	142.136	221.546	304.884	139.839	143.049	144.850	148.459	283.855	145.795	-8191	255	
1159.484	1	1	0	0	0.039205	0.068191	0.21766	0.2983	0.15351	0.16727	0.19888	0.2608	0.32807	0.18988	0.19846	0.25303	0.20889	0.09793	0.14988	0.15152	-1.9479	-1.9042	-2.1896	-2.3021	-1.9354	-2.1771	-2.1396	-1.9333	-2.3167	-1.9937	-2.1979	-2.0667	-1.7917	-2.3667	-2.1437	-2.0542	338.397	345.407	298.745	131.030	328.746	301.250	140.312	169.059	280.448	271.680	461.954	392.587	405.601	160.216	255.257	408.760	0.0013164	0.00015845	9.4375e-05	513.95	4.7088e-06	2.6839e-06	594.27	197.51	3.0038e-06	2.746e-06	265.93	134.29	100.3	48.562	3.8493e-06	60.137	0.0010338	0.001038	0.00028972	556.8	1.1257e-05	1.1349e-05	639.56	214.43	1.1233e-05	1.1209e-05	289	142.89	108.08	52.15	1.1358e-05	64.652	476.761	328.846	234.860	136.713	245.846	270.716	135.458	142.247	217.970	138.069	140.381	142.602	144.967	148.456	246.761	145.753	-8191	255	
1159.581	1	1	0	0	0.13709	0.17352	0.013023	0.18127	0.16551	0.18336	0.33725	0.32096	0.047514	0.10521	0.2014	0.15865	0.035952	0.084422	0.09581	0.19904	-1.8604	-1.7667	-2.0833	-2.2917	-1.9125	-2.4375	-2.2917	-1.8854	-2.4229	-1.7604	-2.2521	-2.4188	-1.8083	-2.2042	-1.8667	-1.8458	454.237	483.629	313.078	231.179	274.456	168.724	435.794	462.954	197.408	308.816	440.546	337.613	316.504	142.800	482.683	329.502	0.0014544	0.00065288	9.0353e-05	513.38	4.2553e-06	6.6741e-06	595.16	199.06	5.3621e-06	4.7759e-06	265.75	134.17	100.04	48.588	4.8088e-06	60.498	0.0010379	0.0010329	0.00028665	557.71	1.1181e-05	1.141e-05	640.75	214.7	1.1275e-05	1.1299e-05	289.13	143.08	108.09	52.258	1.1229e-05	64.929	474.327	147.836	248.376	136.160	211.161	235.536	135.492	142.020	210.258	297.526	140.107	142.980	144.619	148.414	227.229	145.803	-8191	255	
1159.677	1	1	0	0	0.3902	0.20333	0.17685	0.10182	0.22687	0.32686	0.035431	0.20733	0.18057	0.033009	0.25125	0.15398	0.14093	0.30982	0.31581	0.12849	-1.7854	-1.675	-2.0708	-2.1229	-1.7896	-2.2667	-2.1125	-1.9021	-2.1396	-1.9583	-1.9896	-2.5354	-1.8792	-2.4188	-2.0292	-2.1229	475.610	320.972	435.115	415.180	470.040	419.377	456.774	472.855	145.043	317.201	463.327	326.717	239.228	407.256	316.091	456.076	0.0013818	0.00072264	0.00015288	515.66	8.5992e-06	1.9979e-06	595.5	198.67	1.3113e-05	2.3249e-06	268.42	135.21	100.6	48.749	5.2791e-06	60.652	0.0010205	0.0010345	0.00028911	557.27	1.1188e-05	1.1389e-05	643.49	214.97	1.1314e-05	1.1324e-05	290.8	143.86	108.73	52.421	1.1309e-05	65.09	475.325	211.086	236.965	136.490	255.633	233.307	135.262	142.034	220.780	412.969	139.936	143.007	144.981	148.439	266.716	146.122	-8191	255	
#DATA ENDS
