BOXY.EXE: ISS Imagent and Oximeter Data Acquisition Program Version 0.80
Ascii Record File

#ACQ INFORMATION
2  Detector Channels 
16  External MUX Channels 
1  Auxiliary Channels 
5000  Waveform (CCF) Frequency (Hz)
1  Waveforms Skipped 
30  Waveforms Averaged 
1  Cycles Averaged 
16  Acquisitions per Waveform 
10.0806  Updata Rate (Hz) 

#FILE INFORMATION
TRUE -- External MUX Channel results are PARSED.
FALSE -- AC DC and Phase are NOT grouped.
TRUE -- Companion Program Settings File CREATED.
FALSE -- AC data not excluded
FALSE -- DC data not excluded
FALSE -- Phase data not excluded
FALSE -- Auxillary Chn. data not excluded
Tab delimiters

#CALIBRATION STATE
TRUE -- Waveform Calibration Values APPLIED.


#AUX CALIBRATION VALUES
Val Type	aux-1	

Term	1.0000e+00	
Factor	0.0000e+00	


#WF CALIBRATION VALUES
A = Detector Channel
Val Type	A-AC1	A-AC2	A-AC3	A-AC4	A-AC5	A-AC6	A-AC7	A-AC8	A-AC9	A-AC10	A-AC11	A-AC12	A-AC13	A-AC14	A-AC15	A-AC16	A-DC1	A-DC2	A-DC3	A-DC4	A-DC5	A-DC6	A-DC7	A-DC8	A-DC9	A-DC10	A-DC11	A-DC12	A-DC13	A-DC14	A-DC15	A-DC16	A-Ph1	A-Ph2	A-Ph3	A-Ph4	A-Ph5	A-Ph6	A-Ph7	A-Ph8	A-Ph9	A-Ph10	A-Ph11	A-Ph12	A-Ph13	A-Ph14	A-Ph15	A-Ph16	

Term	0.00000e+00	0.00000e+00	0.00000e+00	0.00000e+00	0.00000e+00	0.00000e+00	0.00000e+00	0.00000e+00	0.00000e+00	0.00000e+00	0.00000e+00	0.00000e+00	0.00000e+00	0.00000e+00	0.00000e+00	0.00000e+00	0.00000e+00	0.00000e+00	0.00000e+00	0.00000e+00	0.00000e+00	0.00000e+00	0.00000e+00	0.00000e+00	0.00000e+00	0.00000e+00	0.00000e+00	0.00000e+00	0.00000e+00	0.00000e+00	0.00000e+00	0.00000e+00	0.00000e+00	0.00000e+00	0.00000e+00	0.00000e+00	0.00000e+00	0.00000e+00	0.00000e+00	0.00000e+00	0.00000e+00	0.00000e+00	0.00000e+00	0.00000e+00	0.00000e+00	0.00000e+00	0.00000e+00	0.00000e+00	
Factor	1.00000e+00	1.00000e+00	1.00000e+00	1.00000e+00	1.00000e+00	1.00000e+00	1.00000e+00	1.00000e+00	1.00000e+00	1.00000e+00	1.00000e+00	1.00000e+00	1.00000e+00	1.00000e+00	1.00000e+00	1.00000e+00	1.00000e+00	1.00000e+00	1.00000e+00	1.00000e+00	1.00000e+00	1.00000e+00	1.00000e+00	1.00000e+00	1.00000e+00	1.00000e+00	1.00000e+00	1.00000e+00	1.00000e+00	1.00000e+00	1.00000e+00	1.00000e+00	X	X	X	X	X	X	X	X	X	X	X	X	X	X	X	X	

B = Detector Channel
Val Type	B-AC1	B-AC2	B-AC3	B-AC4	B-AC5	B-AC6	B-AC7	B-AC8	B-AC9	B-AC10	B-AC11	B-AC12	B-AC13	B-AC14	B-AC15	B-AC16	B-DC1	B-DC2	B-DC3	B-DC4	B-DC5	B-DC6	B-DC7	B-DC8	B-DC9	B-DC10	B-DC11	B-DC12	B-DC13	B-DC14	B-DC15	B-DC16	B-Ph1	B-Ph2	B-Ph3	B-Ph4	B-Ph5	B-Ph6	B-Ph7	B-Ph8	B-Ph9	B-Ph10	B-Ph11	B-Ph12	B-Ph13	B-Ph14	B-Ph15	B-Ph16	

Term	0.00000e+00	0.00000e+00	0.00000e+00	0.00000e+00	0.00000e+00	0.00000e+00	0.00000e+00	0.00000e+00	0.00000e+00	0.00000e+00	0.00000e+00	0.00000e+00	0.00000e+00	0.00000e+00	0.00000e+00	0.00000e+00	0.00000e+00	0.00000e+00	0.00000e+00	0.00000e+00	0.00000e+00	0.00000e+00	0.00000e+00	0.00000e+00	0.00000e+00	0.00000e+00	0.00000e+00	0.00000e+00	0.00000e+00	0.00000e+00	0.00000e+00	0.00000e+00	-5.52834e+01	-1.33387e+02	-1.26565e+02	-1.82540e+02	-5.55431e+01	-6.43973e+01	-1.56586e+02	-1.62015e+02	-4.36106e+01	-7.42587e+01	-1.74623e+02	-1.70094e+02	-1.82744e+02	-1.76742e+02	-5.93975e+01	-1.49658e+02	
Factor	1.78881e-05	1.49563e-04	4.68658e-05	1.78184e-01	1.61833e-06	1.89682e-06	1.77342e-01	5.82412e-02	1.18634e-06	1.65967e-06	8.82662e-02	2.80200e-02	2.53411e-02	8.65087e-03	1.41064e-06	1.27050e-02	4.88401e-06	6.02286e-06	1.67489e-06	8.81332e-02	6.42629e-08	6.60018e-08	8.18783e-02	2.88789e-02	6.38437e-08	6.60667e-08	4.22472e-02	1.34971e-02	1.26457e-02	4.32564e-03	6.44515e-08	6.12258e-03	X	X	X	X	X	X	X	X	X	X	X	X	X	X	X	X	



#DISTANCE SETTINGS
A = Detector Channel
A-1	A-2	A-3	A-4	A-5	A-6	A-7	A-8	A-9	A-10	A-11	A-12	A-13	A-14	A-15	A-16	

2.5000e+00	3.0000e+00	2.5000e+00	3.0000e+00	2.0000e+00	3.0000e+00	1.5000e+00	3.0000e+00	3.0000e+00	3.0000e+00	3.0000e+00	3.0000e+00	3.0000e+00	3.0000e+00	1.5000e+00	3.0000e+00	

B = Detector Channel
B-1	B-2	B-3	B-4	B-5	B-6	B-7	B-8	B-9	B-10	B-11	B-12	B-13	B-14	B-15	B-16	

1.0000e+01	1.0000e+01	1.0000e+01	1.4400e+00	1.0000e+01	1.0000e+01	1.5100e+00	1.9400e+00	1.0000e+01	1.0000e+01	1.9900e+00	2.4900e+00	2.4100e+00	2.9000e+00	1.0000e+01	2.9800e+00	




#DATA BEGINS
time	group	step	mark	flag	A-AC1	A-AC2	A-AC3	A-AC4	A-AC5	A-AC6	A-AC7	A-AC8	A-AC9	A-AC10	A-AC11	A-AC12	A-AC13	A-AC14	A-AC15	A-AC16	A-DC1	A-DC2	A-DC3	A-DC4	A-DC5	A-DC6	A-DC7	A-DC8	A-DC9	A-DC10	A-DC11	A-DC12	A-DC13	A-DC14	A-DC15	A-DC16	A-Ph1	A-Ph2	A-Ph3	A-Ph4	A-Ph5	A-Ph6	A-Ph7	A-Ph8	A-Ph9	A-Ph10	A-Ph11	A-Ph12	A-Ph13	A-Ph14	A-Ph15	A-Ph16	B-AC1	B-AC2	B-AC3	B-AC4	B-AC5	B-AC6	B-AC7	B-AC8	B-AC9	B-AC10	B-AC11	B-AC12	B-AC13	B-AC14	B-AC15	B-AC16	B-DC1	B-DC2	B-DC3	B-DC4	B-DC5	B-DC6	B-DC7	B-DC8	B-DC9	B-DC10	B-DC11	B-DC12	B-DC13	B-DC14	B-DC15	B-DC16	B-Ph1	B-Ph2	B-Ph3	B-Ph4	B-Ph5	B-Ph6	B-Ph7	B-Ph8	B-Ph9	B-Ph10	B-Ph11	B-Ph12	B-Ph13	B-Ph14	B-Ph15	B-Ph16	aux-1	digaux	

969.278	1	1	0	256	0.12737	0.41981	0.16063	0.36107	0.1693	0.19036	0.071125	0.17311	0.097668	0.068672	0.16611	0.055513	0.18236	0.15965	0.16633	0.30412	-4.6354	-4.6333	-4.5646	-5.0771	-4.5667	-4.6937	-5.075	-4.425	-4.7562	-4.775	-4.6292	-4.9938	-4.5979	-4.7583	-4.9583	-4.3625	307.184	101.439	177.701	381.823	329.859	249.493	384.207	204.145	246.891	275.291	128.683	199.484	122.938	391.170	112.025	290.991	0.00024837	0.00011296	5.2047e-05	646.16	3.5512e-06	2.6482e-06	558.22	194.87	2.269e-06	2.1994e-06	205.17	71.04	59.763	20.956	3.0816e-06	30.021	0.0001785	0.00015432	4.1028e-05	652.76	1.62e-06	1.5787e-06	562.09	198.27	1.6117e-06	1.6211e-06	207.61	72.164	60.907	21.556	1.5839e-06	30.737	233.327	104.802	119.955	61.218	206.707	206.744	60.725	65.707	262.261	181.487	63.953	68.799	70.208	76.136	217.204	73.645	-8191	255	
969.374	1	1	0	0	0.02747	0.15107	0.14002	0.086669	0.06719	0.054301	0.23839	0.099494	0.18897	0.10907	0.18287	0.22396	0.08191	0.092428	0.2134	0.22117	-4.5083	-4.6729	-4.4646	-5.2042	-4.5104	-4.6958	-5.1271	-4.5542	-4.8521	-4.825	-4.425	-4.9729	-4.5042	-4.5979	-5.1646	-4.5792	111.044	256.760	297.397	373.287	385.931	207.580	366.941	306.500	99.368	277.845	372.960	401.824	222.539	394.897	49.728	376.032	0.00025179	0.00029023	3.1846e-05	644.94	3.8629e-06	3.3308e-06	558.79	194.85	4.1624e-06	2.3984e-06	204.47	71.212	59.938	20.935	2.6178e-06	30.214	0.00017163	0.00015012	4.1206e-05	653.99	1.624e-06	1.5912e-06	562.31	198.56	1.6579e-06	1.5527e-06	207.41	72.36	60.949	21.534	1.629e-06	30.942	231.546	143.169	116.658	61.219	205.028	210.507	60.355	65.756	249.333	162.145	64.004	68.823	69.984	76.087	248.520	73.383	-8191	255	
969.495	1	1	0	0	0.085849	0.055195	0.1235	0.21664	0.065403	0.047189	0.22359	0.11699	0.11126	0.16313	0.19838	0.079379	0.15801	0.11373	0.16174	0.11342	-4.3583	-4.825	-4.4479	-5.1062	-4.5958	-4.6771	-5.0146	-4.4167	-4.7833	-4.8583	-4.4146	-5.0188	-4.85	-4.4854	-5.0021	-4.3875	351.417	170.085	262.464	382.111	151.013	215.649	317.702	137.866	185.339	85.496	197.455	183.669	337.593	299.282	218.290	392.698	0.00026735	0.00023803	0.00010045	643.95	2.8125e-06	2.222e-06	558.63	195.46	2.1323e-06	2.8496e-06	203.27	70.851	59.461	20.676	3.3522e-06	29.738	0.000175	0.00014801	4.0477e-05	650.31	1.6348e-06	1.6012e-06	561.3	198.65	1.6256e-06	1.546e-06	207.11	72.033	60.646	21.236	1.5608e-06	30.451	233.580	113.888	143.286	61.238	259.805	204.985	60.297	65.758	232.237	213.287	63.906	68.472	70.439	76.000	206.320	73.449	-8191	255	
969.591	1	1	0	0	0.14849	0.15002	0.078862	0.16626	0.21536	0.13166	0.14547	0.041292	0.19331	0.2444	0.092883	0.0477	0.32044	0.13373	0.093663	0.10751	-4.4854	-4.8354	-4.4187	-5.1813	-4.7083	-4.6729	-5.0958	-4.6167	-4.8604	-4.9042	-4.4167	-4.8729	-4.8667	-4.5938	-5.1667	-4.5708	378.868	314.104	55.808	387.931	371.648	388.605	380.183	52.972	237.711	100.876	193.401	338.239	90.347	401.548	189.564	203.366	0.00024285	0.00031614	0.00011861	641.32	4.0399e-06	2.0328e-06	550.24	194.91	3.4575e-06	1.7525e-06	204.35	69.942	59.212	20.482	3.0757e-06	29.781	0.00017041	0.0001526	4.0449e-05	648.27	1.6447e-06	1.5916e-06	557.53	197.65	1.6151e-06	1.5285e-06	207.05	71.427	60.267	21.098	1.5765e-06	30.345	228.324	104.296	121.880	61.233	213.468	190.427	60.405	65.679	257.409	214.663	64.211	68.771	70.268	76.258	201.257	73.395	-8191	255	
969.663	1	1	0	0	0.059289	0.28287	0.18898	0.14984	0.086778	0.087327	0.24673	0.11725	0.17186	0.04327	0.077795	0.28045	0.11905	0.070673	0.043164	0.095083	-4.4229	-4.9042	-4.4104	-4.8792	-4.8542	-4.4792	-5.1687	-4.6729	-4.5833	-5.0333	-4.5917	-4.8542	-4.9625	-4.3313	-4.9917	-4.6583	147.792	241.562	277.069	381.522	80.626	244.391	376.445	356.842	114.783	352.114	155.333	369.573	338.107	292.791	81.366	333.735	0.00023726	0.00024786	6.1816e-05	637.03	2.9762e-06	3.2698e-06	552.28	195.17	3.1582e-06	3.3917e-06	205.41	69.982	58.976	20.56	2.4953e-06	29.917	0.00017296	0.00014845	3.9719e-05	644.96	1.5815e-06	1.5616e-06	555.98	197.62	1.62e-06	1.5945e-06	207.95	71.505	60.114	21.248	1.6188e-06	30.699	227.767	147.817	110.585	61.023	219.170	213.252	60.266	65.953	222.494	187.276	64.084	68.925	70.319	76.313	211.428	73.479	-8191	255	
969.759	1	1	0	0	0.15766	0.19311	0.12441	0.19322	0.16144	0.10386	0.22443	0.12816	0.19845	0.17619	0.14796	0.038199	0.030319	0.091744	0.22733	0.13057	-4.1813	-5.0333	-4.4333	-4.75	-4.8625	-4.4833	-4.9812	-4.5667	-4.5687	-5.1708	-4.5708	-4.9333	-5.0146	-4.3896	-4.9729	-4.7562	294.188	346.115	202.879	400.957	372.474	277.374	349.982	49.846	382.395	172.029	58.288	278.692	91.663	69.289	265.646	330.284	0.00026529	0.00019754	6.9058e-05	635.15	1.5367e-06	3.0447e-06	550.11	195.2	2.5153e-06	2.7378e-06	206.63	70.268	58.988	20.665	3.3054e-06	30.56	0.00018036	0.0001487	4.1447e-05	643.42	1.6674e-06	1.6304e-06	555.33	197.96	1.6359e-06	1.6034e-06	209.36	71.886	60.074	21.347	1.6263e-06	31.058	231.904	112.691	118.990	60.941	231.017	204.124	60.370	65.790	200.315	202.662	63.834	68.734	70.371	76.377	211.605	73.276	-8191	255	
969.880	1	1	0	0	0.10388	0.10213	0.1487	0.12161	0.1531	0.14866	0.075468	0.1168	0.083869	0.075137	0.15978	0.18358	0.16178	0.10899	0.13418	0.23175	-4.3271	-4.9417	-4.5208	-4.7979	-4.8021	-4.5167	-5.0542	-4.8	-4.5271	-5.1396	-4.6562	-4.6417	-5.15	-4.575	-4.8438	-4.7083	365.085	65.906	59.189	347.902	138.955	262.479	316.718	396.391	290.152	105.852	387.865	134.214	391.850	237.743	102.886	369.241	0.00024979	0.00023419	6.024e-05	633.84	1.8288e-06	4.0775e-06	550.17	195.19	2.209e-06	2.3735e-06	206.36	70.768	58.501	20.757	3.7094e-06	30.645	0.00018039	0.00014755	4.3069e-05	641.22	1.5977e-06	1.6214e-06	556.91	198.54	1.6647e-06	1.6295e-06	210.33	72.092	59.554	21.391	1.6291e-06	31.293	234.402	157.947	147.653	61.161	203.778	189.750	60.403	65.889	268.619	196.155	63.572	69.284	70.319	76.192	201.963	73.323	-8191	255	
969.974	1	1	0	0	0.22178	0.16728	0.30985	0.28908	0.012667	0.17136	0.06651	0.12863	0.16316	0.19219	0.24336	0.13327	0.075793	0.080239	0.075003	0.25068	-4.1396	-5.0021	-4.625	-4.5938	-5.0813	-4.3417	-4.9083	-5.0125	-4.4542	-5.1083	-4.7063	-4.4667	-4.9854	-4.45	-4.7063	-5.0208	179.178	262.552	59.144	396.220	404.456	55.184	81.689	171.818	291.188	307.899	254.064	260.751	114.978	162.266	79.177	134.955	0.00023333	0.00030165	7.3151e-05	626.72	8.2311e-07	2.348e-06	546.32	193.85	4.0034e-06	2.251e-06	207.91	69.916	57.38	20.741	2.8334e-06	30.573	0.00018168	0.00014717	4.2434e-05	634.05	1.6544e-06	1.6601e-06	552.29	196.84	1.7126e-06	1.6269e-06	210.9	71.44	58.519	21.459	1.6493e-06	31.248	229.003	116.640	139.133	61.212	237.860	214.903	60.449	65.815	223.356	201.467	63.727	69.154	70.401	76.560	194.100	73.791	-8191	255	
970.070	1	1	0	0	0.18873	0.10379	0.16606	0.19172	0.047313	0.17954	0.14112	0.12382	0.17784	0.15319	0.028324	0.098343	0.10882	0.19008	0.11048	0.078445	-4.2812	-4.7729	-4.6042	-4.525	-4.9646	-4.5292	-4.8021	-5.0333	-4.4292	-4.7875	-4.8063	-4.5646	-4.8938	-4.7417	-4.6312	-5.0042	229.784	332.025	164.563	273.901	325.126	222.291	337.760	110.311	360.868	307.796	102.224	59.381	238.858	295.291	178.880	174.878	0.00023613	0.00017994	4.7596e-05	631.64	3.2214e-06	4.0816e-06	554.23	195.66	2.5824e-06	2.413e-06	209.17	70.39	57.743	20.712	4.8027e-07	30.704	0.00017774	0.00015139	4.3383e-05	638.89	1.6165e-06	1.5736e-06	559.25	199.21	1.6228e-06	1.6168e-06	212.6	71.639	58.844	21.306	1.6744e-06	31.242	233.485	110.034	147.094	61.084	236.737	182.028	60.388	66.192	241.725	188.469	63.750	68.937	70.471	76.478	207.523	73.463	-8191	255	
970.166	1	1	0	0	0.12351	0.23832	0.15121	0.17601	0.083342	0.055676	0.11868	0.0044743	0.14931	0.070445	0.13908	0.051889	0.33773	0.047091	0.10782	0.10793	-4.0958	-4.8854	-4.7229	-4.4583	-5.0375	-4.5083	-4.8771	-4.9958	-4.3625	-4.8688	-4.7917	-4.3875	-5.0437	-4.6625	-4.5604	-4.8896	124.351	335.981	313.782	314.344	214.212	363.425	347.767	115.244	250.544	243.257	165.402	124.130	406.099	403.036	296.803	165.651	0.00025322	0.00011341	9.7881e-05	636.14	2.8691e-06	4.1345e-06	559.74	197.36	2.5985e-06	1.7098e-06	212.13	70.727	58.011	20.61	1.0896e-06	30.567	0.0001775	0.0001511	4.2336e-05	641.93	1.6636e-06	1.6467e-06	564.79	200.33	1.6103e-06	1.6089e-06	215.21	72.287	59.029	21.23	1.6342e-06	31.214	229.311	117.319	108.544	61.017	204.546	186.400	60.920	65.791	237.886	230.012	63.540	69.298	70.364	76.571	230.807	73.695	-8191	255	
970.287	1	1	0	0	0.096334	0.12046	0.090994	0.23595	0.077919	0.18628	0.099373	0.25313	0.119	0.12217	0.1652	0.098117	0.19192	0.16562	0.086721	0.23522	-4.0729	-4.8792	-4.8	-4.4417	-5.2208	-4.6312	-4.6167	-4.9479	-4.3583	-4.8979	-5.1667	-4.4646	-5.0958	-4.7854	-4.6292	-5.0479	275.814	338.821	328.900	385.460	244.291	211.533	352.920	382.788	353.531	385.417	138.728	385.998	326.105	311.979	220.604	356.375	0.00025783	0.00024722	5.6656e-05	642.67	1.5698e-06	4.079e-06	567.79	200.27	2.1613e-06	3.1478e-06	214.07	71.715	58.571	20.568	2.5088e-06	30.489	0.00018095	0.00014988	4.3369e-05	648.96	1.6605e-06	1.5957e-06	573.48	202.57	1.7041e-06	1.5457e-06	217.18	73.031	59.811	21.192	1.6739e-06	31.073	228.090	156.584	145.525	61.172	237.678	217.509	60.441	65.821	239.047	158.177	63.782	69.102	70.388	76.400	183.725	73.312	-8191	255	
970.359	1	1	0	0	0.10841	0.12392	0.2074	0.1211	0.10932	0.12182	0.14473	0.083188	0.14028	0.040051	0.24052	0.043652	0.17179	0.14174	0.019343	0.11769	-4.2125	-4.7937	-5.0687	-4.4667	-4.85	-4.7562	-4.4875	-5.0958	-4.5792	-4.6312	-4.925	-4.6208	-4.8229	-4.7646	-4.4	-5.1667	269.617	68.189	151.274	291.007	238.843	330.861	397.487	288.863	158.173	301.692	177.659	111.402	312.348	132.266	400.008	55.281	0.00025556	0.0002278	0.00011881	646.79	2.7458e-06	5.3088e-06	570.71	201.47	2.468e-06	2.0092e-06	213.52	71.536	58.78	20.276	4.5033e-06	29.73	0.000176	0.00014464	4.1691e-05	657	1.6245e-06	1.5538e-06	577.56	204.01	1.645e-06	1.6219e-06	216.61	72.671	60.006	20.859	1.6342e-06	30.352	229.142	156.943	143.411	61.146	209.580	215.681	60.539	65.949	203.346	225.633	63.904	68.703	70.256	76.328	192.982	73.613	-8191	255	
970.479	1	1	0	0	0.097512	0.14248	0.058147	0.25313	0.066646	0.15186	0.25166	0.026998	0.12149	0.051671	0.11373	0.20496	0.1698	0.073274	0.087979	0.061714	-4.1479	-4.6708	-4.95	-4.4542	-4.8396	-4.8854	-4.425	-4.9646	-4.6625	-4.7333	-4.9542	-4.3771	-4.85	-4.9104	-4.3646	-5.1167	278.869	201.528	352.210	402.841	268.323	302.306	370.494	197.211	78.516	221.690	330.983	358.521	303.646	112.984	271.667	107.977	0.00025625	0.00036389	8.9793e-05	651.35	2.9103e-06	5.0316e-06	568.76	200.35	2.424e-06	2.8086e-06	213.61	70.804	58.693	20.04	2.3997e-06	29.421	0.00017083	0.00014666	4.0344e-05	657.98	1.5936e-06	1.5587e-06	575.16	203.52	1.5421e-06	1.5501e-06	215.97	72.205	59.597	20.566	1.5405e-06	29.993	234.472	141.989	156.802	61.198	187.176	183.852	60.338	65.972	221.682	183.735	63.935	68.742	70.277	76.096	223.347	73.487	-8191	255	
970.575	1	1	0	0	0.10645	0.25281	0.070143	0.31306	0.18824	0.22662	0.3026	0.17588	0.19884	0.12149	0.046923	0.18073	0.18038	0.16171	0.076876	0.092465	-4.2875	-4.4604	-5.1021	-4.5896	-4.775	-4.9542	-4.3354	-5.1562	-4.5646	-4.4125	-4.9521	-4.4604	-4.8	-4.7708	-4.4542	-4.8667	212.962	298.014	149.722	402.080	146.527	154.973	381.657	324.348	153.449	235.820	268.225	282.434	276.377	395.030	310.720	332.201	0.00023613	0.00025051	8.234e-05	652.05	2.7984e-06	3.4714e-06	569.9	200.32	2.5673e-06	2.557e-06	213.74	70.939	58.36	19.714	2.986e-06	29.15	0.00016491	0.00014273	3.9964e-05	658.32	1.5604e-06	1.4739e-06	576.14	203.81	1.5902e-06	1.5586e-06	217.05	72.183	59.423	20.321	1.5326e-06	29.813	228.289	151.078	154.052	61.111	215.109	194.114	60.357	65.899	240.338	174.488	63.900	68.937	70.236	76.185	202.992	73.480	-8191	255	
970.672	1	1	0	0	0.087627	0.18786	0.043951	0.058553	0.055828	0.13111	0.058379	0.27132	0.041092	0.25671	0.087817	0.23763	0.1119	0.10721	0.07382	0.078559	-4.1896	-4.3042	-5.0729	-4.525	-4.7396	-5.0625	-4.4062	-4.8771	-4.7729	-4.4313	-5.15	-4.5646	-4.7937	-5.0417	-4.5062	-4.8833	358.806	91.978	239.301	330.401	310.962	373.808	168.160	52.218	406.339	226.857	280.116	172.592	127.238	96.711	213.349	293.647	0.00025722	0.00018074	7.4552e-05	651.5	2.9827e-06	3.1612e-06	574.6	202.53	1.6764e-06	3.6954e-06	215.04	71.199	58.332	19.738	3.4358e-06	29.205	0.00016464	0.0001378	3.8589e-05	660.53	1.5594e-06	1.4738e-06	579.61	205.4	1.56e-06	1.5365e-06	218.27	72.69	59.657	20.352	1.5572e-06	29.896	231.546	158.603	145.534	61.311	218.595	219.434	60.322	65.779	226.018	211.028	63.682	68.892	70.105	76.474	220.648	73.746	-8191	255	
970.768	1	1	0	0	0.28958	0.1144	0.23252	0.074073	0.11697	0.23358	0.21917	0.14462	0.14958	0.3223	0.09584	0.075621	0.26485	0.25267	0.057214	0.25408	-4.6813	-4.2167	-4.9854	-4.7021	-4.5542	-5.1062	-4.6208	-4.9563	-4.9396	-4.3979	-5.0604	-4.5708	-4.4437	-4.9917	-4.3958	-4.8896	152.874	91.184	315.758	326.670	86.936	366.021	206.301	375.159	330.579	221.297	96.777	355.388	401.660	301.278	135.692	368.861	0.00026371	0.00020318	9.0785e-05	655.85	2.5662e-06	3.5082e-06	575.72	202.72	2.9109e-06	2.8655e-06	215.23	71.394	58.438	19.668	2.4229e-06	28.947	0.00017095	0.00014142	3.8208e-05	662.84	1.5439e-06	1.4628e-06	580.68	205.44	1.5632e-06	1.4952e-06	217.87	72.553	59.74	20.186	1.5714e-06	29.54	229.350	150.971	153.206	61.234	199.741	201.734	60.324	65.938	242.040	172.283	63.626	69.106	70.070	75.974	189.412	73.390	-8191	255	
970.887	1	1	0	0	0.1072	0.07369	0.20248	0.094046	0.067714	0.13253	0.024655	0.067587	0.12007	0.15825	0.22458	0.1947	0.25263	0.17725	0.11378	0.18049	-4.6458	-4.4042	-4.8792	-4.7229	-4.4479	-4.8313	-4.5979	-4.6875	-4.8375	-4.5396	-5.125	-4.9021	-4.4604	-4.9479	-4.5625	-4.6646	73.294	305.803	325.782	92.210	118.442	192.587	203.426	214.693	229.910	87.175	350.025	145.323	79.316	354.136	97.758	293.829	0.0002524	0.00021907	0.00014082	656.13	3.1687e-06	3.9932e-06	573.71	201.21	2.3791e-06	2.8177e-06	213.67	70.529	58.49	19.486	3.1535e-06	28.726	0.00016308	0.00013915	3.7287e-05	663.19	1.5119e-06	1.4677e-06	579.97	205.02	1.547e-06	1.485e-06	217.27	72.07	59.639	20.002	1.5264e-06	29.272	231.862	114.009	131.019	61.266	220.631	216.507	60.401	65.775	214.292	189.444	63.920	68.701	70.333	76.179	223.877	73.731	-8191	255	
970.958	1	1	0	0	0.062429	0.16113	0.19484	0.12294	0.2217	0.16128	0.2689	0.14309	0.12138	0.1717	0.081308	0.093275	0.11942	0.28514	0.11205	0.11541	-4.6062	-4.4854	-4.9229	-4.8313	-4.3625	-5.0521	-4.6229	-4.75	-4.8875	-4.5542	-4.7958	-4.9625	-4.6083	-5.0104	-4.7083	-4.7458	383.240	354.573	128.970	277.813	114.107	233.029	341.038	301.674	226.938	267.031	256.174	295.388	214.652	406.770	264.629	352.147	0.00024682	0.00022424	6.2756e-05	655.19	3.4373e-06	2.8864e-06	570.94	201.25	2.5426e-06	2.7526e-06	214.1	70.927	58.737	19.601	1.5488e-06	28.663	0.0001632	0.00013652	3.8543e-05	662.11	1.5281e-06	1.4421e-06	576.73	204.87	1.528e-06	1.4965e-06	217.21	72.315	59.867	20.046	1.5734e-06	29.301	233.597	92.498	156.326	61.411	206.524	213.634	60.349	65.937	235.632	192.103	63.725	69.058	70.345	76.034	177.670	73.545	-8191	255	
971.054	1	1	0	0	0.076543	0.27023	0.09142	0.25745	0.17563	0.13711	0.28426	0.26454	0.045441	0.23105	0.21083	0.1545	0.081946	0.11529	0.10694	0.039249	-4.6104	-4.3604	-4.6937	-4.9292	-4.3458	-5.0229	-4.7896	-4.6937	-5.1375	-4.5417	-4.7167	-5.0333	-4.4958	-5.0521	-4.7896	-4.5958	380.892	203.425	136.734	383.790	214.559	375.459	288.740	241.733	302.345	133.137	354.672	66.761	387.583	213.869	143.198	284.174	0.00025598	0.00029454	6.5494e-05	661.43	3.6986e-06	3.1103e-06	577.12	203.34	2.2098e-06	3.3543e-06	214.2	71.702	59.126	19.551	1.9197e-06	28.781	0.00016258	0.00013766	4.0299e-05	668.15	1.5503e-06	1.5075e-06	580.86	206.2	1.5199e-06	1.5618e-06	218.03	72.707	60.239	20.105	1.5615e-06	29.46	228.737	154.492	117.256	61.303	243.622	196.132	60.584	65.699	232.244	201.783	63.932	68.931	70.047	75.856	197.115	73.469	-8191	255	
971.151	1	1	0	0	0.29571	0.13504	0.16718	0.17873	0.077106	0.033851	0.14533	0.2013	0.042579	0.1268	0.054162	0.19927	0.14516	0.20997	0.20936	0.13674	-4.8021	-4.4583	-4.6813	-5.0062	-4.4396	-4.8979	-4.8438	-4.3438	-5.0833	-4.5896	-4.8229	-4.9333	-4.4	-4.9812	-4.8938	-4.575	235.936	265.262	124.885	384.616	171.190	377.578	406.482	356.904	295.193	330.751	223.756	249.879	91.693	127.030	237.634	341.163	0.00024261	0.00025567	5.6902e-05	660.97	3.8868e-06	2.3528e-06	573.77	203.43	2.471e-06	2.2696e-06	214.72	71.693	59.282	19.414	2.1092e-06	28.637	0.00016574	0.00013801	3.9538e-05	667.56	1.586e-06	1.5101e-06	579.41	206.28	1.51e-06	1.5325e-06	218.08	72.942	60.272	20.044	1.6087e-06	29.298	228.828	146.452	150.736	61.193	215.070	224.878	60.558	65.859	229.474	212.917	63.599	68.723	70.074	76.241	209.967	73.418	-8191	255	
971.271	1	1	0	0	0.23932	0.11259	0.095203	0.20495	0.13588	0.11609	0.21971	0.036961	0.22748	0.14924	0.17381	0.21564	0.094718	0.13998	0.1101	0.03682	-4.7896	-4.5021	-4.6583	-4.9292	-4.3021	-4.8333	-4.9313	-4.6104	-4.8479	-4.6333	-4.5333	-5.1062	-4.4521	-4.825	-5.1146	-4.4375	339.946	160.321	131.843	52.794	256.959	348.953	321.765	321.846	279.784	57.367	153.193	233.214	364.424	392.216	290.279	267.186	0.00025856	0.00035908	9.502e-05	658.8	3.1113e-06	2.9092e-06	572.27	201.64	3.1273e-06	4.1356e-06	214.41	71.029	58.839	19.479	2.5512e-06	28.502	0.00016482	0.00013653	3.8519e-05	666.71	1.5352e-06	1.4916e-06	578.34	205.44	1.5622e-06	1.5684e-06	216.9	72.265	59.942	20.018	1.4965e-06	29.157	229.192	135.558	140.975	61.265	213.924	199.386	60.471	65.675	233.636	188.582	63.840	68.984	70.240	76.135	222.385	73.328	-8191	255	
971.367	1	1	0	0	0.093598	0.1411	0.12859	0.23294	0.11226	0.06878	0.21079	0.26017	0.26417	0.21817	0.18249	0.15513	0.067856	0.072664	0.16562	0.12845	-4.7771	-4.6146	-4.6104	-5.0375	-4.4729	-4.5729	-4.7646	-4.4896	-4.6438	-4.6646	-4.6625	-5.0375	-4.35	-4.7521	-4.925	-4.5271	347.190	68.774	281.169	377.946	137.975	201.162	279.280	199.519	247.612	348.205	137.509	48.456	379.312	102.320	123.070	353.761	0.00022208	0.00038464	0.00013836	659.96	4.183e-06	3.5277e-06	570.93	202.35	2.6706e-06	1.7677e-06	212.36	71.104	59.026	19.535	2.9693e-06	28.822	0.00015798	0.00013982	3.8435e-05	665.99	1.566e-06	1.4856e-06	576.91	204.95	1.5825e-06	1.5767e-06	216.09	72.425	60.203	20.156	1.5479e-06	29.491	231.677	143.490	136.297	61.359	232.168	191.138	60.413	65.550	239.684	185.832	63.803	69.027	70.124	76.397	238.732	73.923	-8191	255	
971.464	1	1	0	0	0.11092	0.19663	0.23498	0.11774	0.17104	0.065675	0.2194	0.1695	0.099911	0.12462	0.25175	0.058991	0.11825	0.057478	0.17343	0.16253	-4.7063	-4.8333	-4.5042	-5.1771	-4.5062	-4.7646	-5.2188	-4.3875	-4.8542	-4.85	-4.5375	-4.9938	-4.7083	-4.775	-4.8583	-4.5188	317.030	271.996	364.493	372.927	296.540	246.013	290.178	106.195	67.252	145.462	78.567	246.398	376.882	321.370	153.194	397.656	0.00023167	0.00036034	7.4084e-05	658.58	2.8428e-06	2.7153e-06	572.9	200.21	2.6592e-06	2.4208e-06	213.03	71.383	59.298	20.092	2.5461e-06	29.601	0.00016677	0.00014051	4.0927e-05	665.3	1.6138e-06	1.5124e-06	575.57	203.84	1.5759e-06	1.5851e-06	215.75	72.663	60.468	20.645	1.566e-06	30.23	231.124	135.019	152.198	61.189	194.920	203.033	60.699	65.783	222.853	184.945	63.954	68.911	70.212	76.084	217.432	73.350	-8191	255	
971.560	1	1	0	0	0.11662	0.20336	0.26124	0.095971	0.18264	0.056849	0.16398	0.090123	0.32705	0.10851	0.11315	0.31302	0.17761	0.22157	0.089318	0.088274	-4.5396	-4.8542	-4.5854	-4.975	-4.7479	-4.6771	-5	-4.5021	-4.8396	-4.7854	-4.45	-5.0854	-4.6583	-4.5646	-4.95	-4.4125	146.295	327.984	106.913	89.378	261.977	271.416	367.069	224.653	202.448	387.128	278.008	341.725	350.523	70.233	399.423	304.201	0.00024553	0.00017417	9.7259e-05	658.36	4.3586e-06	2.5295e-06	569.76	200.44	1.8869e-06	2.5573e-06	212.18	72.189	59.873	20.333	2.285e-06	29.858	0.00017311	0.00014036	4.0536e-05	665.09	1.6679e-06	1.5598e-06	576.94	203.77	1.5545e-06	1.6177e-06	215.87	73.438	60.802	20.908	1.5342e-06	30.544	232.019	147.703	158.044	61.182	225.448	211.846	60.562	65.827	264.847	169.198	63.964	68.916	70.172	76.338	220.644	73.237	-8191	255	
971.654	1	1	0	0	0.18608	0.015538	0.039822	0.085097	0.049803	0.15885	0.12719	0.34098	0.2252	0.19663	0.10072	0.10809	0.080056	0.17832	0.18121	0.067689	-4.2417	-4.9104	-4.3167	-4.9208	-4.7438	-4.55	-5.0896	-4.4208	-4.8187	-4.9292	-4.6729	-4.9812	-4.8125	-4.4604	-4.9167	-4.4646	373.843	103.310	370.989	378.158	149.646	141.829	278.298	169.881	195.730	310.243	217.454	323.897	329.916	374.284	69.958	211.697	0.00026949	0.0002856	8.2011e-05	661.22	3.4282e-06	3.9791e-06	573.45	200.4	1.5333e-06	3.3967e-06	212.12	71.65	59.052	20.174	2.6214e-06	29.578	0.00017551	0.00013967	3.8983e-05	668.8	1.6265e-06	1.5531e-06	578.38	204.06	1.5827e-06	1.5853e-06	214.99	73.072	60.519	20.771	1.5122e-06	30.29	235.822	135.044	160.156	61.205	208.940	202.556	60.533	65.939	227.164	216.999	63.847	68.920	69.819	76.263	213.605	73.269	-8191	255	
971.750	1	1	0	0	0.2665	0.20413	0.10214	0.14705	0.1315	0.035244	0.12433	0.13423	0.17502	0.055044	0.22438	0.33485	0.070195	0.13398	0.10259	0.011996	-4.3875	-4.95	-4.3812	-4.8854	-4.825	-4.4875	-5.1042	-4.7167	-4.7333	-4.9812	-4.5938	-4.9563	-4.7396	-4.5667	-5.0167	-4.7979	185.654	291.009	133.538	352.578	388.435	336.782	366.412	269.146	382.681	387.183	360.470	256.830	359.415	345.276	311.084	158.979	0.00024578	0.00021007	8.926e-05	665.77	3.5161e-06	3.1784e-06	569.41	201.03	3.4743e-06	1.5383e-06	212.56	71.528	59.402	20.15	3.8584e-06	29.634	0.00016871	0.00013912	3.8648e-05	671.39	1.5758e-06	1.5058e-06	576.16	203.94	1.5546e-06	1.5515e-06	215.45	72.772	60.368	20.796	1.5519e-06	30.369	232.064	148.038	140.217	61.319	218.380	202.235	60.255	65.740	247.902	209.856	63.873	68.846	70.365	76.182	216.124	73.388	-8191	255	
971.846	1	1	0	0	0.072558	0.0096931	0.24028	0.10835	0.19124	0.26955	0.016019	0.13108	0.28107	0.17802	0.10346	0.22393	0.23378	0.19709	0.22761	0.25232	-4.3833	-5.0917	-4.4896	-4.9229	-4.9146	-4.4521	-5.1854	-4.7583	-4.6271	-5.0458	-4.5437	-4.9354	-4.9938	-4.4062	-5.05	-4.8354	118.105	139.102	147.616	395.587	271.264	374.119	149.223	354.805	217.424	223.470	97.569	220.191	404.886	383.001	80.969	173.725	0.00024711	0.00026778	4.8491e-05	660.91	3.7626e-06	2.1707e-06	569.77	200.08	1.6215e-06	3.3369e-06	211.35	71.251	58.933	20.533	1.8403e-06	30.272	0.00016812	0.00013706	3.8474e-05	665.69	1.6206e-06	1.5267e-06	574.51	202.93	1.5589e-06	1.4798e-06	214.91	72.706	60.147	21.08	1.4771e-06	30.954	232.067	155.846	152.670	61.272	211.336	176.609	60.322	65.680	234.978	182.809	63.942	69.124	70.443	76.314	216.563	73.724	-8191	255	
971.967	1	1	0	0	0.1899	0.20633	0.18981	0.17445	0.049841	0.18288	0.05651	0.18214	0.1439	0.13912	0.17244	0.054751	0.096496	0.15152	0.17759	0.26811	-4.2875	-5.1771	-4.3896	-4.925	-5.0062	-4.4771	-5.0625	-4.9625	-4.5333	-5.0042	-4.7604	-4.8167	-4.9938	-4.4688	-5.0563	-4.775	195.321	383.241	361.709	157.377	361.611	362.397	245.693	362.249	181.489	388.111	336.236	58.146	160.143	351.270	393.573	341.441	0.00024572	0.00023752	7.8156e-05	653.58	3.5569e-06	2.1984e-06	566.5	200.05	2.3378e-06	1.6265e-06	212.42	71.742	59.225	20.849	3.8243e-06	30.956	0.00016733	0.00014199	4.086e-05	660.46	1.6052e-06	1.5079e-06	573.65	202.47	1.5894e-06	1.4752e-06	215.62	73.206	60.358	21.512	1.5993e-06	31.558	229.705	150.925	139.736	61.313	197.035	215.497	60.380	66.013	253.865	171.368	64.048	69.146	70.195	75.946	201.762	73.605	-8191	255	
972.063	1	1	0	0	0.11929	0.24834	0.064735	0.11578	0.047129	0.23095	0.1492	0.072494	0.034381	0.026795	0.26043	0.11638	0.41496	0.09257	0.052294	0.031463	-4.0896	-5.05	-4.5854	-4.8667	-5.0708	-4.4979	-4.8354	-4.9208	-4.3792	-5.1667	-4.7292	-4.6438	-5.1438	-4.5583	-4.8396	-5.1625	317.022	219.170	371.141	404.872	100.953	383.636	359.310	169.030	360.976	85.548	119.119	327.124	356.478	275.580	282.798	49.876	0.00026511	0.00029234	9.7783e-05	652.46	2.3802e-06	3.6456e-06	570.02	200.07	2.1463e-06	1.8105e-06	212.76	71.317	59.016	20.927	2.4043e-06	30.76	0.00017006	0.00013899	3.9702e-05	659.11	1.5951e-06	1.5674e-06	575.78	202.64	1.5606e-06	1.4787e-06	215.64	73.014	60.18	21.507	1.5219e-06	31.428	233.146	126.068	144.064	61.221	212.674	212.281	60.533	65.796	227.698	185.195	63.937	69.310	70.496	76.296	195.926	73.354	-8191	255	
972.159	1	1	0	0	0.16371	0.1649	0.15159	0.36603	0.088776	0.11011	0.096816	0.1291	0.19246	0.19043	0.16665	0.12996	0.10783	0.24086	0.26738	0.19748	-4.1729	-4.9167	-4.6979	-4.5333	-5.2375	-4.4542	-4.8271	-5.1583	-4.3938	-4.8479	-4.9313	-4.5188	-5.0417	-4.5437	-4.7875	-5.0208	233.109	254.191	291.222	74.947	161.731	156.694	200.360	72.107	254.968	352.627	303.016	368.682	303.734	55.797	383.140	293.883	0.00025392	0.00021094	8.5554e-05	648.36	4.5623e-06	3.878e-06	567.74	198.83	2.9568e-06	2.8828e-06	211.47	71.502	58.999	20.733	2.4471e-06	30.641	0.00017285	0.00013987	3.8854e-05	656.22	1.5573e-06	1.5625e-06	574.32	202.34	1.5952e-06	1.5491e-06	214.55	72.881	60.149	21.41	1.5895e-06	31.251	229.668	146.558	137.934	61.436	203.020	204.371	60.816	66.041	223.200	130.781	63.684	68.580	70.616	76.055	184.301	73.582	-8191	255	
972.255	1	1	0	0	0.11446	0.11144	0.15882	0.19738	0.099368	0.123	0.13757	0.19298	0.052258	0.46171	0.11766	0.38249	0.10451	0.058057	0.10702	0.062237	-4.0833	-4.8875	-4.6146	-4.5271	-5.0938	-4.5687	-4.7812	-5.1229	-4.2896	-4.8958	-4.9208	-4.6021	-5.0729	-4.7229	-4.6521	-4.9479	170.373	356.255	55.964	360.162	152.743	127.211	289.975	375.957	257.438	341.730	53.008	372.223	86.509	146.141	101.266	317.974	0.00026637	0.00027356	8.835e-05	649.24	3.071e-06	1.8576e-06	570.92	199.84	2.101e-06	2.657e-06	212.68	71.916	59.419	20.902	3.0638e-06	30.895	0.00017536	0.0001423	3.7626e-05	656.16	1.5751e-06	1.6111e-06	577.19	202.88	1.5936e-06	1.5439e-06	215.79	73.273	60.422	21.458	1.5479e-06	31.361	230.932	109.899	185.167	61.455	219.207	220.618	60.422	65.757	202.657	234.786	63.697	68.996	70.439	76.288	210.762	73.541	-8191	255	
972.352	1	1	0	0	0.28323	0.070113	0.05001	0.2663	0.11182	0.044276	0.31784	0.16127	0.15085	0.33917	0.083115	0.10745	0.14999	0.15106	0.13638	0.065766	-4.1146	-4.9271	-4.8833	-4.6188	-5.1396	-4.5938	-4.6687	-5.0479	-4.5312	-4.8104	-5.0062	-4.4187	-5.0833	-4.8875	-4.575	-5.0292	62.782	338.254	336.846	352.015	147.023	160.024	376.217	306.473	191.325	383.577	257.868	150.380	274.950	267.010	73.819	370.232	0.00024571	0.00024467	4.4189e-05	651.93	2.829e-06	1.9088e-06	572.74	199.86	3.1995e-06	2.5269e-06	212.77	72.168	59.513	20.976	2.5131e-06	30.885	0.00016983	0.00014036	3.9196e-05	659.18	1.5791e-06	1.5938e-06	577.96	203.18	1.5981e-06	1.5805e-06	215.81	73.517	60.666	21.561	1.5938e-06	31.596	227.861	160.825	87.958	61.344	206.158	216.222	60.468	65.582	243.131	221.459	63.683	69.109	69.977	76.190	206.503	73.777	-8191	255	
972.446	1	1	0	0	0.02615	0.10365	0.047309	0.30241	0.084871	0.15161	0.18656	0.15438	0.10524	0.098755	0.086162	0.10325	0.11347	0.18779	0.12556	0.089658	-4.4563	-4.7667	-4.9229	-4.5958	-5.0292	-4.8271	-4.5042	-5.1292	-4.6333	-4.7604	-5.1125	-4.5708	-5.05	-4.9896	-4.425	-5.0917	374.171	93.509	224.720	366.087	165.363	259.403	315.819	308.005	89.475	136.886	310.790	110.561	231.825	208.765	387.320	66.354	0.0002706	0.00033462	3.2184e-05	654.67	2.7875e-06	4.2994e-06	571.82	199.76	3.2426e-06	3.8927e-06	212.9	72.294	59.579	20.84	1.5175e-06	30.71	0.00017609	0.00014221	4.0354e-05	661.1	1.5582e-06	1.5791e-06	578.16	203.07	1.6343e-06	1.6072e-06	215.83	73.573	60.709	21.437	1.5659e-06	31.386	229.012	144.301	123.587	61.307	189.225	185.071	60.522	65.802	211.079	199.258	63.918	69.218	70.134	76.126	196.670	73.766	-8191	255	
972.567	1	1	0	0	0.081978	0.15855	0.11473	0.18082	0.20846	0.036362	0.060962	0.12153	0.14264	0.16291	0.12235	0.17118	0.084755	0.031596	0.15385	0.14021	-4.3417	-4.6042	-5.1479	-4.5646	-4.8792	-4.8208	-4.5979	-5.0375	-4.6562	-4.8146	-5.05	-4.6083	-5.0042	-4.7896	-4.3354	-5.1542	278.326	88.568	301.937	81.567	261.147	196.781	83.220	342.980	119.067	236.903	185.089	374.075	69.051	379.212	364.891	75.297	0.00025135	0.00017572	5.4767e-05	655.11	3.5464e-06	4.1863e-06	572	199.33	2.8966e-06	3.0267e-06	211.38	71.843	59.597	21.003	3.0735e-06	30.838	0.00017347	0.00014247	3.9971e-05	661.17	1.5939e-06	1.5733e-06	578.43	202.6	1.5622e-06	1.5182e-06	214.69	73.275	60.711	21.622	1.582e-06	31.478	230.865	113.988	169.455	61.283	228.250	188.317	60.751	65.819	245.209	187.253	63.764	68.787	70.399	76.228	190.893	73.650	-8191	255	
972.663	1	1	0	0	0.13318	0.097647	0.23671	0.14678	0.044784	0.15148	0.15779	0.17315	0.13089	0.13844	0.1035	0.052491	0.17482	0.068559	0.14996	0.088031	-4.3792	-4.6917	-5.2167	-4.4271	-4.8187	-5.0104	-4.4271	-5.1	-4.7917	-4.5771	-4.9167	-4.8667	-4.8354	-4.9792	-4.475	-5.0354	173.565	167.049	293.822	381.972	191.951	267.177	367.079	391.478	386.239	226.644	80.701	84.288	186.268	306.553	249.306	100.827	0.00025832	0.00022437	4.341e-05	654.04	3.2951e-06	1.3231e-06	571.34	199.35	1.8779e-06	1.1474e-06	211.2	72.037	59.075	21.134	2.532e-06	31.205	0.00017731	0.00014048	4.0906e-05	659.94	1.5862e-06	1.5505e-06	576.98	202.24	1.6123e-06	1.5711e-06	214.15	73.318	60.651	21.78	1.5987e-06	31.859	228.125	106.980	179.065	61.271	192.599	242.160	60.598	65.678	206.008	175.305	63.743	68.952	70.387	76.206	237.792	73.677	-8191	255	
972.759	1	1	0	0	0.024135	0.067354	0.08053	0.1057	0.067216	0.19814	0.12173	0.17438	0.15678	0.13896	0.1334	0.17359	0.072783	0.045723	0.10579	0.04075	-4.4521	-4.5792	-5.1521	-4.7229	-4.6771	-5.0062	-4.4583	-5.05	-4.8917	-4.5396	-5.175	-4.6354	-4.7458	-4.9917	-4.4042	-5.0333	190.650	93.258	54.745	350.284	102.406	139.476	50.011	314.818	170.486	151.583	366.232	299.533	113.298	83.449	248.801	310.360	0.00026647	0.00035288	6.6141e-05	649.77	3.8822e-06	4.3127e-06	567.62	198.17	1.456e-06	3.4188e-06	212.29	72.247	59.591	21.244	3.5388e-06	31.585	0.00017895	0.00014474	4.0881e-05	659.06	1.5972e-06	1.6386e-06	575.17	201.6	1.614e-06	1.5951e-06	214.51	73.464	60.6	21.843	1.6167e-06	32.062	229.167	145.868	163.275	61.118	236.678	200.191	60.352	65.994	195.523	180.645	63.783	69.001	70.192	76.391	206.026	73.224	-8191	255	
972.855	1	1	0	0	0.21939	0.13533	0.091857	0.10138	0.07877	0.20457	0.15249	0.078604	0.10209	0.13316	0.12031	0.201	0.15911	0.14913	0.11363	0.23188	-4.5687	-4.4146	-5.0854	-4.6729	-4.5104	-5.1	-4.75	-5.0792	-4.9646	-4.4542	-5.15	-4.8812	-4.5771	-5.2042	-4.6083	-4.8438	104.085	105.956	60.225	180.181	120.242	157.663	356.871	105.519	158.798	52.836	395.649	363.568	384.657	58.178	363.110	222.115	0.00028419	0.00019352	8.569e-05	651.58	3.507e-06	3.4172e-06	569.52	199.47	2.0961e-06	2.1809e-06	212.72	72.571	59.596	21.415	2.7704e-06	31.662	0.00017919	0.00014805	4.026e-05	659.01	1.6735e-06	1.5751e-06	576.58	202.11	1.6066e-06	1.5728e-06	215.79	73.985	60.788	22.033	1.6514e-06	32.385	234.134	104.936	127.374	61.441	176.472	213.860	60.702	65.938	218.207	173.011	63.917	68.967	70.103	76.339	198.417	73.467	-8191	255	
972.951	1	1	0	0	0.1269	0.11084	0.032283	0.049769	0.1425	0.1681	0.16207	0.10874	0.1092	0.14846	0.086768	0.094467	0.16521	0.1257	0.2086	0.12356	-4.4958	-4.4375	-5.0729	-4.7333	-4.6604	-5.1333	-4.6562	-4.8083	-4.9667	-4.3771	-5.1375	-4.8042	-4.4667	-5.0188	-4.6833	-4.7937	168.804	51.523	134.385	188.017	72.174	405.465	343.290	260.644	335.263	112.820	139.634	271.963	396.923	55.674	362.559	291.773	0.00026525	0.00024824	9.579e-05	650.84	4.4499e-06	4.0607e-06	570.89	199.43	3.2718e-06	2.8244e-06	212.22	71.796	59.163	21.147	2.3056e-06	30.954	0.00017846	0.00014525	4.129e-05	659.57	1.6678e-06	1.548e-06	576.45	202.57	1.5707e-06	1.5961e-06	215.43	73.408	60.197	21.713	1.5918e-06	31.759	229.569	128.797	146.982	61.220	206.799	203.814	60.102	65.900	239.253	198.383	63.872	69.202	70.134	76.204	196.430	73.512	-8191	255	
973.047	1	1	0	0	0.16862	0.12711	0.23997	0.10919	0.13403	0.15855	0.16596	0.066805	0.23688	0.079363	0.15018	0.063894	0.30782	0.10476	0.07369	0.12555	-4.65	-4.4729	-4.9104	-4.8479	-4.5771	-5.0396	-4.8479	-4.7188	-5.0188	-4.425	-4.8229	-4.9	-4.5083	-5.0479	-4.7458	-4.6979	60.871	288.116	192.933	254.474	82.638	122.076	261.451	48.138	79.113	240.592	135.770	105.071	147.390	253.531	230.279	313.952	0.00025044	0.00023225	6.2247e-05	649.77	2.9977e-06	1.3545e-06	568.43	197.43	2.7284e-06	2.3803e-06	212.12	71.129	58.765	20.682	3.3008e-06	30.563	0.00017859	0.0001484	3.9862e-05	657.27	1.6576e-06	1.504e-06	575.33	201.96	1.5779e-06	1.5414e-06	215.42	72.807	59.867	21.313	1.6173e-06	31.366	232.159	144.639	122.779	61.352	211.092	217.184	60.536	65.881	240.021	155.229	63.960	68.939	70.356	76.470	213.302	73.805	-8191	255	
973.144	1	1	0	0	0.14661	0.20001	0.20113	0.18734	0.074799	0.20626	0.15584	0.097664	0.23653	0.23547	0.071197	0.039444	0.047218	0.11147	0.12442	0.12836	-4.675	-4.5521	-4.8479	-4.9604	-4.3917	-5.0938	-4.8063	-4.5979	-5.1667	-4.6896	-4.7396	-4.9083	-4.5292	-4.95	-4.6917	-4.4542	323.139	98.028	376.103	381.604	327.758	340.091	362.050	335.850	386.798	116.610	268.675	99.080	353.786	206.724	72.551	107.931	0.00026192	0.00027357	8.4367e-05	650.99	4.4811e-06	2.0444e-06	572.17	199.59	2.6255e-06	5.5736e-06	212.79	71.861	58.874	20.694	3.6533e-06	30.613	0.00017293	0.00014769	4.077e-05	658.06	1.5719e-06	1.5465e-06	577.25	203.11	1.6101e-06	1.5656e-06	216.53	73.131	59.955	21.305	1.5882e-06	31.349	234.222	126.247	136.133	61.332	237.766	191.921	60.440	65.869	260.809	194.071	63.947	69.015	70.272	76.380	229.808	73.480	-8191	255	
973.240	1	1	0	0	0.046347	0.030253	0.10344	0.18063	0.21379	0.10749	0.13265	0.19473	0.057694	0.21341	0.16596	0.10504	0.080459	0.17533	0.099846	0.18272	-4.6937	-4.4167	-4.8021	-5.0563	-4.5396	-5.1604	-4.9062	-4.6021	-5.1542	-4.6687	-4.6917	-5.2229	-4.4563	-4.8667	-4.7021	-4.7125	213.929	103.654	51.282	382.355	268.782	229.531	67.963	344.078	212.716	354.247	378.442	165.009	388.816	390.880	190.421	292.658	0.00026557	0.00036877	6.6335e-05	654.61	3.83e-06	2.9354e-06	573.67	200.93	2.5435e-06	3.1792e-06	213.76	72.01	59.126	20.804	2.0254e-06	30.796	0.00017166	0.00014613	3.9172e-05	660.14	1.6437e-06	1.5289e-06	579.31	203.8	1.5636e-06	1.5531e-06	217.05	73.243	60.244	21.396	1.5729e-06	31.528	233.313	145.114	130.801	61.472	219.137	199.131	60.701	65.983	224.670	218.881	63.595	69.189	70.207	76.353	243.250	73.424	-8191	255	
973.359	1	1	0	0	0.20541	0.20746	0.12055	0.055255	0.087661	0.10755	0.06066	0.21249	0.028582	0.043951	0.13932	0.20572	0.25929	0.028658	0.093224	0.28954	-4.6854	-4.7	-4.8417	-5.1667	-4.5542	-4.9271	-4.9271	-4.6417	-5.0146	-4.6375	-4.6229	-5.0542	-4.5979	-4.8979	-5.0271	-4.6021	404.729	148.727	71.060	67.448	82.407	60.915	327.421	368.149	233.100	270.219	96.755	75.871	165.067	77.949	47.835	356.541	0.00025638	0.00024518	9.7737e-05	653.56	4.0592e-06	4.3234e-06	574.67	200.99	2.8836e-06	2.3255e-06	213.57	71.981	58.845	20.76	2.359e-06	30.826	0.00017042	0.0001503	4.0159e-05	662.3	1.6234e-06	1.5476e-06	580.7	203.99	1.6187e-06	1.593e-06	217.08	73.252	60.052	21.34	1.6227e-06	31.47	229.224	138.469	166.194	61.192	191.684	185.134	60.550	65.725	231.455	148.714	64.020	68.910	70.135	76.213	232.338	73.635	-8191	255	
973.455	1	1	0	0	0.23243	0.15911	0.081546	0.037775	0.16185	0.07254	0.02615	0.048081	0.14118	0.11203	0.15641	0.097889	0.2503	0.13331	0.088246	0.13352	-4.6312	-4.6687	-4.8042	-5.1396	-4.5396	-4.8396	-5.0667	-4.6708	-5.1667	-4.8354	-4.675	-5.1229	-4.5687	-4.7979	-4.9021	-4.5375	271.439	189.009	268.846	133.975	65.928	131.127	211.621	64.045	81.112	293.610	238.830	362.938	64.682	387.291	382.374	108.988	0.00025699	0.00040634	9.4777e-05	650.85	2.903e-06	1.9788e-06	569.02	200.1	2.5672e-06	3.3023e-06	213.07	71.7	58.607	20.794	3.1406e-06	30.623	0.00017363	0.00015216	4.086e-05	658.74	1.6388e-06	1.575e-06	577	203.25	1.6183e-06	1.5464e-06	216.31	72.984	59.772	21.393	1.5911e-06	31.379	230.890	150.541	152.594	61.145	226.622	190.549	60.617	65.868	234.760	189.959	64.131	69.018	70.246	76.253	227.674	73.644	-8191	255	
973.528	1	1	0	0	0.22019	0.047477	0.10883	0.2457	0.19417	0.10927	0.054201	0.1067	0.19437	0.033457	0.2212	0.19061	0.12121	0.06408	0.11201	0.12755	-4.6813	-4.7042	-4.5458	-5.2354	-4.6729	-4.7896	-5.1438	-4.5583	-5.0229	-4.8604	-4.5917	-5.0625	-4.5604	-4.7438	-4.9583	-4.5	266.221	214.400	277.312	381.880	173.292	191.479	177.920	84.156	326.955	274.204	123.323	59.808	299.335	150.781	115.291	82.462	0.00024867	0.00030153	7.2864e-05	652.13	3.2279e-06	3.3531e-06	574	199.47	3.3583e-06	2.5957e-06	212.65	71.348	58.545	20.662	1.1195e-06	30.459	0.00016925	0.00014907	3.9311e-05	658.94	1.6324e-06	1.5374e-06	577.36	203.13	1.6018e-06	1.4594e-06	216.35	72.834	59.952	21.249	1.5267e-06	31.232	231.722	144.788	128.161	61.082	224.042	199.169	60.520	65.950	233.258	210.655	64.172	68.898	70.211	76.351	200.358	73.113	-8191	255	
973.647	1	1	0	0	0.093106	0.1032	0.15	0.0028273	0.26219	0.088843	0.17716	0.28311	0.21107	0.13421	0.23033	0.26986	0.052895	0.15463	0.16982	0.13005	-4.4729	-4.8688	-4.5854	-5.0583	-4.5896	-4.7833	-5.125	-4.8625	-4.8396	-4.9958	-4.525	-5.175	-4.775	-4.5229	-5.1604	-4.6542	114.674	105.697	190.898	348.945	396.109	202.057	342.352	329.145	330.692	90.730	346.030	93.595	358.652	123.960	197.861	407.514	0.00025425	0.00034019	7.5876e-05	652.74	4.0715e-06	5.9819e-06	573.36	200.36	2.3799e-06	1.9395e-06	213.87	71.797	59.212	20.858	2.8676e-06	30.657	0.00017094	0.00014385	3.8927e-05	661.29	1.5882e-06	1.5409e-06	579.43	203.81	1.5715e-06	1.5184e-06	216.39	73.105	60.275	21.405	1.5864e-06	31.41	227.744	149.008	148.199	61.355	223.359	184.286	60.429	65.863	247.979	155.823	63.821	69.020	70.041	76.262	195.311	73.568	-8191	255	
973.743	1	1	0	0	0.27001	0.099265	0.1828	0.17223	0.073839	0.10849	0.15993	0.28948	0.068141	0.10404	0.24074	0.17874	0.28761	0.085115	0.087772	0.1348	-4.3938	-4.9396	-4.5062	-5.0583	-4.8167	-4.5958	-5.0917	-4.6354	-4.8208	-4.9729	-4.6083	-4.9917	-4.8	-4.6083	-5.1583	-4.6896	406.822	324.689	396.174	383.619	232.852	138.823	344.065	89.364	298.413	115.272	394.485	388.408	395.941	122.343	274.090	277.743	0.00026691	0.00026492	0.00011376	654.72	2.5838e-06	3.9615e-06	573.96	200.03	2.6605e-06	1.8035e-06	214.26	72.013	59.245	21.065	4.2153e-06	31.161	0.00016941	0.00014471	4.0463e-05	662.43	1.585e-06	1.6124e-06	578.56	203.34	1.6107e-06	1.5674e-06	216.52	73.372	60.381	21.681	1.6113e-06	31.938	230.235	144.429	127.653	61.467	230.635	218.399	60.663	65.931	196.287	218.601	63.851	68.826	70.257	76.254	201.433	73.480	-8191	255	
973.839	1	1	0	0	0.10916	0.23812	0.18727	0.10412	0.11604	0.17479	0.28383	0.18056	0.14083	0.1134	0.18022	0.10761	0.1282	0.17331	0.022719	0.15923	-4.4896	-5.0729	-4.3438	-4.9896	-4.9229	-4.5542	-5.2417	-4.5896	-4.65	-4.975	-4.45	-4.8542	-4.7521	-4.4146	-5.0271	-4.6125	324.249	358.425	169.164	317.408	74.603	62.631	64.163	343.358	378.730	104.288	107.525	126.228	188.895	331.188	190.681	227.023	0.00025082	0.00013292	6.1455e-05	651.32	4.3525e-06	2.4125e-06	573.58	199.45	2.482e-06	3.2498e-06	213.02	72.001	59.015	21.264	2.852e-06	31.215	0.00017763	0.00014833	4.1272e-05	659.35	1.6292e-06	1.6639e-06	576.95	202.85	1.6673e-06	1.5797e-06	216.04	73.237	60.143	21.778	1.6396e-06	31.923	234.367	95.527	157.414	61.073	213.650	190.856	60.578	65.810	239.465	186.441	63.804	68.997	70.480	76.319	225.360	73.615	-8191	255	
973.960	1	1	0	0	0.063576	0.12918	0.13238	0.096409	0.065003	0.052506	0.19777	0.26097	0.082172	0.08071	0.13614	0.072003	0.075588	0.12438	0.021892	0.099139	-4.1792	-5.1354	-4.5458	-5.1104	-4.8771	-4.4625	-4.9437	-4.9167	-4.5771	-5.1292	-4.6271	-4.8854	-5.1583	-4.4604	-4.9146	-4.9354	393.178	202.045	204.964	334.388	281.764	241.913	271.431	341.158	71.659	265.983	339.983	392.291	275.569	334.000	403.537	196.911	0.00026835	0.00023867	8.3383e-05	650.8	3.3692e-06	2.2763e-06	571.45	199.24	3.8536e-06	2.6566e-06	212.07	71.552	58.925	20.876	2.4136e-06	31.021	0.00018032	0.00014293	4.2472e-05	657.68	1.6146e-06	1.6032e-06	575.06	202.7	1.6436e-06	1.5315e-06	215.25	72.908	60.039	21.478	1.587e-06	31.527	234.360	116.137	166.462	61.226	213.915	241.713	60.307	65.941	239.831	197.700	64.045	69.103	70.194	76.360	204.421	73.503	-8191	255	
974.056	1	1	0	0	0.22952	0.12783	0.15996	0.26298	0.19508	0.091349	0.04108	0.23062	0.1976	0.13277	0.13055	0.43494	0.27665	0.21051	0.14988	0.11411	-4.1917	-5.15	-4.5479	-4.8	-4.9563	-4.4625	-5.0396	-4.7479	-4.5396	-5.0854	-4.7125	-4.8771	-4.9854	-4.5354	-4.9812	-4.8562	212.494	325.588	238.666	297.607	376.273	296.978	65.046	342.462	137.837	108.200	370.392	383.342	69.149	373.548	243.090	252.441	0.00025597	0.00021157	0.00010046	652.14	2.6732e-06	3.756e-06	570.2	199.3	2.0228e-06	3.0376e-06	212.82	71.469	58.629	20.867	2.6536e-06	30.802	0.00017438	0.00014279	4.1314e-05	658.95	1.5981e-06	1.5865e-06	575.73	202.64	1.6456e-06	1.5816e-06	215.8	72.887	59.945	21.445	1.5266e-06	31.49	226.879	125.811	153.150	61.368	220.350	172.202	60.646	65.779	243.001	203.206	64.003	68.785	70.198	76.296	229.061	73.703	-8191	255	
974.128	1	1	0	0	0.066207	0.12009	0.12975	0.19445	0.21141	0.2008	0.077877	0.24021	0.19305	0.049114	0.0813	0.099761	0.19497	0.12989	0.19409	0.14597	-4.2708	-5.1333	-4.6312	-4.8625	-4.9437	-4.6583	-4.9146	-4.825	-4.5021	-5.1625	-4.9083	-4.6896	-5.2917	-4.8229	-4.9479	-4.9021	353.801	171.399	292.681	338.915	157.746	392.985	404.847	374.805	213.860	381.839	193.643	80.035	108.660	257.949	335.613	138.875	0.0002491	0.00030384	9.5297e-05	652.67	3.4046e-06	2.2612e-06	571.31	199.08	2.6788e-06	3.896e-06	212.55	71.589	58.776	20.959	3.432e-06	31.088	0.00017343	0.0001419	4.004e-05	660.31	1.5392e-06	1.5389e-06	576.41	202.9	1.5694e-06	1.5296e-06	215.32	73.024	59.932	21.555	1.5823e-06	31.731	229.396	122.220	148.345	61.147	233.647	216.423	60.294	65.937	233.381	208.988	64.206	69.136	70.224	76.339	204.935	73.660	-8191	255	
974.248	1	1	0	0	0.14389	0.19363	0.10545	0.065983	0.20814	0.17169	0.066836	0.13494	0.17084	0.11776	0.13367	0.1287	0.17822	0.093177	0.051632	0.14093	-4.0583	-4.9625	-4.6729	-4.825	-5.3187	-4.5604	-4.8708	-5.0875	-4.5896	-5.1146	-4.8792	-4.5479	-5.0417	-4.6125	-4.7625	-5.0333	70.743	136.692	253.097	187.821	309.564	161.801	322.157	282.045	107.677	396.919	401.521	393.278	64.619	339.755	342.572	350.038	0.00027797	0.00032359	0.00010244	652.05	4.4793e-06	3.8402e-06	570.62	199.13	3.208e-06	3.0768e-06	212.42	71.833	58.929	20.935	3.2548e-06	30.928	0.00017626	0.00014337	4.0033e-05	658.39	1.6147e-06	1.5729e-06	575.16	202.67	1.593e-06	1.5231e-06	214.93	73.17	59.96	21.56	1.557e-06	31.561	228.590	129.186	142.044	61.250	204.427	166.523	60.396	65.877	197.151	212.297	63.940	69.044	70.315	76.599	207.609	73.523	-8191	255	
974.343	1	1	0	0	0.21972	0.11458	0.025483	0.21145	0.27666	0.23114	0.16413	0.13117	0.046171	0.18397	0.13042	0.16296	0.054231	0.1081	0.17479	0.0021375	-4.15	-4.9417	-4.7354	-4.5583	-4.9958	-4.6813	-4.8333	-5.0396	-4.6125	-4.925	-4.925	-4.5687	-5.0958	-4.6729	-4.7875	-5.2312	276.571	89.773	99.670	393.513	191.633	121.118	403.175	318.910	338.703	184.188	199.655	286.626	340.426	152.748	101.734	372.514	0.00026078	0.00033208	5.671e-05	650.62	1.2695e-06	3.8552e-06	566.55	197.47	2.8765e-06	7.1158e-07	211.55	71.384	58.399	20.809	3.2385e-06	30.761	0.00017382	0.00013868	4.0763e-05	658.29	1.62e-06	1.482e-06	572.61	201.2	1.5768e-06	1.4869e-06	213.87	72.649	59.779	21.424	1.5009e-06	31.431	230.516	152.995	138.487	61.151	182.198	190.941	60.449	65.623	220.876	271.007	63.906	68.875	70.654	76.315	217.159	73.719	-8191	255	
974.439	1	1	0	0	0.11001	0.068475	0.1931	0.10419	0.19981	0.30962	0.036291	0.095485	0.11326	0.31622	0.036661	0.082031	0.085703	0.17816	0.14768	0.20728	-4.075	-4.8125	-4.7583	-4.5687	-4.9979	-4.7417	-4.7708	-5.1729	-4.4604	-4.7646	-5.1396	-4.45	-5.1646	-4.6792	-4.6521	-5.1604	380.969	76.054	84.336	229.241	54.833	398.685	113.979	353.996	74.450	141.902	375.461	87.494	340.506	55.946	317.671	373.698	0.00026779	0.00020088	0.00011569	651.2	2.4759e-06	2.4094e-06	568.48	198.1	3.023e-06	2.4296e-06	211.88	71.584	58.742	20.859	3.7494e-06	30.852	0.00016733	0.00013994	3.974e-05	657.32	1.5577e-06	1.4778e-06	573.12	201.3	1.6474e-06	1.5015e-06	214.01	72.743	59.843	21.45	1.5785e-06	31.458	232.457	118.031	138.397	61.285	211.287	173.207	60.651	65.734	227.325	163.143	63.831	69.203	70.140	76.181	200.734	73.712	-8191	255	
974.535	1	1	0	0	0.11239	0.17939	0.078147	0.062562	0.22797	0.21916	0.091247	0.11298	0.17666	0.16561	0.19443	0.14473	0.16918	0.21521	0.24456	0.16039	-4.1708	-4.75	-4.875	-4.525	-5.0375	-4.6896	-4.6021	-5.2063	-4.7125	-4.6687	-5.0708	-4.4583	-5.0167	-4.7542	-4.6312	-5.1292	155.393	269.909	242.792	304.345	294.250	334.189	296.383	53.522	222.745	279.056	106.215	380.970	369.901	376.091	170.717	144.490	0.00025323	0.00022609	9.88e-05	647.35	3.5842e-06	3.744e-06	568.91	197.54	2.082e-06	1.4253e-06	211.45	71.249	58.813	20.854	1.9982e-06	30.743	0.00017022	0.0001414	3.8906e-05	655.87	1.59e-06	1.5154e-06	572.79	201.37	1.6369e-06	1.5795e-06	214.17	72.767	59.815	21.436	1.6069e-06	31.511	233.219	121.231	165.471	61.226	225.169	196.951	60.567	65.715	220.528	182.412	63.487	68.957	70.287	76.098	233.777	73.846	-8191	255	
974.656	1	1	0	0	0.20513	0.25061	0.062964	0.10576	0.29214	0.067772	0.17645	0.036286	0.096498	0.054698	0.21857	0.21209	0.17112	0.026194	0.16616	0.20875	-4.2708	-4.8271	-4.7396	-4.525	-4.8063	-4.7229	-4.5792	-4.9583	-4.6438	-4.7063	-5.0917	-4.4812	-4.9167	-4.8479	-4.4042	-5.0813	57.476	269.835	52.179	186.348	333.921	385.254	127.443	193.502	369.024	147.252	183.025	49.673	103.023	271.594	352.173	59.534	0.00027187	0.00026311	7.6396e-05	650.07	2.4685e-06	2.0437e-06	567.72	198.5	2.5162e-06	2.9365e-06	211.85	71.592	58.396	20.573	2.3819e-06	30.67	0.00017401	0.00014455	3.9768e-05	656.01	1.5912e-06	1.5084e-06	573.25	201.51	1.6071e-06	1.5654e-06	214.46	72.886	59.654	21.245	1.5685e-06	31.424	230.697	124.645	183.017	61.324	237.691	188.956	60.623	65.762	230.475	188.964	63.688	69.190	70.152	76.515	184.324	73.683	-8191	255	
974.752	1	1	0	0	0.2513	0.17175	0.20608	0.10632	0.18408	0.15306	0.17751	0.14146	0.047832	0.090781	0.12436	0.15292	0.2219	0.093316	0.053145	0.22058	-4.3479	-4.7917	-4.9167	-4.7479	-4.9958	-4.8271	-4.5875	-5.0708	-4.7917	-4.4521	-5.2063	-4.7271	-4.7917	-5.0958	-4.4	-5.0604	325.465	346.776	91.980	108.020	355.875	331.174	362.198	73.239	287.146	320.606	79.219	371.760	307.696	322.946	219.898	76.287	0.00025395	0.0002457	0.00012064	646.62	2.7402e-06	2.1449e-06	565.28	197.67	2.5617e-06	9.1264e-07	211.25	70.902	58.156	20.546	2.137e-06	30.665	0.00017358	0.00014381	3.8826e-05	653.51	1.6019e-06	1.5e-06	571.6	200.81	1.624e-06	1.6109e-06	213.74	72.349	59.391	21.166	1.603e-06	31.225	229.369	127.589	120.862	61.364	219.477	196.201	60.525	65.811	230.124	192.179	64.006	69.090	70.310	76.208	205.716	73.564	-8191	255	
974.824	1	1	0	0	0.11467	0.10741	0.19717	0.14136	0.10467	0.066788	0.17095	0.01015	0.021777	0.23222	0.078443	0.043843	0.22023	0.3003	0.039817	0.16118	-4.4229	-4.6062	-4.9271	-4.6125	-4.9062	-4.9208	-4.5312	-4.9729	-4.7792	-4.4875	-5.1021	-4.7708	-4.7458	-4.95	-4.5	-4.8583	311.462	205.652	261.547	336.038	344.922	128.595	311.088	289.705	167.553	386.568	399.246	82.037	80.383	400.194	224.592	303.354	0.00026075	0.00015697	6.7823e-05	642.13	4.4616e-06	1.5669e-06	562.85	198.27	3.4998e-06	3.1534e-06	209.61	70.842	58.18	20.351	4.0195e-06	30.51	0.00017504	0.00014375	3.9447e-05	652.04	1.5593e-06	1.5358e-06	569.17	200.26	1.6117e-06	1.5696e-06	212.98	72.198	59.259	21.068	1.5758e-06	31.159	231.157	164.697	140.402	61.447	228.645	228.278	60.592	65.748	228.376	202.391	63.680	68.852	70.068	76.228	242.744	73.508	-8191	255	
974.920	1	1	0	0	0.09379	0.33068	0.18608	0.08497	0.11485	0.19688	0.16074	0.25475	0.2004	0.12849	0.069469	0.27521	0.051558	0.17165	0.15665	0.063938	-4.5563	-4.525	-5.0396	-4.7604	-4.6271	-5.1687	-4.7125	-4.7958	-4.8146	-4.4604	-5.0833	-4.8042	-4.7417	-5.1292	-4.5312	-5.0271	342.964	102.619	214.055	83.305	364.948	149.696	407.125	371.144	196.146	216.171	254.463	194.312	260.956	160.639	127.760	326.414	0.00026554	0.00017401	5.7365e-05	643.9	2.8163e-06	1.9214e-06	563.08	198.04	1.522e-06	2.0152e-06	211.72	70.864	57.471	20.356	2.9003e-06	30.148	0.00016948	0.00014469	3.9322e-05	651.52	1.5645e-06	1.5365e-06	568.46	200.9	1.6315e-06	1.5216e-06	213.77	72.283	58.875	20.938	1.612e-06	30.97	232.127	141.535	107.607	61.277	185.962	202.702	60.400	65.748	219.542	199.571	63.801	68.864	70.259	76.055	201.895	73.707	-8191	255	
975.040	1	1	0	0	0.22361	0.11843	0.15279	0.1808	0.10271	0.18101	0.069548	0.16356	0.077423	0.20937	0.14756	0.23687	0.26038	0.27503	0.17176	0.17854	-4.5104	-4.3896	-4.9646	-4.7792	-4.5396	-5.0917	-4.6104	-4.8271	-5.0062	-4.4083	-5.1417	-4.8125	-4.5479	-5.0375	-4.6083	-4.8667	53.751	337.900	228.922	126.470	141.203	259.936	81.947	148.144	387.393	234.688	285.923	392.619	286.062	59.344	206.309	95.595	0.00026134	0.00031415	5.0806e-05	646.78	3.241e-06	2.2115e-06	563.47	198.31	1.9141e-06	2.3808e-06	211.26	71.295	57.914	20.183	3.9035e-06	30.232	0.00017135	0.00014021	3.7779e-05	652.39	1.5857e-06	1.4695e-06	568.93	200.99	1.605e-06	1.5552e-06	214.45	72.531	59.073	20.785	1.5961e-06	30.964	235.627	129.633	132.859	61.189	214.517	187.001	60.435	65.885	239.149	156.117	63.886	68.938	70.338	76.288	197.720	73.540	-8191	255	
975.136	1	1	0	0	0.21661	0.12181	0.068395	0.055323	0.19282	0.10826	0.049917	0.25763	0.10343	0.19744	0.24147	0.11106	0.25591	0.13569	0.088549	0.081588	-4.6604	-4.3917	-4.9812	-4.9208	-4.5	-5.2104	-4.6292	-4.8333	-4.9583	-4.3896	-4.7729	-4.8979	-4.55	-5.1625	-4.575	-4.7458	392.766	118.108	239.654	401.654	189.439	342.743	194.626	48.707	228.157	212.210	300.348	85.944	361.567	291.721	399.427	293.545	0.00025309	0.0001935	6.3357e-05	644.21	3.0921e-06	3.038e-06	567.06	198.32	2.3537e-06	2.0032e-06	211.11	71.388	57.718	20.3	1.6152e-06	30.406	0.00017044	0.00014462	3.9046e-05	651.61	1.5843e-06	1.4945e-06	570.97	201.13	1.5537e-06	1.5575e-06	214.68	72.603	58.946	20.913	1.6121e-06	31.136	232.863	123.470	144.301	61.402	241.171	190.145	60.418	65.899	224.139	168.152	63.636	69.567	70.252	76.278	257.195	73.455	-8191	255	
975.233	1	1	0	0	0.084592	0.15514	0.30642	0.21885	0.10485	0.021827	0.15267	0.17291	0.29565	0.13939	0.26111	0.12178	0.095812	0.11605	0.26484	0.10849	-4.6042	-4.4729	-4.8125	-4.6562	-4.4875	-5.0542	-4.7792	-4.6875	-5.2167	-4.5646	-4.8042	-4.8438	-4.3812	-4.8854	-4.6125	-4.6229	151.243	329.569	182.983	230.731	59.148	171.920	50.015	224.049	159.896	244.394	345.291	92.306	382.676	107.243	314.259	110.029	0.00025879	0.00021533	0.00010059	645.41	2.7543e-06	3.0635e-06	567.49	197.73	2.6678e-06	3.8167e-06	212.14	70.99	57.767	20.261	2.0767e-06	30.221	0.00017241	0.00014283	3.854e-05	651.89	1.5569e-06	1.4753e-06	571.75	200.83	1.5722e-06	1.5947e-06	214.65	72.391	59.019	20.858	1.577e-06	30.896	231.730	145.986	154.407	61.155	216.767	219.364	60.448	65.809	238.556	238.389	63.852	68.722	70.340	76.034	205.750	73.707	-8191	255	
975.329	1	1	0	0	0.26397	0.10202	0.1568	0.048492	0.22965	0.085508	0.10626	0.20522	0.14755	0.23331	0.31042	0.18249	0.12711	0.18039	0.25777	0.12466	-4.7812	-4.4375	-4.875	-4.9208	-4.5146	-4.9021	-4.7854	-4.4854	-5.0208	-4.4521	-4.7917	-4.9854	-4.5979	-4.9792	-4.8229	-4.6208	284.092	125.478	194.789	57.569	225.105	378.386	347.864	372.517	290.975	48.417	374.839	347.625	99.015	292.106	274.159	285.676	0.00024766	0.00032235	7.1193e-05	645.11	2.9633e-06	2.3851e-06	569.2	198.83	2.2104e-06	2.6834e-06	212.04	71.036	58.192	20.213	1.1538e-06	30.446	0.00016805	0.00014312	3.7751e-05	653.25	1.5601e-06	1.4555e-06	572.78	201.41	1.5592e-06	1.537e-06	214.57	72.494	59.099	20.783	1.6336e-06	30.927	230.579	123.992	130.254	61.052	198.962	196.253	60.667	66.119	237.987	184.737	63.724	68.783	70.269	76.417	263.145	73.679	-8191	255	
975.423	1	1	0	0	0.12303	0.10425	0.14508	0.055875	0.18504	0.11719	0.15548	0.13867	0.079138	0.054014	0.22171	0.25811	0.060871	0.17799	0.16383	0.13494	-4.7833	-4.6771	-4.6521	-4.9833	-4.2875	-5.0042	-4.9313	-4.5375	-4.925	-4.45	-4.7438	-4.9583	-4.375	-4.7146	-4.9958	-4.4229	120.105	89.527	117.371	148.342	344.386	176.161	363.827	331.222	220.484	317.734	324.683	56.704	83.881	345.965	224.461	216.473	0.00025451	0.00022222	7.8327e-05	648.38	3.15e-06	1.0928e-06	570.23	197.8	2.2762e-06	3.2773e-06	212.05	71.574	58.172	20.036	3.0045e-06	29.884	0.00016672	0.00014017	3.7915e-05	655.18	1.6162e-06	1.5165e-06	574.58	201.64	1.5797e-06	1.5559e-06	215.38	72.74	59.16	20.626	1.6048e-06	30.657	231.755	134.390	145.745	61.250	213.343	192.574	60.676	65.725	233.345	199.180	63.922	69.049	69.796	76.232	194.765	73.982	-8191	255	
975.521	1	1	0	0	0.032129	0.11517	0.15752	0.14889	0.16	0.087065	0.12962	0.25489	0.089024	0.12593	0.27	0.082322	0.17525	0.12191	0.19846	0.18593	-4.7354	-4.6646	-4.5021	-4.9625	-4.4833	-4.8125	-4.9417	-4.4875	-4.8583	-4.8187	-4.4146	-5.1375	-4.5479	-4.8604	-5.0042	-4.4896	387.502	363.982	62.500	333.451	146.739	325.707	255.192	354.075	361.532	250.849	406.164	402.656	355.115	299.188	98.991	377.762	0.00027018	0.00019892	9.5541e-05	648.99	3.2569e-06	3.0808e-06	571.89	199.83	2.1127e-06	1.62e-06	214.55	72.045	58.139	19.977	3.0643e-06	29.953	0.0001708	0.00013963	3.9311e-05	655.34	1.6082e-06	1.4982e-06	575.3	202.16	1.5489e-06	1.5567e-06	216.47	73.133	59.256	20.556	1.6082e-06	30.72	229.463	151.158	126.466	61.375	197.547	199.974	60.567	65.556	229.991	182.071	63.990	69.032	70.261	76.287	204.702	73.406	-8191	255	
975.640	1	1	0	0	0.18222	0.11492	0.15402	0.11787	0.14659	0.28489	0.2097	0.27696	0.1438	0.34677	0.11287	0.16568	0.2007	0.071467	0.05255	0.12056	-4.7521	-4.7833	-4.5396	-5.2208	-4.6729	-4.8375	-5.0271	-4.4396	-4.9688	-4.8958	-4.5104	-5.1396	-4.6958	-4.6646	-5.1583	-4.4854	336.301	340.779	111.288	398.973	69.476	373.853	391.668	330.019	395.742	346.395	87.303	59.001	101.975	354.768	402.520	50.227	0.00025523	0.00024105	9.6644e-05	647.54	3.2519e-06	1.7556e-06	568.29	199.57	2.0766e-06	2.4295e-06	213.05	71.547	58.103	19.711	2.162e-06	29.523	0.00016843	0.00013771	3.9423e-05	655.23	1.6213e-06	1.5194e-06	575.43	202.37	1.5792e-06	1.5293e-06	215.74	72.808	59.049	20.346	1.5429e-06	30.26	231.837	149.772	117.634	61.237	248.244	232.952	60.410	65.758	260.139	185.573	64.000	69.017	70.173	76.084	180.292	73.711	-8191	255	
975.736	1	1	0	0	0.20849	0.071389	0.047302	0.023277	0.20908	0.060323	0.23978	0.090382	0.085319	0.2025	0.17512	0.19592	0.16936	0.28911	0.28028	0.10969	-4.5667	-4.7479	-4.4521	-5.1521	-4.5687	-4.6083	-5.1917	-4.6312	-4.8958	-4.9333	-4.5938	-5.2208	-4.7438	-4.6729	-4.9708	-4.5563	149.897	118.232	58.327	56.071	122.120	277.329	138.151	129.509	281.779	218.449	332.360	337.094	232.976	274.396	105.893	358.231	0.00025408	0.00038885	6.5028e-05	645.39	2.4753e-06	2.0594e-06	568.21	199	2.7069e-06	2.0482e-06	213.22	71.284	58.031	19.617	2.8527e-06	29.397	0.00016343	0.00013927	3.8386e-05	654.19	1.5712e-06	1.4757e-06	573.81	201.95	1.4748e-06	1.4526e-06	215.27	72.434	59.064	20.23	1.5092e-06	30.095	232.216	135.075	134.906	61.273	209.747	250.602	60.446	65.909	236.204	197.792	63.747	69.089	70.079	76.291	216.300	73.457	-8191	255	
975.832	1	1	0	0	0.20479	0.095789	0.23607	0.066522	0.12518	0.11153	0.20281	0.10153	0.29137	0.18737	0.11094	0.30279	0.12372	0.15805	0.19933	0.19187	-4.5479	-4.7937	-4.5	-5.1125	-4.6625	-4.65	-5.0729	-4.6438	-4.7375	-4.9062	-4.6333	-4.8333	-4.7271	-4.6312	-5.0292	-4.6021	223.053	355.459	71.365	288.833	180.830	49.469	146.462	138.868	152.014	196.384	382.876	60.184	395.059	320.960	67.246	187.352	0.0002528	0.00040868	0.00012663	646.6	1.9765e-06	1.46e-06	567.92	199.9	3.1749e-06	1.3094e-06	212.02	71.314	57.785	19.737	3.7102e-06	29.64	0.0001604	0.00012861	3.8229e-05	654.16	1.5649e-06	1.4742e-06	574.15	201.99	1.5392e-06	1.4975e-06	215.02	72.525	58.912	20.284	1.4886e-06	30.282	224.402	136.651	156.554	61.087	234.427	207.349	60.367	65.596	221.540	158.329	63.657	69.060	69.869	76.344	204.615	73.481	-8191	255	
975.928	1	1	0	0	0.10946	0.30753	0.19074	0.10263	0.050173	0.21497	0.085049	0.12482	0.24777	0.18873	0.072893	0.17898	0.046404	0.057334	0.27213	0.21908	-4.4896	-5.1896	-4.5521	-5.0563	-4.9792	-4.6	-5.1583	-4.5521	-4.6333	-5.0792	-4.4979	-5.0021	-4.8438	-4.5188	-5.0813	-4.85	372.434	406.767	250.638	343.636	326.258	320.715	286.615	333.407	338.024	271.415	216.305	402.382	390.408	363.465	321.521	71.595	0.00021933	0.00023488	0.00010644	648.46	2.6399e-06	3.3648e-06	572.62	197.89	1.6352e-06	2.5156e-06	212.27	71.374	58.34	19.932	3.6438e-06	29.946	0.00016063	0.00013312	3.8372e-05	654.63	1.5244e-06	1.4481e-06	576.33	201.54	1.5243e-06	1.4403e-06	215.2	72.852	59.331	20.54	1.4802e-06	30.656	234.397	122.379	129.766	61.227	207.072	226.983	60.652	65.549	205.110	207.165	63.760	68.984	70.136	76.313	205.852	73.675	-8191	255	
976.025	1	1	0	0	0.25645	0.22044	0.060017	0.25326	0.029102	0.041912	0.16199	0.032816	0.12641	0.24078	0.097049	0.14552	0.13811	0.090049	0.19607	0.097138	-4.2875	-5.0437	-4.4938	-5.0458	-4.7771	-4.4875	-5.0625	-4.7771	-4.5417	-4.9229	-4.6646	-4.8063	-4.8396	-4.4542	-5.0917	-4.7354	124.998	273.884	301.013	349.620	358.714	372.548	378.714	119.049	399.244	63.587	369.589	225.958	371.199	232.027	179.158	98.248	0.00025202	0.0002587	6.4249e-05	646.94	4.4959e-06	2.0751e-06	573.36	198.02	1.869e-06	3.8423e-06	212.85	71.401	58.063	20.232	3.441e-06	30.113	0.00016528	0.00013376	3.7755e-05	655.53	1.5793e-06	1.4443e-06	577.61	201.62	1.5474e-06	1.4952e-06	215.36	73.073	59.456	20.82	1.4823e-06	30.883	229.457	130.402	142.563	61.180	240.260	176.853	60.386	65.723	194.717	178.154	64.000	68.771	70.248	76.086	209.733	73.303	-8191	255	
976.121	1	1	0	0	0.041496	0.099553	0.096635	0.081844	0.13864	0.20954	0.24063	0.097699	0.12609	0.096789	0.22814	0.072352	0.26262	0.13479	0.19962	0.12405	-4.2833	-5.05	-4.55	-4.8167	-4.9958	-4.55	-4.9604	-4.8063	-4.6937	-5.1375	-4.8063	-4.8417	-5.1167	-4.4604	-4.8604	-4.8187	134.509	273.890	351.721	310.783	130.674	348.664	340.900	365.739	281.860	261.114	269.053	316.736	346.750	331.881	110.946	269.148	0.00024383	0.0003375	0.00011252	645.7	3.9314e-06	3.8519e-06	569.8	197.89	1.9797e-06	2.6034e-06	211.93	71.381	58.57	20.049	1.9576e-06	29.923	0.00016541	0.00013943	3.8024e-05	654.51	1.5305e-06	1.4809e-06	574.58	201.16	1.5126e-06	1.4687e-06	214.3	72.677	59.443	20.647	1.493e-06	30.614	230.176	108.864	150.661	61.383	172.000	214.719	60.509	65.685	219.022	197.161	63.792	68.495	70.196	76.263	198.067	73.671	-8191	255	
976.217	1	1	0	0	0.089646	0.11981	0.15267	0.057639	0.021446	0.20626	0.086531	0.017187	0.10361	0.22671	0.24174	0.10948	0.011228	0.044788	0.021334	0.1392	-4.2167	-5.0146	-4.5292	-4.9187	-4.9229	-4.4958	-4.975	-4.7063	-4.3646	-5.125	-4.7312	-4.6833	-5.0979	-4.4771	-4.7292	-4.7625	101.328	392.882	357.568	354.438	273.967	204.858	56.565	133.063	82.121	63.295	334.348	316.483	177.113	395.661	345.606	378.334	0.00023867	0.00025924	0.00010783	649.6	2.4449e-06	2.289e-06	569.41	198.74	1.6179e-06	2.8846e-06	211.44	71.317	58.261	19.895	3.1479e-06	30.016	0.00016579	0.00012958	3.7552e-05	655.38	1.4951e-06	1.4475e-06	574.5	201.23	1.5538e-06	1.4186e-06	214.27	72.776	59.386	20.606	1.4908e-06	30.745	227.210	110.208	137.727	61.246	217.165	180.812	60.332	65.453	219.482	233.762	63.837	68.731	70.293	76.111	199.252	73.597	-8191	255	
976.336	1	1	0	0	0.25141	0.096156	0.081941	0.15175	0.1104	0.134	0.17496	0.10036	0.099345	0.10507	0.16792	0.23041	0.11877	0.074276	0.090689	0.1045	-4.0792	-5.1875	-4.575	-4.6687	-5.1396	-4.5333	-4.9708	-5.0479	-4.2375	-5.1562	-4.75	-4.4437	-5.2458	-4.4667	-4.7521	-4.9146	305.487	232.912	374.859	400.110	56.088	195.261	311.862	297.348	190.331	367.910	395.165	350.599	288.648	367.193	163.544	312.684	0.00025881	0.00026632	9.2682e-05	649.74	3.6429e-06	1.7204e-06	571.75	197.74	2.2564e-06	2.4968e-06	211.33	71.79	58.334	20.146	3.3235e-06	30.386	0.00016413	0.00013313	3.8303e-05	656.3	1.4672e-06	1.5021e-06	575.7	201.1	1.5483e-06	1.4339e-06	214.76	73.161	59.606	20.8	1.5302e-06	31.099	231.393	136.926	162.321	61.086	203.834	174.459	60.565	65.809	227.430	197.721	63.914	68.485	70.110	76.139	209.971	73.687	-8191	255	
976.432	1	1	0	0	0.11926	0.21727	0.24963	0.21993	0.14322	0.21581	0.089361	0.47029	0.14826	0.18293	0.12226	0.099404	0.30703	0.18153	0.089245	0.075629	-4.0917	-4.95	-4.6125	-4.6042	-5.0271	-4.5583	-4.7688	-5.0729	-4.5833	-4.8479	-5.0437	-4.6188	-5.0333	-4.5792	-4.7083	-5.0125	295.246	178.810	80.745	71.369	401.330	48.629	305.144	407.206	363.363	173.733	56.406	374.874	338.509	369.236	302.900	98.535	0.00023912	0.0002155	7.1562e-05	650.64	3.8459e-06	1.9702e-06	571.98	197.93	2.7044e-06	2.568e-06	212.79	72.522	59.202	20.766	1.7366e-06	31.41	0.00016631	0.00013807	3.75e-05	656.58	1.5501e-06	1.5308e-06	576.61	201.25	1.5221e-06	1.5267e-06	215	73.864	60.159	21.389	1.5864e-06	32.015	228.467	147.226	147.673	61.314	206.797	165.530	60.529	65.852	244.657	176.914	63.930	68.981	70.321	76.278	218.778	73.570	-8191	255	
976.528	1	1	0	0	0.20186	0.10282	0.10201	0.082335	0.24609	0.27207	0.1051	0.089829	0.11848	0.22111	0.14385	0.12552	0.23968	0.18162	0.086399	0.13028	-4.3146	-4.975	-4.8729	-4.5042	-5.0188	-4.6979	-4.7625	-5.1687	-4.4771	-5.0188	-5.0021	-4.6354	-4.9271	-4.7167	-4.6708	-5.0417	249.234	293.431	186.150	374.428	194.390	386.354	390.559	336.659	288.510	356.654	93.929	247.367	123.374	273.606	217.910	353.887	0.00026181	0.00034399	8.7218e-05	644.92	4.1941e-06	4.1428e-06	569.06	197.39	1.9272e-06	1.3643e-06	211.35	72.433	59.086	21.103	1.4653e-06	31.67	0.00017456	0.00013914	3.7364e-05	654.78	1.5509e-06	1.6199e-06	575.29	200.63	1.5745e-06	1.5534e-06	214.19	73.965	60.067	21.728	1.5938e-06	32.316	231.894	143.815	143.098	61.264	212.258	198.989	60.581	65.880	226.987	176.740	63.624	68.843	70.272	76.359	203.900	73.635	-8191	255	
976.624	1	1	0	0	0.14386	0.10806	0.026777	0.17972	0.15413	0.25088	0.097338	0.1086	0.13676	0.25167	0.14135	0.082313	0.1447	0.047488	0.11489	0.062684	-4.2125	-4.925	-4.9292	-4.4062	-4.975	-4.7771	-4.7667	-5.1188	-4.5583	-4.85	-5.1292	-4.6167	-4.8979	-4.8354	-4.6333	-5.1521	354.989	152.259	330.216	312.155	142.317	158.746	349.942	335.584	117.850	306.921	349.053	125.729	401.816	283.959	404.284	238.889	0.00027512	0.0002087	6.133e-05	649.36	3.766e-06	2.2915e-06	568.96	197.08	2.1623e-06	2.7936e-06	211.74	72.422	58.852	21.223	3.0762e-06	31.837	0.00017729	0.00014393	3.8397e-05	654.74	1.5257e-06	1.4833e-06	575.15	200.11	1.5726e-06	1.5511e-06	214.34	74.043	60.215	21.789	1.592e-06	32.5	235.381	150.543	118.791	61.291	217.270	225.677	60.322	65.919	215.872	195.156	63.670	68.844	70.262	76.017	222.505	73.530	-8191	255	
976.720	1	1	0	0	0.09142	0.084302	0.19381	0.13113	0.19344	0.29379	0.11819	0.033285	0.059831	0.066156	0.19572	0.094201	0.12612	0.048142	0.10802	0.22937	-4.2104	-4.7771	-5.0396	-4.4146	-4.7896	-4.9375	-4.6104	-5.0646	-4.7688	-4.8125	-5.1167	-4.5021	-4.9375	-4.9125	-4.4042	-5.1396	385.917	79.729	186.852	310.486	129.326	294.256	258.147	69.367	244.583	197.950	354.915	221.457	407.104	345.285	313.897	396.679	0.00027498	0.00025813	0.00013364	649.36	2.8225e-06	3.4391e-06	570.66	197.21	1.0634e-06	3.7315e-06	212.91	72.791	59.327	21.063	3.1059e-06	31.676	0.00017973	0.00014224	3.907e-05	655.45	1.5977e-06	1.5755e-06	575.89	200.59	1.5647e-06	1.5566e-06	215.09	74.293	60.33	21.686	1.5623e-06	32.352	230.678	134.487	137.973	61.312	223.624	202.501	60.435	65.756	219.780	201.528	63.942	68.645	70.102	76.355	213.448	73.575	-8191	255	
976.816	1	1	0	0	0.13647	0.1037	0.1031	0.14014	0.17431	0.067721	0.1402	0.22586	0.23502	0.058547	0.19785	0.15804	0.055499	0.011829	0.22623	0.11507	-4.3313	-4.6771	-4.9854	-4.7521	-4.8646	-5.0167	-4.6062	-4.9875	-4.5729	-4.65	-5.1312	-4.5458	-4.8187	-5.0292	-4.4146	-5.0938	357.276	390.546	219.540	301.781	159.264	302.805	317.712	314.580	296.215	272.252	400.584	262.560	260.529	56.842	364.926	363.543	0.00025123	0.0004219	0.00010798	648.57	3.0315e-06	3.0887e-06	574.43	197.36	2.4113e-06	2.4602e-06	212.53	73.236	59.395	21.137	2.6037e-06	31.952	0.00018081	0.00014935	3.8219e-05	656.36	1.5901e-06	1.5697e-06	579.11	200.77	1.6011e-06	1.5879e-06	215.27	74.62	60.37	21.775	1.6168e-06	32.606	227.753	150.838	155.913	61.321	223.404	230.856	60.698	65.809	218.683	205.835	63.699	68.524	69.934	76.264	227.967	74.009	-8191	255	
976.913	1	1	0	0	0.22801	0.073355	0.088692	0.16957	0.17458	0.071321	0.04603	0.13462	0.23574	0.1042	0.092087	0.099334	0.25948	0.13174	0.12916	0.16333	-4.4333	-4.6167	-5.0375	-4.5687	-4.7917	-4.9771	-4.6458	-4.9458	-4.5625	-4.725	-5.1813	-4.6062	-4.7146	-4.8896	-4.5917	-5.0479	100.647	192.055	313.932	354.219	181.357	139.599	358.105	387.515	114.832	358.088	130.375	245.756	106.991	67.481	288.836	354.605	0.00025028	0.00030025	9.7755e-05	645.34	4.4178e-06	2.3393e-06	577.38	199.02	2.5077e-06	3.0604e-06	213.02	72.883	58.903	20.849	3.5772e-06	31.275	0.00018278	0.00014869	4.0396e-05	655.82	1.6392e-06	1.6151e-06	581.04	201.04	1.5698e-06	1.5824e-06	214.87	74.209	60.118	21.483	1.6608e-06	32.022	231.967	152.859	109.044	61.513	214.666	238.077	60.323	65.853	252.180	197.070	63.783	69.040	69.986	76.486	221.895	73.414	-8191	255	
977.009	1	1	0	0	0.1874	0.24266	0.11811	0.13017	0.16994	0.1902	0.30889	0.10865	0.050029	0.28322	0.15252	0.13456	0.059917	0.20012	0.036179	0.064413	-4.5708	-4.5146	-5.125	-4.5896	-4.6292	-4.825	-4.3917	-4.9375	-4.8479	-4.5687	-5.075	-4.5917	-4.7833	-5.0521	-4.3979	-5	238.549	92.652	179.725	291.712	399.867	338.655	337.729	334.315	290.726	181.949	356.753	246.262	395.972	361.495	377.808	302.477	0.00027574	0.00026471	7.4215e-05	646.17	3.6491e-06	2.923e-06	572.6	198.2	2.6203e-06	4.0548e-06	210.99	71.778	59.104	20.535	2.6124e-06	30.771	0.00017752	0.00014375	3.9538e-05	655.45	1.6217e-06	1.5537e-06	577.3	201.01	1.5828e-06	1.4978e-06	213.89	73.487	60.044	21.164	1.5719e-06	31.407	231.519	121.171	109.120	61.143	224.903	196.516	60.465	65.931	233.651	209.982	63.905	69.001	70.334	76.096	190.508	73.369	-8191	255	
977.129	1	1	0	0	0.066	0.13855	0.12633	0.19089	0.14571	0.18393	0.28579	0.2683	0.035492	0.095464	0.058368	0.1019	0.10703	0.21747	0.18822	0.18243	-4.6708	-4.4542	-4.9688	-4.6687	-4.5563	-5.0583	-4.6104	-4.8042	-5.0312	-4.45	-5.1021	-4.8375	-4.5229	-5	-4.3042	-4.9396	123.596	259.631	144.767	367.886	155.426	132.054	360.474	135.586	241.846	92.552	82.533	50.494	146.268	87.525	340.734	404.747	0.00024805	0.00032378	7.8877e-05	654.23	4.2788e-06	1.9707e-06	575.16	197.88	2.0411e-06	1.7033e-06	211.88	72.008	59.476	20.128	4.0145e-06	30.068	0.00017149	0.00014215	3.8048e-05	661.76	1.6084e-06	1.4993e-06	580.75	200.95	1.518e-06	1.5436e-06	213.59	73.47	60.324	20.825	1.5495e-06	30.935	232.123	136.674	150.987	61.347	234.165	155.154	60.302	65.842	254.620	185.249	63.899	69.018	70.254	76.089	228.056	73.314	-8191	255	
977.226	1	1	0	0	0.11556	0.14179	0.16011	0.23931	0.1453	0.21453	0.088431	0.12466	0.14484	0.15571	0.041732	0.19208	0.14087	0.10477	0.16498	0.14082	-4.8292	-4.5271	-4.9542	-4.8792	-4.7521	-5.0917	-4.6979	-4.7063	-5.0458	-4.5125	-5.0771	-4.9313	-4.6	-5.1042	-4.6771	-4.9271	175.373	188.254	183.953	74.911	269.469	215.602	338.956	148.709	104.822	95.761	395.071	114.300	373.432	92.099	183.654	390.495	0.00025728	0.00021749	0.00010764	657.71	2.9623e-06	2.3928e-06	575.54	198.04	3.587e-06	2.2922e-06	210.48	72.102	59.041	19.917	3.1425e-06	29.788	0.00016917	0.00013799	3.9234e-05	665.95	1.536e-06	1.4421e-06	581.14	201.36	1.5859e-06	1.5318e-06	213.04	73.304	59.979	20.498	1.5372e-06	30.451	235.395	126.524	114.599	61.307	223.027	181.310	60.534	66.175	230.438	181.701	64.000	68.637	70.050	76.289	222.002	73.505	-8191	255	
977.322	1	1	0	0	0.25864	0.12557	0.18171	0.23587	0.15198	0.1431	0.1494	0.10886	0.12337	0.18083	0.045212	0.13951	0.19208	0.14599	0.23921	0.22394	-4.7708	-4.625	-4.8958	-4.8562	-4.5875	-5.1042	-4.7646	-4.775	-5.1292	-4.4812	-4.9042	-4.9333	-4.4583	-5.0917	-4.7896	-4.675	372.667	320.705	196.514	256.974	330.364	76.311	174.677	352.646	155.646	393.509	157.392	241.299	340.540	302.846	270.351	286.820	0.00026571	0.00027604	8.4969e-05	653.27	3.5984e-06	4.5396e-06	572.83	197.53	1.5326e-06	2.389e-06	209.28	71.639	58.894	19.597	3.3628e-06	29.282	0.00016478	0.0001357	3.7151e-05	661.89	1.5422e-06	1.46e-06	577.16	200.55	1.5138e-06	1.5004e-06	212.5	72.96	59.788	20.184	1.5298e-06	29.969	232.320	132.930	118.446	61.161	215.206	230.833	60.333	65.727	272.586	208.959	63.817	68.674	69.975	76.014	211.292	73.462	-8191	255	
977.418	1	1	0	0	0.16453	0.090239	0.12659	0.044933	0.28043	0.15913	0.23321	0.08235	0.21614	0.14519	0.076896	0.16416	0.14625	0.19522	0.26044	0.22409	-4.8625	-4.4875	-4.7042	-4.9437	-4.6042	-5.0167	-4.9812	-4.7188	-5.2333	-4.7271	-4.875	-5.0354	-4.6208	-5.2146	-4.9146	-4.5104	90.862	336.998	109.614	104.059	78.880	199.202	111.676	360.495	384.991	406.747	82.173	397.369	344.823	121.132	317.481	134.176	0.00024227	0.00030568	0.00011313	651.21	2.5699e-06	4.5565e-06	570.07	197.02	3.3733e-06	2.1377e-06	208.15	71.146	58.214	19.51	1.6611e-06	29.076	0.00016168	0.00013774	3.9126e-05	658.39	1.5586e-06	1.4387e-06	574.83	199.88	1.4747e-06	1.4462e-06	210.87	72.376	59.269	20.029	1.5192e-06	29.703	230.574	131.263	130.584	61.250	199.157	191.501	60.357	65.938	217.008	186.167	63.754	68.598	70.313	76.238	231.383	73.551	-8191	255	
977.512	1	1	0	0	0.12177	0.17995	0.10637	0.14215	0.19621	0.15487	0.13501	0.19625	0.14286	0.070569	0.056848	0.16908	0.12383	0.13026	0.16127	0.20978	-4.6792	-4.7271	-4.7125	-5.1042	-4.4792	-5.0458	-4.7396	-4.4437	-5.1813	-4.7333	-4.6833	-5.2792	-4.7	-4.9292	-4.8167	-4.5479	322.127	171.153	389.548	49.557	310.106	140.791	352.453	130.575	69.212	239.270	104.576	71.727	116.939	321.771	59.523	292.344	0.00024807	0.00015819	6.7336e-05	651	3.4852e-06	2.2948e-06	569.63	196.38	3.043e-06	2.4299e-06	207.37	70.954	58.575	19.596	3.113e-06	29.072	0.00016419	0.00013799	3.7518e-05	658.38	1.5175e-06	1.4923e-06	572.72	199.6	1.5249e-06	1.5055e-06	210.27	72.135	59.492	20.095	1.4696e-06	29.735	228.750	179.406	144.827	61.113	206.661	196.160	60.301	65.869	211.761	189.122	63.766	68.580	70.039	75.945	226.190	73.402	-8191	255	
977.608	1	1	0	0	0.21942	0.2171	0.2784	0.13961	0.057842	0.14221	0.11702	0.069957	0.17142	0.13583	0.13937	0.042287	0.10128	0.26369	0.064726	0.30308	-4.8396	-4.6021	-4.6396	-5.1854	-4.5646	-5.0458	-5.0229	-4.4667	-5.1042	-4.8313	-4.9479	-5.2604	-4.5563	-4.7833	-4.8604	-4.5042	332.348	387.705	283.616	302.197	150.377	87.653	54.771	225.241	244.875	309.950	82.440	321.631	397.338	109.539	225.745	259.632	0.00024123	0.00018999	4.3875e-05	651.25	3.4604e-06	2.1097e-06	569.35	196.39	2.5309e-06	2.7968e-06	207.08	71.047	58.87	19.662	1.6873e-06	29.147	0.0001647	0.00013652	3.7908e-05	658.79	1.521e-06	1.4482e-06	574.3	199.64	1.4838e-06	1.4671e-06	210.23	72.319	59.883	20.169	1.4733e-06	29.765	232.909	155.568	143.630	61.164	199.928	181.078	60.550	65.871	224.484	176.434	63.752	68.745	70.100	75.884	181.313	73.601	-8191	255	
977.729	1	1	0	0	0.055912	0.034662	0.084069	0.22116	0.059691	0.21296	0.084908	0.2281	0.02454	0.12735	0.14629	0.11742	0.13277	0.089248	0.19456	0.081415	-4.6229	-4.7854	-4.3938	-5.1729	-4.6083	-4.8688	-5.1708	-4.4875	-5.1354	-4.6875	-4.5354	-5.1167	-4.6396	-4.9021	-5.0104	-4.4667	345.688	97.010	332.219	407.510	67.924	148.219	250.605	330.574	88.610	371.779	297.449	240.387	130.214	224.442	298.915	325.644	0.00024237	0.00026463	0.000125	663.24	3.9964e-06	3.308e-06	574.17	197.64	2.2183e-06	3.0063e-06	208.25	71.304	58.856	19.539	2.0327e-06	28.828	0.00016161	0.00013819	3.7542e-05	669.79	1.4934e-06	1.4536e-06	579.87	201.31	1.4893e-06	1.4539e-06	210.81	72.616	59.925	20.039	1.4314e-06	29.561	232.173	146.291	148.307	61.258	205.646	208.673	60.256	65.934	255.009	200.823	63.608	68.881	69.951	76.020	259.133	73.759	-8191	255	
977.825	1	1	0	0	0.14528	0.068226	0.16482	0.033126	0.22072	0.068693	0.041142	0.10808	0.012636	0.20952	0.14773	0.24289	0.051482	0.15234	0.20131	0.23608	-4.8208	-5.0167	-4.4812	-5.3542	-4.6396	-4.7229	-5.2042	-4.4729	-4.9729	-4.9083	-4.5	-5.0854	-4.675	-4.6917	-4.9333	-4.6146	366.913	110.980	155.598	314.585	48.691	267.160	276.572	163.623	296.074	172.767	362.583	278.911	294.347	77.252	383.659	313.604	0.00022936	0.00016636	6.0989e-05	659.14	4.9222e-06	3.2275e-06	572.93	197.79	2.8809e-06	3.685e-06	206.63	70.581	58.611	19.229	1.9171e-06	28.451	0.00016241	0.00013705	3.6272e-05	666.34	1.5088e-06	1.4156e-06	576.85	200.37	1.4467e-06	1.3946e-06	208.89	71.842	59.657	19.787	1.4237e-06	29.119	232.931	160.472	104.896	61.377	230.557	235.417	60.285	65.981	237.131	172.806	63.718	68.266	70.178	75.773	204.368	73.498	-8191	255	
977.921	1	1	0	0	0.077923	0.14167	0.012208	0.085564	0.03669	0.073168	0.21729	0.1967	0.041399	0.0625	0.13355	0.064992	0.15274	0.12329	0.068424	0.12843	-4.6958	-4.9667	-4.4146	-5.0813	-4.7833	-4.7521	-5.1417	-4.55	-4.8104	-4.9271	-4.4771	-4.9792	-4.8021	-4.6708	-5.1271	-4.5333	157.579	139.193	52.598	164.102	293.505	49.995	264.855	55.619	303.184	320.667	368.573	223.587	292.169	341.420	251.724	75.574	0.0002508	0.00032441	7.405e-05	656.68	3.179e-06	2.8575e-06	567.72	196.15	3.5454e-06	2.4993e-06	204.8	70.156	58.355	19.206	2.5984e-06	28.475	0.00016068	0.00013191	3.7266e-05	664.23	1.4627e-06	1.4313e-06	571.28	199.36	1.4709e-06	1.4237e-06	207.73	71.274	59.297	19.737	1.3782e-06	29.062	233.821	117.740	145.622	61.299	198.969	198.384	60.505	65.674	231.753	210.530	63.749	68.772	70.099	76.215	203.672	73.401	-8191	255	
977.993	1	1	0	0	0.080509	0.12046	0.048141	0.11487	0.16336	0.20558	0.15697	0.036182	0.15504	0.051473	0.04086	0.16918	0.063145	0.12429	0.24593	0.019465	-4.5375	-4.9354	-4.3	-5.1083	-4.8167	-4.6896	-5.2396	-4.7188	-4.8292	-5.1146	-4.5708	-5.0146	-4.8333	-4.5417	-5.0708	-4.6771	276.024	106.030	89.761	394.615	260.429	301.372	379.814	222.317	171.110	176.283	282.655	270.833	397.570	334.606	232.536	54.175	0.00024001	0.00033518	0.00010592	652.28	2.7987e-06	3.4071e-06	563.52	195.57	2.4715e-06	2.1222e-06	204.72	70.006	58.389	19.199	1.8116e-06	28.331	0.00015663	0.00013258	3.6952e-05	659.63	1.459e-06	1.464e-06	569.17	198.56	1.5108e-06	1.4331e-06	207.48	71.382	59.271	19.712	1.4596e-06	29	235.214	116.565	154.812	61.332	228.579	182.048	60.324	65.815	217.423	200.435	63.662	68.656	70.012	75.925	222.548	73.487	-8191	255	
978.114	1	1	0	0	0.04096	0.094606	0.10547	0.080024	0.10295	0.12109	0.19665	0.2186	0.036967	0.040586	0.052119	0.20985	0.32982	0.23446	0.10089	0.16319	-4.2812	-4.9292	-4.4917	-5.0062	-4.8688	-4.3708	-5.1042	-4.7354	-4.6646	-5.1083	-4.5729	-4.95	-4.9938	-4.6188	-5.1146	-4.7354	253.715	218.070	67.207	360.022	381.378	170.153	300.520	57.176	388.486	315.099	293.287	213.027	120.324	168.987	115.493	310.370	0.0002495	0.00031066	7.4889e-05	650.2	2.6333e-06	2.4796e-06	561.68	195.38	2.5418e-06	2.8449e-06	204.59	69.871	58.401	18.962	3.1575e-06	28.257	0.00015988	0.00013135	3.7183e-05	657.41	1.4806e-06	1.4635e-06	567.14	198.33	1.4921e-06	1.3882e-06	207.2	71.31	59.337	19.596	1.4206e-06	28.857	231.386	149.235	146.624	61.297	227.545	210.982	60.431	65.690	223.380	180.687	63.922	68.353	69.903	75.822	224.841	73.442	-8191	255	
978.210	1	1	0	0	0.029303	0.068537	0.18878	0.13424	0.077988	0.1939	0.13862	0.078875	0.16772	0.030668	0.24894	0.14798	0.091863	0.18475	0.12105	0.094194	-4.3417	-5.1958	-4.3938	-4.9812	-5.0542	-4.4771	-4.9688	-4.9292	-4.5396	-5.1854	-4.6937	-4.8688	-5.0521	-4.5229	-4.8688	-4.9271	163.488	199.410	299.853	255.479	389.129	156.567	305.645	312.741	232.700	384.195	337.481	338.615	228.814	321.603	340.007	398.152	0.00023061	0.00023334	9.4187e-05	654.38	3.8804e-06	3.197e-06	565.67	195.73	1.9482e-06	2.7725e-06	203.84	69.679	58.293	18.964	2.1376e-06	27.991	0.00015966	0.00013541	3.8767e-05	661.65	1.4633e-06	1.463e-06	570.03	198.93	1.5299e-06	1.4254e-06	206.61	70.939	59.304	19.445	1.4479e-06	28.468	230.653	171.120	148.738	61.181	216.495	187.531	60.622	65.700	224.546	197.000	63.915	68.649	70.319	76.017	206.601	73.362	-8191	255	
978.306	1	1	0	0	0.30271	0.10349	0.089695	0.058988	0.1672	0.2213	0.20171	0.11403	0.16554	0.1698	0.13274	0.16817	0.12027	0.19013	0.18769	0.15638	-4.2042	-4.9313	-4.5708	-4.7688	-5.0312	-4.5854	-4.8958	-4.8833	-4.5583	-5.1438	-4.6188	-4.7104	-5.1354	-4.6188	-5	-4.9792	202.022	402.593	294.328	361.049	133.105	205.876	371.300	390.445	270.690	131.687	332.581	67.857	325.776	316.692	57.742	193.610	0.00023945	0.00020143	8.0499e-05	651.49	3.127e-06	2.6459e-06	562.71	195.05	3.6531e-06	3.3188e-06	202.63	68.918	57.653	18.752	2.9272e-06	27.57	0.00016255	0.00013088	3.8233e-05	659.89	1.4135e-06	1.427e-06	566.6	197.79	1.4757e-06	1.4544e-06	204.72	70.37	58.802	19.278	1.4579e-06	28.305	229.233	128.723	157.342	61.315	219.547	250.276	60.678	65.453	225.233	169.319	63.909	68.629	70.057	75.939	218.721	73.164	-8191	255	
978.402	1	1	0	0	0.19867	0.12596	0.053935	0.22783	0.10564	0.12622	0.073835	0.076532	0.060165	0.025919	0.15086	0.24091	0.06753	0.23255	0.027384	0.13024	-4.1625	-4.9979	-4.725	-4.6687	-5.1125	-4.4812	-5.0979	-5.0479	-4.3625	-5.0563	-4.7188	-4.7146	-5.125	-4.5833	-4.7292	-5.0125	216.448	406.904	331.809	76.452	59.537	334.564	389.377	314.467	51.743	211.322	144.844	291.137	375.339	323.801	341.579	339.153	0.0002248	0.00019888	0.00012018	645.57	3.0307e-06	3.0517e-06	554.02	193.6	3.7347e-07	7.605e-07	202.5	69.06	57.542	18.938	2.7006e-06	28.179	0.00016036	0.00013088	3.7901e-05	652.87	1.44e-06	1.4393e-06	558.6	196.01	1.4679e-06	1.4009e-06	204.45	70.279	58.575	19.531	1.4516e-06	28.885	233.291	140.697	130.187	61.221	219.399	179.205	60.196	65.545	249.354	170.084	63.697	68.966	70.090	75.788	211.955	73.412	-8191	255	
978.521	1	1	0	0	0.03108	0.14119	0.12399	0.033051	0.098943	0.034485	0.1066	0.23655	0.15246	0.1451	0.17476	0.10965	0.074992	0.078416	0.1104	0.011736	-3.9938	-4.8958	-4.7812	-4.75	-5.0875	-4.5563	-4.9896	-5.0896	-4.5208	-4.9688	-4.875	-4.4833	-5.0854	-4.6792	-4.7688	-5.1958	339.406	264.406	119.190	84.266	201.129	74.526	360.537	231.388	156.016	301.815	400.508	186.013	405.253	116.226	75.159	181.187	0.00024181	0.00029683	8.7041e-05	639.46	3.4115e-06	2.7414e-06	553.66	192.93	2.3606e-06	3.1575e-06	201.18	69.337	57.633	19.171	3.0095e-06	28.667	0.00016359	0.00013224	3.7598e-05	648.85	1.4936e-06	1.5054e-06	557.72	195.9	1.5463e-06	1.4433e-06	204.16	70.663	58.615	19.761	1.4624e-06	29.306	230.167	160.452	137.616	61.327	208.172	211.478	60.393	65.617	223.367	197.069	64.031	68.987	69.982	75.971	192.347	73.521	-8191	255	
978.593	1	1	0	0	0.066533	0.075325	0.033036	0.07199	0.088508	0.065073	0.22689	0.084153	0.064544	0.12031	0.10955	0.16074	0.13876	0.061594	0.15751	0.16056	-4.2188	-4.9583	-4.8604	-4.5542	-5.15	-4.6646	-4.7479	-4.8917	-4.5396	-4.9583	-4.9208	-4.5312	-5.1292	-4.9208	-4.6958	-5.1917	162.337	402.422	170.280	387.806	201.486	317.676	357.806	278.276	218.440	372.300	101.832	404.257	359.206	101.392	276.116	73.888	0.00024277	0.00030919	7.8418e-05	641.56	2.016e-06	1.803e-06	549.59	191.27	2.049e-06	2.7026e-06	201.85	69.471	57.531	19.225	2.7109e-06	28.483	0.00016221	0.00013533	3.8236e-05	649.43	1.5166e-06	1.5006e-06	556.61	195.14	1.5741e-06	1.4557e-06	204.25	70.98	58.607	19.752	1.4257e-06	29.187	231.105	143.174	113.863	61.212	199.699	142.238	60.281	65.710	225.625	184.421	63.686	69.031	70.079	75.876	209.763	73.424	-8191	255	
978.689	1	1	0	0	0.17812	0.09489	0.16223	0.18255	0.32465	0.14726	0.087381	0.074737	0.21745	0.18002	0.19873	0.081531	0.024218	0.30395	0.25778	0.12099	-4.2542	-4.8354	-4.8229	-4.475	-4.8729	-4.7604	-4.6792	-5.0521	-4.4708	-4.7854	-5.0792	-4.5625	-5.0479	-4.8063	-4.6937	-5.2458	387.823	117.052	393.548	187.215	90.372	113.611	343.039	230.327	392.458	280.998	263.020	334.699	63.621	360.687	186.352	292.131	0.00023879	0.00023401	6.4635e-05	640.36	2.8514e-06	3.0564e-06	550.33	192.7	2.3623e-06	3.2276e-06	201.07	69.23	57.703	18.93	2.9865e-06	28.009	0.0001599	0.00012805	3.7786e-05	647.97	1.4572e-06	1.3826e-06	555.48	195.18	1.5205e-06	1.4386e-06	203.36	70.429	58.595	19.529	1.5047e-06	28.783	233.168	118.382	143.402	61.333	214.452	220.544	60.457	65.478	237.967	175.274	63.837	68.806	69.946	76.048	203.759	73.651	-8191	255	
978.809	1	1	0	0	0.23416	0.17839	0.10896	0.1046	0.10915	0.060421	0.11888	0.28534	0.019721	0.26007	0.020667	0.17479	0.12736	0.095435	0.070396	0.22109	-4.2667	-4.8042	-4.9271	-4.5604	-4.9458	-4.8187	-4.5104	-5.0292	-4.6021	-4.8187	-4.9812	-4.725	-4.9771	-4.8812	-4.7625	-5.2562	274.977	207.862	388.825	77.938	141.191	233.373	66.945	343.643	154.150	321.090	171.869	346.424	257.374	163.832	145.013	292.940	0.00024426	0.00025075	5.5168e-05	638.05	3.7443e-06	3.5377e-06	546.32	191.7	2.6931e-06	1.747e-06	199.75	68.618	57.212	18.823	2.8629e-06	28.186	0.00015565	0.00013275	3.697e-05	644.77	1.4635e-06	1.3951e-06	552.55	195.09	1.5244e-06	1.4242e-06	202.93	70.128	58.24	19.394	1.4805e-06	28.782	233.095	125.887	120.596	61.038	173.721	194.572	60.385	65.820	236.004	220.765	63.733	68.643	69.881	75.793	203.876	73.204	-8191	255	
978.906	1	1	0	0	0.30092	0.15056	0.40483	0.18044	0.15901	0.25405	0.29251	0.19628	0.14607	0.14965	0.090347	0.10173	0.13459	0.14765	0.061488	0.19728	-4.3063	-4.6396	-5.1521	-4.7229	-4.9083	-4.8167	-4.5771	-5.1042	-4.5667	-4.6813	-5.2188	-4.5083	-4.9563	-4.8271	-4.4958	-5.1875	104.370	281.875	73.038	316.788	244.740	397.215	330.594	369.018	55.967	74.252	167.744	392.497	317.615	374.280	258.466	380.663	0.00022046	0.0002169	6.2343e-05	634.4	2.1041e-06	3.7438e-06	544.87	191.52	2.0643e-06	3.9623e-06	199.67	69.011	57.12	18.885	2.667e-06	28.365	0.00015964	0.00013184	3.6063e-05	640.32	1.4873e-06	1.453e-06	550.28	194.29	1.5334e-06	1.4802e-06	202.83	70.414	58.053	19.419	1.5228e-06	28.936	230.309	148.330	126.144	60.882	212.481	179.086	60.741	65.877	233.618	199.285	63.717	69.044	69.944	76.057	211.561	73.684	-8191	255	
979.002	1	1	0	0	0.083728	0.2527	0.12421	0.10449	0.055557	0.16721	0.19264	0.21571	0.18893	0.13651	0.16563	0.10724	0.12165	0.33196	0.066768	0.34057	-4.3562	-4.5687	-5.0958	-4.4958	-4.8833	-4.9583	-4.5083	-4.9854	-4.8271	-4.6438	-5.1542	-4.7688	-4.7875	-4.9896	-4.5458	-5.0542	274.029	243.812	84.973	95.774	403.265	365.813	343.932	265.868	395.887	266.388	149.465	389.794	303.177	394.045	179.863	372.419	0.00025363	0.00022079	5.7153e-05	633.37	2.7967e-06	1.9085e-06	545.42	191.44	2.0873e-06	3.0867e-06	200.78	69.682	57.297	19.054	3.6879e-06	28.713	0.0001634	0.0001371	3.7469e-05	638.53	1.504e-06	1.432e-06	550.09	194.72	1.5309e-06	1.4837e-06	204.5	71.012	58.363	19.618	1.5043e-06	29.366	231.275	137.935	173.208	61.422	215.953	218.684	60.472	65.877	256.688	165.685	63.958	69.023	69.763	76.132	210.308	73.227	-8191	255	
979.122	1	1	0	0	0.092454	0.10715	0.09109	0.12031	0.21036	0.060349	0.13806	0.10084	0.20761	0.073681	0.1099	0.22251	0.18976	0.096397	0.1683	0.198	-4.5833	-4.5104	-5.1396	-4.6375	-4.7229	-5.0271	-4.5271	-4.9313	-4.8521	-4.3896	-4.9688	-4.5583	-4.7167	-5.1438	-4.4792	-4.8438	305.803	167.208	118.524	54.583	340.434	271.239	354.762	140.564	216.009	82.614	193.221	56.787	199.414	63.202	200.280	361.194	0.00025172	0.00038763	8.0644e-05	630.82	2.5301e-06	2.9239e-06	547.93	191.76	2.7941e-06	2.3881e-06	201.18	69.654	57.029	19.191	2.0473e-06	28.892	0.00016042	0.00013998	3.8372e-05	638.83	1.5596e-06	1.4373e-06	551.04	194.47	1.5175e-06	1.5049e-06	204.23	70.925	58.204	19.769	1.5459e-06	29.538	230.700	146.812	129.869	61.159	232.100	199.618	60.520	65.869	229.686	190.727	63.755	69.042	69.970	76.118	204.915	73.295	-8191	255	
#DATA ENDS
