BOXY.EXE: ISS Imagent and Oximeter Data Acquisition Program Version 0.80
Ascii Record File

#ACQ INFORMATION
2  Detector Channels 
16  External MUX Channels 
1  Auxiliary Channels 
5000  Waveform (CCF) Frequency (Hz)
1  Waveforms Skipped 
30  Waveforms Averaged 
1  Cycles Averaged 
16  Acquisitions per Waveform 
10.0806  Updata Rate (Hz) 

#FILE INFORMATION
TRUE -- External MUX Channel results are PARSED.
FALSE -- AC DC and Phase are NOT grouped.
TRUE -- Companion Program Settings File CREATED.
FALSE -- AC data not excluded
FALSE -- DC data not excluded
FALSE -- Phase data not excluded
FALSE -- Auxillary Chn. data not excluded
Tab delimiters

#CALIBRATION STATE
TRUE -- Waveform Calibration Values APPLIED.


#AUX CALIBRATION VALUES
Val Type	aux-1	

Term	1.0000e+00	
Factor	0.0000e+00	


#WF CALIBRATION VALUES
A = Detector Channel
Val Type	A-AC1	A-AC2	A-AC3	A-AC4	A-AC5	A-AC6	A-AC7	A-AC8	A-AC9	A-AC10	A-AC11	A-AC12	A-AC13	A-AC14	A-AC15	A-AC16	A-DC1	A-DC2	A-DC3	A-DC4	A-DC5	A-DC6	A-DC7	A-DC8	A-DC9	A-DC10	A-DC11	A-DC12	A-DC13	A-DC14	A-DC15	A-DC16	A-Ph1	A-Ph2	A-Ph3	A-Ph4	A-Ph5	A-Ph6	A-Ph7	A-Ph8	A-Ph9	A-Ph10	A-Ph11	A-Ph12	A-Ph13	A-Ph14	A-Ph15	A-Ph16	

Term	0.00000e+00	0.00000e+00	0.00000e+00	0.00000e+00	0.00000e+00	0.00000e+00	0.00000e+00	0.00000e+00	0.00000e+00	0.00000e+00	0.00000e+00	0.00000e+00	0.00000e+00	0.00000e+00	0.00000e+00	0.00000e+00	0.00000e+00	0.00000e+00	0.00000e+00	0.00000e+00	0.00000e+00	0.00000e+00	0.00000e+00	0.00000e+00	0.00000e+00	0.00000e+00	0.00000e+00	0.00000e+00	0.00000e+00	0.00000e+00	0.00000e+00	0.00000e+00	0.00000e+00	0.00000e+00	0.00000e+00	0.00000e+00	0.00000e+00	0.00000e+00	0.00000e+00	0.00000e+00	0.00000e+00	0.00000e+00	0.00000e+00	0.00000e+00	0.00000e+00	0.00000e+00	0.00000e+00	0.00000e+00	
Factor	1.00000e+00	1.00000e+00	1.00000e+00	1.00000e+00	1.00000e+00	1.00000e+00	1.00000e+00	1.00000e+00	1.00000e+00	1.00000e+00	1.00000e+00	1.00000e+00	1.00000e+00	1.00000e+00	1.00000e+00	1.00000e+00	1.00000e+00	1.00000e+00	1.00000e+00	1.00000e+00	1.00000e+00	1.00000e+00	1.00000e+00	1.00000e+00	1.00000e+00	1.00000e+00	1.00000e+00	1.00000e+00	1.00000e+00	1.00000e+00	1.00000e+00	1.00000e+00	X	X	X	X	X	X	X	X	X	X	X	X	X	X	X	X	

B = Detector Channel
Val Type	B-AC1	B-AC2	B-AC3	B-AC4	B-AC5	B-AC6	B-AC7	B-AC8	B-AC9	B-AC10	B-AC11	B-AC12	B-AC13	B-AC14	B-AC15	B-AC16	B-DC1	B-DC2	B-DC3	B-DC4	B-DC5	B-DC6	B-DC7	B-DC8	B-DC9	B-DC10	B-DC11	B-DC12	B-DC13	B-DC14	B-DC15	B-DC16	B-Ph1	B-Ph2	B-Ph3	B-Ph4	B-Ph5	B-Ph6	B-Ph7	B-Ph8	B-Ph9	B-Ph10	B-Ph11	B-Ph12	B-Ph13	B-Ph14	B-Ph15	B-Ph16	

Term	0.00000e+00	0.00000e+00	0.00000e+00	0.00000e+00	0.00000e+00	0.00000e+00	0.00000e+00	0.00000e+00	0.00000e+00	0.00000e+00	0.00000e+00	0.00000e+00	0.00000e+00	0.00000e+00	0.00000e+00	0.00000e+00	0.00000e+00	0.00000e+00	0.00000e+00	0.00000e+00	0.00000e+00	0.00000e+00	0.00000e+00	0.00000e+00	0.00000e+00	0.00000e+00	0.00000e+00	0.00000e+00	0.00000e+00	0.00000e+00	0.00000e+00	0.00000e+00	-1.12736e+02	-1.32660e+02	-1.57672e+02	-1.83228e+02	-7.36844e+01	-7.41403e+01	-1.57769e+02	-1.62015e+02	-7.39298e+01	-8.15064e+01	-1.72450e+02	-1.71347e+02	-1.84938e+02	-1.78511e+02	-9.10839e+01	-1.50871e+02	
Factor	1.78968e-05	1.04503e-04	4.02729e-05	1.54566e-01	1.05787e-06	1.14884e-06	1.75725e-01	5.77799e-02	9.78682e-07	1.20120e-06	1.01565e-01	3.04267e-02	6.38759e-02	9.98531e-03	1.13885e-06	1.44782e-02	7.43370e-07	7.63276e-07	2.11636e-07	7.61262e-02	8.34935e-09	8.34908e-09	8.12104e-02	2.82388e-02	8.35724e-09	8.35355e-09	4.68643e-02	1.42655e-02	2.82392e-02	4.79310e-03	8.33279e-09	6.65656e-03	X	X	X	X	X	X	X	X	X	X	X	X	X	X	X	X	



#DISTANCE SETTINGS
A = Detector Channel
A-1	A-2	A-3	A-4	A-5	A-6	A-7	A-8	A-9	A-10	A-11	A-12	A-13	A-14	A-15	A-16	

2.5000e+00	3.0000e+00	2.5000e+00	3.0000e+00	2.0000e+00	3.0000e+00	1.5000e+00	3.0000e+00	3.0000e+00	3.0000e+00	3.0000e+00	3.0000e+00	3.0000e+00	3.0000e+00	1.5000e+00	3.0000e+00	

B = Detector Channel
B-1	B-2	B-3	B-4	B-5	B-6	B-7	B-8	B-9	B-10	B-11	B-12	B-13	B-14	B-15	B-16	

1.0000e+01	1.0000e+01	1.0000e+01	1.4400e+00	1.0000e+01	1.0000e+01	1.5100e+00	1.9400e+00	1.0000e+01	1.0000e+01	1.9900e+00	2.4900e+00	2.4100e+00	2.9000e+00	1.0000e+01	2.9800e+00	




#DATA BEGINS
time	group	step	mark	flag	A-AC1	A-AC2	A-AC3	A-AC4	A-AC5	A-AC6	A-AC7	A-AC8	A-AC9	A-AC10	A-AC11	A-AC12	A-AC13	A-AC14	A-AC15	A-AC16	A-DC1	A-DC2	A-DC3	A-DC4	A-DC5	A-DC6	A-DC7	A-DC8	A-DC9	A-DC10	A-DC11	A-DC12	A-DC13	A-DC14	A-DC15	A-DC16	A-Ph1	A-Ph2	A-Ph3	A-Ph4	A-Ph5	A-Ph6	A-Ph7	A-Ph8	A-Ph9	A-Ph10	A-Ph11	A-Ph12	A-Ph13	A-Ph14	A-Ph15	A-Ph16	B-AC1	B-AC2	B-AC3	B-AC4	B-AC5	B-AC6	B-AC7	B-AC8	B-AC9	B-AC10	B-AC11	B-AC12	B-AC13	B-AC14	B-AC15	B-AC16	B-DC1	B-DC2	B-DC3	B-DC4	B-DC5	B-DC6	B-DC7	B-DC8	B-DC9	B-DC10	B-DC11	B-DC12	B-DC13	B-DC14	B-DC15	B-DC16	B-Ph1	B-Ph2	B-Ph3	B-Ph4	B-Ph5	B-Ph6	B-Ph7	B-Ph8	B-Ph9	B-Ph10	B-Ph11	B-Ph12	B-Ph13	B-Ph14	B-Ph15	B-Ph16	aux-1	digaux	

8286.764	1	1	0	256	0.14014	0.18798	0.3354	0.29092	0.067368	0.21265	0.16755	0.21698	0.36556	0.21005	0.39944	0.3203	0.13383	0.35574	0.27153	0.34061	-1.3854	-1.8792	-2.4979	-1.6167	-2.5938	-2.0479	-1.9937	-2.6771	-1.6625	-1.9729	-2.6729	-1.7687	-2.3542	-2.1625	-1.85	-2.7125	127.348	176.089	392.748	422.105	398.214	111.360	378.851	98.621	378.720	247.494	415.690	177.053	187.470	389.203	140.901	410.889	0.00055587	0.00048199	0.00016833	1288.4	6.1757e-06	3.7112e-07	1268.3	346.53	7.497e-06	2.9226e-06	398.24	134.36	116.27	40.534	2.8944e-06	50.676	0.00042146	0.00040796	0.00010877	1288.9	4.6188e-06	4.5281e-06	1289.2	350.01	4.6804e-06	4.4477e-06	400.24	135.77	115.92	41.171	4.1686e-06	51.131	188.264	282.500	253.923	90.799	224.808	187.609	91.290	95.854	223.003	252.758	95.180	100.001	100.961	104.739	417.129	103.893	-8191	255	
8286.885	1	1	0	0	0.19944	0.12407	0.18799	0.3291	0.12702	0.30752	0.3369	0.30431	0.10668	0.1324	0.20153	0.12197	0.25955	0.17353	0.036588	0.061259	-1.4083	-1.8625	-2.5104	-1.8646	-2.3688	-2.1896	-1.8917	-2.7354	-1.9917	-1.9917	-2.6396	-1.8021	-2.4396	-2.6688	-1.5312	-2.625	334.115	80.186	233.937	421.536	432.075	88.813	322.536	420.372	350.749	148.851	101.092	159.122	141.014	391.972	310.780	418.660	0.00046496	0.00049668	0.00014412	1276.6	4.333e-06	3.5428e-06	1282.4	345.46	5.8095e-06	4.3255e-06	399.36	136.3	116.98	40.763	4.896e-06	51.149	0.00043406	0.00040114	0.0001074	1289.6	4.6755e-06	4.4748e-06	1290.8	350.89	4.6973e-06	4.3621e-06	399.92	136.54	116.21	41.178	4.1091e-06	51.405	190.267	168.626	433.190	90.904	196.686	291.130	91.044	95.863	247.340	304.766	94.970	99.231	100.226	104.485	186.679	103.548	-8191	255	
8286.981	1	1	0	0	0.028557	0.1297	0.063345	0.26267	0.15915	0.21243	0.089973	0.030409	0.34009	0.096714	0.10395	0.15236	0.34063	0.076932	0.031662	0.24553	-1.5583	-2.0542	-2.5542	-1.8229	-2.2438	-2.4437	-1.9458	-2.5271	-2.2396	-1.7062	-2.6896	-1.9979	-2.5312	-2.5229	-1.8	-2.7062	341.029	400.625	149.263	409.455	252.359	419.760	400.016	353.956	171.275	279.586	85.667	178.558	365.209	115.341	142.133	372.451	0.00039809	0.00033603	0.00018592	1288.6	3.0112e-06	3.5376e-06	1287.8	351.08	2.0263e-06	4.8821e-06	398.15	134.63	115.89	40.72	7.8176e-06	51.089	0.0004274	0.00039834	0.00010591	1293.5	4.6023e-06	4.4236e-06	1293.2	352.37	4.6362e-06	4.3212e-06	399.74	136.63	115.59	41.127	4.1397e-06	51.352	194.788	332.060	370.379	90.632	135.679	105.431	90.687	95.562	177.385	213.504	95.159	99.794	100.903	104.464	209.742	103.888	-8191	255	
8287.077	1	1	0	0	0.099659	0.36676	0.28953	0.42936	0.27485	0.18567	0.21272	0.26233	0.35141	0.22323	0.16299	0.34875	0.17296	0.076489	0.26606	0.20132	-1.6854	-1.7917	-2.6708	-1.9167	-2.0229	-2.5458	-1.9937	-2.7479	-2.1333	-1.8062	-2.65	-1.9771	-2	-2.6792	-1.5083	-2.525	256.707	226.254	84.019	410.006	372.323	148.495	356.160	334.471	311.051	432.163	352.454	426.286	133.559	403.113	209.023	323.990	0.00043675	0.00029722	0.00018249	1279.4	2.2723e-06	5.4404e-06	1276.5	349.46	3.2446e-06	4.1841e-06	408.07	137.41	118.14	41.095	9.7151e-06	50.732	0.00041869	0.00038585	0.00010548	1292.4	4.4289e-06	4.2527e-06	1289.9	352.55	4.4988e-06	4.1575e-06	402.23	137.37	115.43	41.088	4.2628e-06	51.416	186.484	262.298	82.873	91.010	220.443	204.642	90.955	95.576	258.092	215.316	94.653	99.032	100.138	104.315	239.642	103.751	-8191	255	
8287.173	1	1	0	0	0.038755	0.13223	0.17726	0.28661	0.14272	0.075555	0.37326	0.051763	0.066017	0.034633	0.39678	0.09652	0.088049	0.18014	0.066868	0.27878	-1.8917	-1.7146	-2.4625	-2.1417	-2.0917	-2.6229	-1.6604	-2.3958	-2.3104	-1.775	-2.6708	-2.0354	-1.9646	-2.6688	-1.7125	-2.1625	116.429	292.235	97.688	106.989	321.467	404.936	374.797	413.891	124.773	125.087	397.966	390.374	233.073	140.966	264.772	341.518	0.00044412	0.0004485	0.00025324	1274.6	2.1178e-06	6.8367e-06	1272.4	348.19	3.8915e-06	6.8248e-06	401.52	135.25	115.55	40.584	4.5903e-06	51.157	0.00040704	0.00037118	0.00010922	1290.2	4.2554e-06	4.0604e-06	1288.9	351.56	4.3033e-06	3.9405e-06	401.16	136.64	114.28	40.881	4.3181e-06	51.28	191.760	201.427	126.587	91.107	179.105	207.891	90.912	95.818	152.652	297.200	95.081	99.730	100.386	104.907	237.782	103.948	-8191	255	
8287.269	1	1	0	0	0.26893	0.16317	0.27637	0.11303	0.10971	0.23185	0.43122	0.15713	0.24054	0.078551	0.21038	0.28688	0.30146	0.15418	0.10753	0.24818	-1.9104	-1.5562	-2.4771	-2.1729	-1.7917	-2.4708	-2.0958	-2.4167	-2.4	-1.7083	-2.5667	-2.3063	-1.9208	-2.5563	-1.7042	-2.0583	236.948	310.901	393.967	435.507	359.924	176.969	397.936	420.772	206.374	211.509	126.846	426.746	263.672	412.581	142.818	401.812	0.00040082	0.00060225	8.5607e-05	1288	9.0086e-07	2.0335e-06	1292.9	351.21	2.2568e-06	6.1597e-06	404.58	135.6	115.92	40.871	3.318e-06	50.984	0.00038578	0.00035448	0.00011005	1291	4.0495e-06	3.9079e-06	1294	351.46	4.1261e-06	3.8594e-06	401.97	136.64	113.61	41.015	4.3746e-06	51.151	193.241	119.335	167.520	90.645	239.915	209.745	90.504	95.303	85.159	143.372	94.857	99.552	100.323	104.719	150.003	103.562	-8191	255	
8287.365	1	1	0	0	0.093351	0.06442	0.15201	0.31999	0.20296	0.1571	0.47725	0.24724	0.1968	0.14732	0.19122	0.33544	0.071266	0.16129	0.065269	0.048115	-2.0396	-1.8125	-2.2833	-2.5833	-1.6354	-2.625	-2.125	-2.1125	-2.6188	-1.6042	-2.5604	-2.25	-1.7833	-2.7917	-2.0167	-2.0625	295.198	356.520	402.240	424.536	151.219	344.194	382.680	422.382	405.859	314.410	358.373	419.060	405.739	248.095	105.309	353.413	0.00035294	0.00051521	1.0773e-05	1278.3	1.1971e-06	3.8419e-06	1281.9	348.74	1.6976e-06	6.8124e-06	400.51	135.47	116.53	40.848	9.7256e-06	50.951	0.00036947	0.00035883	0.00011112	1286.6	3.8917e-06	4.0093e-06	1292.3	350.58	4.0179e-06	4.057e-06	401.9	136.28	113.83	41.046	4.4416e-06	51.097	185.260	428.121	140.518	91.001	229.915	205.138	90.750	95.509	162.418	251.073	95.098	99.483	100.311	104.644	137.246	103.902	-8191	255	
8287.461	1	1	0	0	0.15828	0.38303	0.11631	0.2889	0.12026	0.028818	0.42875	0.23589	0.14885	0.082365	0.056576	0.11811	0.15458	0.3221	0.23566	0.08245	-2.1104	-1.6271	-2.4396	-2.4583	-1.6833	-2.5167	-2.2	-2.0521	-2.5021	-1.6896	-2.2896	-2.5396	-1.7375	-2.6146	-2.0708	-1.9583	158.628	311.944	162.079	89.414	377.363	266.158	355.451	395.835	105.778	229.221	401.304	351.947	377.607	437.086	170.475	382.154	0.00038721	0.00056162	0.00024302	1286.5	3.3681e-06	3.8459e-06	1286.7	348	4.7791e-06	3.5841e-06	402.19	135.44	116.83	40.693	3.225e-06	51.151	0.0003652	0.00038451	0.00011128	1288.5	3.9064e-06	4.295e-06	1294.1	350.27	4.0067e-06	4.3494e-06	401.96	136.37	113.36	41.166	4.4293e-06	51.126	180.975	155.977	101.617	90.647	239.119	226.879	90.656	95.605	238.525	223.979	95.103	99.818	100.525	104.537	182.327	103.355	-8191	255	
8287.580	1	1	0	0	0.057256	0.19822	0.081624	0.27077	0.079324	0.19942	0.174	0.21512	0.07966	0.13137	0.095618	0.33674	0.1583	0.19023	0.16136	0.022988	-2.1125	-1.6875	-2.0854	-2.6854	-1.5375	-2.6083	-2.4125	-1.9229	-2.5438	-1.9813	-2.1771	-2.5354	-1.6583	-2.6063	-2.2313	-1.8917	391.853	84.211	425.078	388.132	163.894	345.973	381.949	391.086	337.471	420.082	356.375	391.994	208.360	350.532	193.204	238.621	0.00043994	0.00087825	0.00023528	1291.7	6.9263e-06	5.5567e-06	1291.8	349.68	7.9101e-06	6.3848e-06	399.94	135.2	116.59	40.93	4.2536e-06	50.949	0.0003663	0.00040462	0.0001096	1288.3	3.9404e-06	4.3963e-06	1292.9	350.23	3.9625e-06	4.3932e-06	400.74	136.05	113.92	41.309	4.2689e-06	50.922	187.550	87.845	113.111	90.525	229.856	254.784	90.480	95.644	228.828	236.947	94.942	99.540	100.763	104.472	230.652	103.846	-8191	255	
8287.676	1	1	0	0	0.10371	0.17371	0.072251	0.14902	0.17178	0.18099	0.22336	0.10776	0.15778	0.14365	0.17583	0.14052	0.3569	0.15826	0.29565	0.13698	-2.3771	-1.9729	-2.1188	-2.7562	-1.625	-2.4542	-2.4562	-1.9771	-2.4792	-1.95	-1.9292	-2.7604	-1.8188	-2.275	-2.35	-1.8813	380.774	286.167	264.992	417.193	89.204	232.857	110.846	141.052	350.825	390.241	350.034	352.603	414.754	90.695	280.222	382.896	0.00050654	0.00015365	3.7543e-05	1283.2	7.43e-06	5.159e-06	1287	350.48	4.7458e-06	5.6778e-06	403.72	135.74	117.89	41.099	1.0559e-06	51.186	0.00037343	0.00040581	0.00010548	1286.1	4.0652e-06	4.3646e-06	1293.1	350.35	4.0978e-06	4.3948e-06	401.34	136.05	114.67	41.232	4.1882e-06	50.903	194.144	173.735	186.429	90.775	234.002	192.773	90.571	95.606	253.448	167.529	94.912	99.463	100.438	104.376	251.150	103.580	-8191	255	
8287.748	1	1	0	0	0.073838	0.2997	0.084368	0.11409	0.12592	0.12186	0.33719	0.073761	0.099512	0.2072	0.24883	0.37069	0.099771	0.21196	0.2132	0.080935	-2.25	-1.9458	-1.875	-2.8521	-1.675	-2.4042	-2.7875	-1.8604	-2.3958	-2.1104	-2.1562	-2.8187	-1.6875	-2.4958	-2.5062	-1.9125	279.294	366.564	170.891	408.240	197.559	323.310	345.517	382.460	404.992	232.184	80.118	356.102	305.447	382.573	222.223	359.152	0.00039447	0.00061816	0.00017345	1285.1	8.4239e-06	4.2451e-06	1289.7	351.05	5.2068e-06	4.4622e-06	400.78	135.6	117.23	40.85	4.322e-06	51.233	0.00039056	0.0004047	0.00010357	1288.1	4.294e-06	4.3162e-06	1293.8	350.28	4.3257e-06	4.3645e-06	400.45	135.79	115.44	41.136	4.1356e-06	50.993	187.297	289.744	157.647	90.735	193.666	257.726	90.591	95.280	208.590	274.971	94.882	99.370	100.117	104.444	163.164	103.616	-8191	255	
8287.844	1	1	0	0	0.15493	0.094003	0.13437	0.19043	0.12134	0.19366	0.39639	0.060111	0.2644	0.19927	0.319	0.24828	0.23683	0.12511	0.25908	0.12939	-2.2792	-2.1292	-1.725	-2.7833	-1.9188	-1.9979	-2.6146	-1.7854	-2.5458	-2.1479	-1.8979	-2.7896	-1.7917	-2.0521	-2.6979	-1.8021	107.582	287.317	326.054	122.457	314.677	374.726	403.943	410.744	128.536	143.763	83.864	321.090	176.558	111.092	85.176	211.663	0.00043158	0.00023538	0.00022512	1299.8	8.6318e-06	5.2825e-06	1309.4	354.17	4.2049e-06	2.7899e-06	406.52	136.8	117.58	41.095	4.9037e-06	51.019	0.00040288	0.00039289	0.00010127	1289.3	4.4345e-06	4.1934e-06	1294.4	351.18	4.3919e-06	4.248e-06	400.35	136.04	115.49	41.115	3.9226e-06	50.973	189.168	155.692	155.612	90.585	245.851	206.334	89.840	94.721	419.953	159.124	94.503	99.378	99.788	104.239	152.230	103.850	-8191	255	
8287.965	1	1	0	0	0.12387	0.15164	0.14281	0.18137	0.17222	0.046701	0.11814	0.21948	0.12878	0.36904	0.20681	0.066591	0.063414	0.27749	0.11237	0.14931	-1.9771	-2.1167	-1.7896	-2.8042	-1.9937	-2.0062	-2.625	-1.8083	-2.2229	-2.3604	-1.8062	-2.5729	-2.0667	-2.0187	-2.6937	-1.8604	112.029	375.494	300.980	382.551	205.711	78.455	346.825	378.118	411.863	102.120	350.434	375.849	373.074	406.914	87.980	148.530	0.00041789	0.00024901	7.3468e-05	1285.9	7.781e-06	4.4762e-06	1285.4	350.42	5.5605e-06	3.5822e-06	399.08	134.61	115.43	40.692	5.2743e-06	50.954	0.00039985	0.00038213	9.7116e-05	1286.8	4.404e-06	4.085e-06	1288.9	350.8	4.2785e-06	4.0759e-06	397.98	135.95	114.49	40.983	3.7694e-06	51.111	176.626	93.587	125.586	90.713	262.953	256.277	90.365	95.591	258.835	238.296	95.031	99.877	100.552	104.404	180.499	103.649	-8191	255	
8288.061	1	1	0	0	0.21021	0.07626	0.093527	0.20248	0.26086	0.22926	0.36544	0.08246	0.10183	0.21436	0.13946	0.18354	0.071738	0.090691	0.050138	0.24131	-1.7687	-2.575	-1.6708	-2.6771	-2.1667	-1.8458	-2.8771	-2.0146	-2.2292	-2.4375	-1.7	-2.6771	-2.0333	-1.8875	-2.6562	-1.8	372.498	365.743	246.298	388.281	133.035	321.857	401.323	228.482	129.695	281.160	305.499	243.297	243.734	313.058	177.453	355.385	0.0004361	0.0001749	0.00019704	1277.1	2.0094e-06	2.6319e-06	1289	351.32	3.9739e-06	4.5589e-06	402.57	135.66	117.34	40.871	4.8568e-06	51.224	0.00037968	0.00036175	9.2876e-05	1285.1	4.1463e-06	3.8511e-06	1286.5	351.33	4.026e-06	3.8812e-06	398.34	136.12	114.37	40.895	3.7708e-06	51.172	190.003	320.438	119.336	90.921	149.663	264.085	90.456	95.380	264.099	224.983	94.714	99.837	100.457	104.388	111.177	103.599	-8191	255	
8288.157	1	1	0	0	0.22354	0.16394	0.13394	0.2502	0.29258	0.19481	0.38498	0.17106	0.10799	0.017485	0.10875	0.096673	0.17916	0.27999	0.1674	0.077418	-1.8438	-2.4479	-1.6708	-2.6	-2.3312	-1.6875	-2.7896	-2.1312	-2.15	-2.5604	-1.7958	-2.4958	-2.4	-1.7771	-2.4667	-2.0708	222.314	273.417	326.141	327.292	347.384	205.377	423.540	351.407	212.328	415.729	95.752	303.346	248.365	110.585	160.338	416.776	0.00035632	0.00025487	8.1421e-05	1279.6	8.9205e-07	6.8284e-06	1284.4	350.24	2.7596e-06	2.5958e-06	402.75	136.07	117.23	41.187	5.4769e-06	51.301	0.00036852	0.00034859	9.4824e-05	1284.3	4.0638e-06	3.7521e-06	1285	351.3	3.9647e-06	3.8199e-06	398.27	136.09	113.87	40.851	3.9528e-06	51.136	177.503	214.702	308.499	90.794	171.899	233.511	90.833	95.271	237.744	296.784	95.001	99.463	99.878	104.170	161.189	103.106	-8191	255	
8288.278	1	1	0	0	0.1437	0.18404	0.18879	0.067113	0.16163	0.068035	0.21471	0.12594	0.11481	0.054465	0.14801	0.45672	0.13176	0.14886	0.35244	0.10813	-1.6083	-2.5104	-1.6938	-2.4292	-2.3958	-1.5542	-2.6021	-2.3063	-2.0104	-2.6646	-2.0687	-2.5375	-2.4062	-1.8646	-2.6021	-1.9896	345.075	392.262	289.393	114.899	206.132	345.979	315.559	133.643	138.083	91.697	409.992	416.032	343.869	225.490	113.331	224.229	0.00040008	0.00021589	0.00016099	1283.3	1.5967e-06	3.8226e-06	1288.4	349.51	9.2246e-07	4.8364e-06	402.59	135.47	116.56	40.806	8.5589e-06	51.296	0.00036534	0.00034179	0.00010103	1284.1	4.0264e-06	3.6757e-06	1290.1	350.36	3.9134e-06	3.7541e-06	399.18	135.84	113.81	40.675	4.0994e-06	51.039	173.968	165.477	165.902	90.844	192.781	199.878	90.816	95.343	222.996	191.320	95.046	99.531	100.360	104.471	185.969	103.596	-8191	255	
8288.372	1	1	0	0	0.19401	0.14319	0.26728	0.13885	0.2099	0.019196	0.37115	0.22662	0.16253	0.082243	0.11766	0.25464	0.097617	0.23385	0.22473	0.36218	-1.4792	-2.6042	-1.6583	-2.3125	-2.375	-1.5583	-2.5958	-2.3771	-1.6187	-2.5208	-1.975	-2.2458	-2.4333	-1.7604	-2.5021	-2.1292	100.705	414.169	419.936	117.799	430.034	372.785	401.767	360.522	235.613	265.399	77.548	388.991	380.881	347.252	99.712	394.746	0.00039409	0.00053066	5.9062e-05	1297.9	6.7087e-06	4.1969e-06	1300.5	353.27	4.1642e-06	4.0309e-06	405.45	137.07	117.42	41.394	6.796e-06	51.846	0.00035687	0.00034117	0.00010508	1286.4	3.9617e-06	3.6957e-06	1290.2	350.9	3.8034e-06	3.7511e-06	401.49	135.85	113.37	40.832	4.1257e-06	51.01	194.279	126.758	197.850	90.018	255.587	222.488	89.721	94.410	207.183	247.283	93.820	98.269	99.230	103.304	214.547	102.295	-8191	255	
8288.446	1	1	0	0	0.16894	0.28904	0.2196	0.16875	0.082312	0.17778	0.19216	0.44421	0.18744	0.34727	0.11217	0.2171	0.11433	0.12433	0.13782	0.25266	-1.075	-2.4917	-1.7979	-2.0646	-2.4	-1.8146	-2.5854	-2.3896	-1.7188	-2.4896	-1.8708	-2.0563	-2.3708	-1.6042	-2.3667	-2.5521	203.380	312.273	180.290	332.123	414.958	284.526	352.557	348.459	140.095	85.178	341.018	394.767	360.462	147.338	302.479	128.675	0.00041884	0.00037888	0.00016835	1297.5	4.7904e-06	7.4374e-06	1301.4	354.04	1.8912e-06	7.3067e-06	407.47	137.46	118	40.876	3.7484e-06	51.139	0.00034543	0.00034847	0.00010646	1285.2	3.8261e-06	3.8315e-06	1291.2	350.33	3.6695e-06	3.9062e-06	401.27	135.89	112.98	40.849	4.1199e-06	50.877	190.678	177.470	146.864	89.483	234.670	192.196	89.688	94.217	165.028	235.474	93.862	98.592	99.405	104.102	194.991	103.638	-8191	255	
8288.566	1	1	0	0	0.31068	0.20346	0.12618	0.35754	0.12407	0.096356	0.27256	0.1109	0.14527	0.20716	0.30068	0.12222	0.12503	0.16521	0.2587	0.17952	-1.3708	-2.5583	-1.9688	-2.1937	-2.6813	-1.8396	-2.5438	-2.6771	-1.7229	-2.6708	-2.2271	-2.075	-2.6479	-1.9	-2.025	-2.6	208.302	432.349	394.654	99.447	155.703	360.364	379.265	89.736	87.226	114.148	405.326	108.919	407.738	434.376	398.716	296.309	0.00039721	0.00072101	0.00010154	1272.7	3.1885e-06	3.6015e-06	1264.8	344.77	8.5555e-06	6.7857e-06	397.93	134.7	115.57	40.549	4.2222e-06	50.925	0.0003372	0.00036259	0.00010427	1278.4	3.6633e-06	3.9895e-06	1283.1	348.24	3.6006e-06	4.0058e-06	399.3	135.2	112.46	40.913	4.0115e-06	50.782	180.803	168.079	433.358	90.911	176.560	196.288	91.121	95.868	210.398	252.249	95.202	99.902	100.914	104.597	243.023	103.880	-8191	255	
8288.661	1	1	0	0	0.18048	0.086811	0.16031	0.20531	0.053578	0.021984	0.46305	0.084551	0.13386	0.16735	0.17559	0.15231	0.10846	0.21289	0.15426	0.11535	-1.2833	-2.2875	-2.0771	-2.0708	-2.4542	-1.8167	-2.3208	-2.6792	-1.6458	-2.5521	-2.275	-1.85	-2.7021	-1.9167	-1.9625	-2.6479	425.170	216.324	169.260	334.771	333.125	262.497	398.992	139.908	309.616	364.977	367.092	325.161	172.160	432.996	321.530	351.188	0.00041303	0.00062894	0.00025271	1276.4	5.4608e-06	5.2191e-06	1280.3	351.28	4.613e-06	1.8517e-06	403.12	135.05	115.33	40.429	1.4566e-06	50.754	0.0003376	0.00037461	0.00010248	1280.2	3.6956e-06	4.1269e-06	1285.2	349.47	3.7238e-06	4.0994e-06	400.23	135.08	112.58	40.935	3.8259e-06	50.556	178.390	221.945	126.449	90.918	205.427	157.291	90.794	95.431	235.110	330.997	94.813	99.420	100.455	104.679	419.728	103.715	-8191	255	
8288.757	1	1	0	0	0.05633	0.13923	0.14371	0.29152	0.25706	0.11583	0.2412	0.17468	0.32804	0.069163	0.16678	0.34036	0.13981	0.13235	0.17692	0.37389	-1.3479	-2.4542	-2.2625	-1.9729	-2.6562	-1.8958	-2.2083	-2.6667	-1.6125	-2.5729	-2.4938	-1.75	-2.6604	-2.2812	-1.9479	-2.5896	119.814	340.030	335.363	427.513	90.874	347.013	418.150	318.277	189.760	356.913	425.118	395.893	437.305	180.768	186.157	110.355	0.00050362	0.00025389	3.5062e-06	1269.4	4.5223e-06	4.8533e-06	1281.3	347.72	4.4401e-06	5.2433e-06	400.94	134.83	115.19	40.742	2.0177e-06	50.875	0.00034886	0.00036892	9.849e-05	1275.6	3.8412e-06	4.114e-06	1284	348.79	3.8969e-06	4.0064e-06	398.3	134.44	112.94	40.952	3.8222e-06	50.507	186.898	178.127	432.878	91.108	189.818	247.314	90.876	95.439	212.897	314.095	95.003	99.708	100.647	104.536	176.921	103.573	-8191	255	
8288.877	1	1	0	0	0.14213	0.16496	0.27856	0.13802	0.12012	0.25278	0.28652	0.30112	0.080466	0.22647	0.22621	0.12891	0.10087	0.31357	0.21042	0.1402	-1.2229	-2.1875	-2.3375	-1.9292	-2.4396	-2.0687	-1.9292	-2.7083	-1.7375	-2.0729	-2.5104	-1.7625	-2.6646	-2.2271	-1.6313	-2.6667	278.046	218.049	195.470	385.219	98.111	102.346	381.062	418.865	149.682	129.754	432.397	283.803	289.467	383.033	358.133	82.428	0.00044292	0.00025554	0.00023527	1281.5	6.1116e-06	4.6569e-06	1301.2	354.34	7.505e-06	2.9494e-06	406.51	136.93	119.09	41.446	3.2533e-06	51.692	0.00036746	0.00036986	9.8376e-05	1277.3	4.049e-06	4.0646e-06	1285.6	349.53	4.0688e-06	3.9741e-06	398.6	135.1	114.39	40.999	3.7832e-06	50.757	183.238	131.013	122.003	90.908	176.991	280.807	90.053	95.235	200.210	249.441	94.218	99.009	100.000	103.514	184.762	103.231	-8191	255	
8288.974	1	1	0	0	0.15963	0.16508	0.18525	0.11187	0.2014	0.054991	0.20497	0.25005	0.082242	0.12014	0.13213	0.15125	0.20743	0.28471	0.14566	0.10164	-1.4146	-2.0979	-2.4688	-1.6458	-2.4021	-2.1375	-2.0542	-2.6083	-1.9562	-2.0146	-2.6646	-1.8125	-2.425	-2.2875	-1.65	-2.7687	249.280	247.273	376.288	398.469	228.171	95.447	408.492	429.693	173.164	119.154	417.647	112.376	97.475	374.526	267.419	91.561	0.0004776	0.00065733	0.00012546	1296.1	6.9192e-06	4.7941e-06	1299.3	353.74	2.1237e-06	4.8382e-06	405.94	137.47	118.35	41.092	8.7691e-06	51.664	0.00038322	0.00036468	9.8161e-05	1280.6	4.1876e-06	4.0133e-06	1283.6	349.59	4.2189e-06	3.9449e-06	398.21	135.39	114.49	40.928	3.6834e-06	50.788	183.519	130.447	349.852	90.112	234.013	254.720	90.132	95.273	108.485	156.081	94.742	99.218	99.992	103.782	149.835	103.413	-8191	255	
8289.045	1	1	0	0	0.26474	0.12171	0.1089	0.061656	0.17403	0.059237	0.16582	0.15393	0.047929	0.27427	0.095723	0.26368	0.21018	0.13512	0.053888	0.24571	-1.5604	-1.9708	-2.4938	-2.1063	-2.25	-2.1542	-1.8188	-2.6813	-2.2083	-1.9	-2.5667	-1.5521	-1.9875	-2.2938	-1.7792	-2.4479	184.537	272.741	309.857	380.676	216.430	390.857	340.489	408.194	190.832	185.751	367.429	99.138	367.487	105.258	319.758	288.628	0.00045482	0.00015875	9.9825e-05	1297.8	1.3712e-06	2.9206e-06	1298.9	353.74	9.9753e-07	1.6706e-06	407.44	136.92	117.96	41.119	6.7332e-06	51.808	0.00038725	0.00035881	9.4861e-05	1282	4.1638e-06	3.9901e-06	1283.2	350.55	4.1694e-06	3.8709e-06	397.5	135.6	113.9	40.853	3.629e-06	50.931	184.196	179.506	149.267	90.293	118.759	226.074	90.287	95.167	270.339	251.303	94.565	99.147	100.111	103.729	174.796	103.182	-8191	255	
8289.141	1	1	0	0	0.16543	0.14181	0.0848	0.32105	0.043917	0.26604	0.25558	0.081667	0.24524	0.12619	0.2965	0.11657	0.22548	0.056832	0.15445	0.29263	-1.6979	-1.6208	-2.4271	-1.9646	-2.3063	-2.5438	-1.8604	-2.5438	-1.9667	-1.7875	-2.7583	-2.0563	-2.0354	-2.5354	-1.4396	-2.4292	297.067	104.151	265.792	437.573	111.971	197.270	325.902	130.530	319.770	135.010	106.255	163.371	129.124	417.616	397.207	321.609	0.00047721	0.00032309	0.00020192	1287.9	4.3156e-06	2.3961e-06	1289.7	351.95	1.388e-06	3.6982e-06	403.32	135.73	117.75	40.921	5.6877e-06	51.019	0.00037823	0.00034808	9.2712e-05	1279.8	3.978e-06	3.831e-06	1280.5	350.15	4.0161e-06	3.6772e-06	397.01	135.5	113.18	40.719	3.6529e-06	50.754	188.728	209.499	180.255	90.670	269.920	136.893	90.491	95.585	303.877	146.959	94.630	99.339	100.075	104.216	225.392	103.688	-8191	255	
8289.262	1	1	0	0	0.14507	0.18263	0.070298	0.28378	0.16101	0.14628	0.056947	0.10924	0.088273	0.14148	0.34197	0.18732	0.2102	0.30533	0.070575	0.06276	-1.7833	-1.6021	-2.4708	-2.0771	-2.0521	-2.6917	-1.7854	-2.4875	-2.1937	-1.4771	-2.5583	-2.0667	-1.8521	-2.4083	-1.6354	-2.3896	322.687	180.638	312.686	386.278	278.205	158.882	405.507	98.878	324.921	284.117	369.244	80.607	387.523	129.394	163.257	244.506	0.00041187	0.00027225	0.0002593	1282.2	2.7601e-06	1.1417e-06	1286.1	352.02	3.753e-06	8.51e-06	406.81	136.7	117.95	41.142	9.1893e-06	51.379	0.000359	0.00033216	9.354e-05	1279.4	3.8391e-06	3.7027e-06	1279.4	350.34	3.9227e-06	3.6155e-06	398.79	135.86	113.06	40.704	3.824e-06	50.881	180.716	132.088	123.692	90.807	237.750	204.512	90.426	95.377	258.826	272.873	94.271	98.470	99.443	103.885	235.914	103.148	-8191	255	
8289.358	1	1	0	0	0.082621	0.080776	0.010061	0.21664	0.13212	0.12206	0.15168	0.37815	0.19745	0.22592	0.20983	0.30617	0.19334	0.21143	0.030292	0.12572	-1.7896	-1.7125	-2.5146	-2.1063	-1.7208	-2.6667	-1.9271	-2.3667	-2.4479	-1.6875	-2.6813	-2.0333	-1.9479	-2.5083	-1.6063	-2.0646	362.768	118.259	98.271	435.068	415.805	298.427	123.157	359.943	387.526	239.784	407.209	96.225	155.212	413.759	361.430	224.087	0.000376	0.00034754	0.00029088	1277.7	9.0046e-06	8.9401e-06	1282.5	348.15	1.8027e-06	3.1441e-06	399.93	134.15	115.85	40.579	1.136e-05	51.044	0.00036023	0.00032617	9.9854e-05	1278.3	3.8216e-06	3.6424e-06	1282	349.65	3.8574e-06	3.5377e-06	398.42	135.31	112.52	40.635	4.0021e-06	50.768	180.328	143.199	131.032	90.496	204.193	229.009	90.473	95.685	305.708	203.062	95.250	99.512	100.540	104.426	206.279	103.722	-8191	255	
8289.453	1	1	0	0	0.074428	0.24904	0.20102	0.23562	0.23095	0.1935	0.051319	0.18884	0.25801	0.18447	0.11379	0.058826	0.23006	0.15132	0.18888	0.216	-1.9979	-1.7417	-2.4583	-2.2021	-1.7667	-2.5583	-2.0187	-2.2146	-2.4667	-1.5771	-2.4646	-2.1188	-1.8542	-2.525	-1.7917	-2.1562	408.775	332.226	256.226	370.024	307.843	142.607	349.560	337.511	208.629	380.251	426.443	362.732	326.178	329.421	294.547	149.736	0.00041704	0.00015765	0.00017617	1276.9	4.8397e-06	5.3112e-06	1295.9	351.51	1.2685e-06	3.411e-06	405.6	136.2	117.21	41.115	4.2674e-06	51.262	0.00035616	0.00033215	0.00010296	1279.2	3.756e-06	3.673e-06	1285.6	349.34	3.7999e-06	3.6693e-06	399.82	135.37	112.3	40.69	4.1352e-06	50.691	186.097	260.292	179.195	90.629	238.095	196.434	90.186	95.432	154.501	256.494	94.619	99.395	100.218	104.167	250.448	103.538	-8191	255	
8289.549	1	1	0	0	0.092115	0.14091	0.15023	0.37827	0.01988	0.098511	0.11002	0.25885	0.10422	0.22017	0.13028	0.20845	0.25129	0.14722	0.23409	0.26849	-2.1792	-1.4708	-2.2917	-2.4583	-1.6667	-2.5292	-2.05	-2.2417	-2.3583	-1.7375	-2.3854	-2.475	-1.7437	-2.4646	-1.8563	-1.8354	176.547	306.202	435.528	379.658	428.988	385.177	318.560	372.422	354.120	270.266	362.062	144.024	392.729	80.414	114.973	341.412	0.00034042	0.00041888	0.00015685	1288.3	1.7143e-06	1.0109e-05	1291.5	352.22	2.8893e-06	5.7112e-06	403.62	135.74	117.33	40.923	5.7419e-07	51.1	0.00034329	0.00034187	0.00010372	1277	3.6165e-06	3.8109e-06	1283.9	349.41	3.6605e-06	3.8589e-06	399.02	135.2	112.39	40.815	4.0905e-06	50.568	186.461	143.234	170.659	90.264	255.019	210.375	90.341	95.283	229.923	222.910	94.699	99.341	100.006	104.531	371.333	103.392	-8191	255	
8289.645	1	1	0	0	0.058237	0.20354	0.16725	0.20954	0.24642	0.16348	0.39192	0.24439	0.11851	0.23875	0.057817	0.14968	0.23011	0.076643	0.083598	0.17075	-2.1813	-1.575	-2.125	-2.6271	-1.7812	-2.45	-2.0292	-1.8083	-2.6083	-1.7042	-2.1937	-2.4917	-1.7604	-2.6063	-2.0104	-1.8042	267.081	335.233	355.558	400.050	339.342	237.245	340.770	354.032	309.930	166.771	386.449	366.792	338.090	264.681	161.810	353.994	0.00050791	0.00010919	9.9149e-05	1279.8	3.0544e-07	1.0061e-05	1278.3	347.69	2.9706e-06	3.9215e-06	400.14	134.85	115.73	40.659	6.1935e-06	50.974	0.00033536	0.00035897	0.00010207	1276	3.5803e-06	3.9517e-06	1280.5	348.25	3.6536e-06	4.0126e-06	398.04	134.77	111.95	40.878	4.014e-06	50.474	180.063	421.178	384.579	90.616	340.013	196.809	90.568	95.538	309.815	269.161	95.079	99.458	100.303	104.496	212.054	103.670	-8191	255	
8289.741	1	1	0	0	0.14355	0.28949	0.061186	0.23451	0.10451	0.1898	0.30084	0.2749	0.20208	0.32224	0.12608	0.098758	0.090306	0.09528	0.20945	0.089461	-2.2646	-1.8	-2.125	-2.5771	-1.7833	-2.4875	-2.3021	-1.7771	-2.6688	-1.9896	-2.0979	-2.7	-1.4625	-2.4625	-2.1771	-1.8	420.582	304.654	206.202	423.206	271.230	353.732	409.840	382.084	118.709	429.364	329.306	408.353	272.209	418.779	205.789	129.074	0.00046844	0.00050884	3.2187e-05	1276.7	4.7327e-06	1.7838e-06	1278.1	348.26	8.2889e-06	2.8737e-06	403.33	136.1	117.49	41.137	4.3033e-06	50.899	0.00033909	0.00037221	9.8949e-05	1274.8	3.6786e-06	4.0434e-06	1280.5	347.99	3.7492e-06	4.0763e-06	398.32	134.86	112.76	40.921	3.9323e-06	50.375	181.609	149.087	381.362	90.702	215.305	141.831	90.603	95.764	207.355	96.468	94.677	99.269	99.927	104.393	157.556	103.590	-8191	255	
8289.837	1	1	0	0	0.20306	0.17688	0.17291	0.23916	0.42874	0.28976	0.26392	0.087574	0.12346	0.047677	0.02748	0.25267	0.20931	0.15501	0.11967	0.45672	-2.1917	-1.6875	-1.8146	-2.8021	-1.9771	-2.2583	-2.3438	-1.7604	-2.4167	-1.9312	-1.9042	-2.6854	-1.7458	-2.2479	-2.4208	-1.6333	282.477	162.303	291.351	382.283	276.003	146.406	375.443	338.248	197.713	225.414	297.247	345.289	214.285	155.029	341.210	386.338	0.00053246	0.00082038	0.00024402	1286.2	9.9378e-06	1.503e-06	1294.7	352.56	8.1053e-06	1.0964e-05	406.23	136.24	118.46	41.126	4.4285e-06	51.712	0.00035119	0.0003757	9.6725e-05	1276.8	3.8574e-06	4.06e-06	1283.7	348.57	3.9075e-06	4.0566e-06	398.64	134.61	113.49	40.846	3.8432e-06	50.558	184.391	124.710	132.875	90.561	246.132	321.281	90.365	95.179	237.081	145.878	94.231	98.835	100.031	103.973	205.738	103.470	-8191	255	
8289.958	1	1	0	0	0.26957	0.065847	0.017063	0.19825	0.10623	0.075961	0.35872	0.060996	0.17407	0.20384	0.4378	0.087761	0.11512	0.3139	0.20797	0.10725	-2.2208	-2.0146	-1.8042	-2.6896	-1.6437	-2.2917	-2.6208	-1.775	-2.5167	-2.0854	-1.8729	-2.625	-1.8583	-2.1312	-2.6979	-1.6146	112.350	411.067	247.428	328.076	408.374	181.063	403.624	266.485	369.225	422.184	318.809	109.278	434.334	152.760	139.794	218.138	0.00050155	0.00053379	0.00015413	1291.8	8.9896e-06	5.5652e-06	1296.3	352.43	3.0079e-06	3.9783e-06	406.17	136.95	117.9	41.338	4.5699e-06	51.431	0.00036792	0.0003708	9.572e-05	1276.6	4.0468e-06	3.9763e-06	1283.9	348.93	4.0818e-06	4.0149e-06	397.56	135	113.91	40.807	3.7867e-06	50.598	180.922	263.897	243.854	89.925	249.683	166.323	89.809	94.811	184.579	154.184	94.173	98.748	99.483	103.700	190.348	103.199	-8191	255	
8290.052	1	1	0	0	0.25551	0.23203	0.082621	0.43476	0.094985	0.17363	0.12997	0.18611	0.090591	0.08211	0.076428	0.050276	0.073467	0.23911	0.086656	0.12399	-1.9708	-2.2938	-1.6958	-2.8521	-1.6771	-2.0771	-2.6813	-1.5771	-2.2438	-2.075	-1.8708	-2.6521	-1.85	-2.0271	-2.4708	-1.925	237.441	398.491	134.022	392.002	85.516	222.551	97.330	343.189	358.896	181.543	362.762	380.441	406.055	87.338	301.172	280.835	0.00051659	0.00063239	0.00011032	1295.8	6.3989e-06	1.4973e-06	1296.7	352.35	3.6171e-06	7.4946e-06	405.48	136.62	117.98	41.126	3.7619e-06	51.232	0.00037403	0.0003627	9.2143e-05	1279.2	4.1069e-06	3.8617e-06	1282	349.08	4.0801e-06	3.9243e-06	396.22	135.22	114.11	40.77	3.65e-06	50.65	190.665	205.106	152.245	89.890	194.436	325.220	89.789	94.808	178.476	235.098	94.576	98.979	99.961	104.176	257.818	103.418	-8191	255	
8290.148	1	1	0	0	0.16416	0.13695	0.019048	0.19948	0.19697	0.050747	0.075118	0.4029	0.11857	0.14721	0.1811	0.07219	0.21444	0.068781	0.080273	0.17108	-1.8563	-2.3021	-1.6354	-2.7292	-1.7771	-1.9604	-2.7354	-1.6542	-2.3688	-2.5646	-1.9292	-2.5479	-1.9125	-1.8125	-2.5917	-1.7667	192.782	187.856	186.763	345.357	211.167	198.901	362.228	368.854	300.374	218.624	93.135	366.229	231.205	224.521	369.288	402.013	0.00041751	0.00013106	0.0002073	1292.1	5.1941e-06	8.4111e-06	1297	354.01	3.2216e-06	4.827e-06	405.74	136.83	117.45	41.274	3.8226e-06	51.203	0.00037422	0.00035262	9.0568e-05	1279.2	4.041e-06	3.7892e-06	1281.4	349.57	3.9518e-06	3.8258e-06	395.96	135.28	113.61	40.732	3.6046e-06	50.793	189.966	408.621	97.558	90.525	239.847	191.345	90.095	94.826	225.527	197.258	94.345	98.919	99.807	103.935	174.362	103.224	-8191	255	
8290.245	1	1	0	0	0.082301	0.27302	0.27409	0.34959	0.31806	0.051086	0.28692	0.17347	0.03906	0.069376	0.18305	0.20204	0.098793	0.30392	0.20186	0.32805	-1.6313	-2.4604	-1.6229	-2.6063	-2.2229	-1.6313	-2.7062	-2.1854	-2.1583	-2.4167	-1.8167	-2.375	-2.1708	-1.7938	-2.4417	-1.925	324.479	157.410	125.266	392.519	283.211	399.216	408.473	401.599	266.333	260.393	428.248	110.770	360.995	375.726	423.020	396.420	0.00038214	0.00032078	0.00024993	1295.9	2.5315e-06	4.8846e-06	1299.5	352.63	2.1216e-06	6.0249e-06	404.72	137.37	117.42	41.169	6.0029e-06	51.31	0.00036073	0.00034661	9.1078e-05	1280.7	3.9945e-06	3.682e-06	1281.5	349.85	3.8933e-06	3.7646e-06	396.58	135.84	113.4	40.582	3.7149e-06	50.855	181.076	190.069	140.482	90.177	303.260	282.171	90.135	94.778	249.033	147.150	94.466	99.205	100.077	104.041	146.696	103.157	-8191	255	
8290.341	1	1	0	0	0.2381	0.16104	0.32777	0.030475	0.15873	0.18835	0.31118	0.076459	0.12391	0.085598	0.27159	0.31443	0.11746	0.19776	0.15448	0.066555	-1.4417	-2.4729	-1.7437	-2.4125	-2.2125	-1.725	-2.7396	-1.8125	-1.8667	-2.5729	-1.6792	-2.2042	-2.3063	-1.6979	-2.4125	-2.2292	323.922	141.644	123.236	81.074	431.429	201.942	100.611	186.432	430.504	154.135	243.833	432.087	333.875	145.910	317.506	411.281	0.00049702	0.00018131	0.00031917	1294.2	4.7754e-06	6.1727e-06	1292.8	349.79	3.6585e-06	4.7311e-06	404.6	135.77	117.54	40.958	7.234e-06	51.123	0.00035401	0.00033601	9.4447e-05	1280.9	3.8897e-06	3.5675e-06	1282.8	349.44	3.8347e-06	3.6285e-06	398.2	135.21	112.98	40.491	3.8926e-06	50.768	183.874	333.323	432.834	90.356	176.605	238.103	90.579	95.140	213.254	186.260	94.741	99.076	99.901	104.260	203.471	103.440	-8191	255	
8290.437	1	1	0	0	0.27136	0.13197	0.16578	0.27177	0.11359	0.16425	0.1032	0.099962	0.10313	0.085669	0.41249	0.23716	0.083297	0.26254	0.23115	0.10488	-1.3792	-2.4583	-1.6812	-2.2792	-2.1875	-1.8229	-2.7354	-1.9979	-1.7792	-2.3479	-1.8729	-2.1771	-2.4708	-1.6875	-2.4292	-2.2396	173.592	191.459	242.373	409.682	389.359	429.168	308.386	418.844	142.715	328.314	377.660	394.111	227.184	362.752	224.174	121.506	0.00046755	0.00027465	0.00014627	1286.7	4.2432e-06	2.1932e-06	1285.5	348.66	3.2577e-06	7.3148e-06	400.8	135.22	115.33	40.962	1.3766e-06	51.037	0.00034748	0.00032847	9.9058e-05	1277.7	3.8459e-06	3.5503e-06	1282.8	348.67	3.7417e-06	3.6228e-06	397.67	135.06	112.38	40.535	4.0286e-06	50.682	192.314	188.808	108.791	90.734	271.524	353.150	90.548	95.418	221.098	248.778	95.016	99.590	100.202	104.462	192.234	103.593	-8191	255	
8290.557	1	1	0	0	0.084028	0.071328	0.14455	0.22699	0.38814	0.15235	0.11894	0.097246	0.21218	0.13413	0.071645	0.094985	0.20846	0.26014	0.27175	0.093502	-1.4188	-2.3771	-1.7833	-2.0729	-2.5396	-1.5854	-2.6271	-2.375	-1.6542	-2.6729	-2.0458	-2.0833	-2.4771	-1.6479	-2.4229	-2.4104	120.581	187.384	401.820	379.148	195.228	227.057	361.971	85.063	179.778	139.930	142.869	301.957	156.982	415.847	268.567	410.749	0.00044546	0.00079557	0.00012268	1284.2	1.9907e-06	5.3446e-06	1279	349.75	1.7885e-06	2.4411e-06	403.4	135.91	116.53	40.945	2.4913e-06	51.078	0.00034196	0.00033627	0.00010375	1276.8	3.8095e-06	3.6495e-06	1281.1	348.82	3.6626e-06	3.7251e-06	399.55	134.74	112.44	40.598	4.0629e-06	50.711	186.331	150.299	115.005	90.753	182.795	231.172	90.610	95.460	314.564	111.060	94.741	99.564	100.133	104.300	205.739	103.463	-8191	255	
8290.654	1	1	0	0	0.25691	0.11678	0.12146	0.22631	0.29362	0.3153	0.24856	0.48398	0.15163	0.13101	0.048943	0.23793	0.22437	0.13275	0.2158	0.075781	-1.2417	-2.6146	-1.8208	-2.0458	-2.5438	-1.6479	-2.3583	-2.2792	-1.4833	-2.4979	-2.2229	-1.9792	-2.5458	-1.7437	-2.2083	-2.3187	247.190	284.574	276.078	398.185	375.165	400.916	274.731	383.313	311.769	161.856	168.769	389.754	112.828	119.106	208.016	351.394	0.00039017	0.00018712	4.1657e-05	1274.8	5.8771e-07	7.9479e-06	1281.1	348.16	4.4428e-06	3.0516e-06	399.62	135.22	117.08	40.864	4.3372e-06	51.089	0.00033304	0.00034751	0.00010346	1275.3	3.6527e-06	3.8253e-06	1280.3	347.84	3.5321e-06	3.8144e-06	397.53	134.57	111.95	40.671	3.9301e-06	50.548	180.454	411.415	126.769	90.741	384.589	211.810	90.499	95.162	234.754	127.882	94.942	99.489	100.488	104.306	235.404	103.163	-8191	255	
8290.750	1	1	0	0	0.21054	0.2176	0.20462	0.36341	0.1523	0.28549	0.20744	0.33002	0.14799	0.21094	0.055089	0.069334	0.06781	0.078957	0.23339	0.16884	-1.1688	-2.6813	-2.0875	-2.0667	-2.6188	-1.8813	-2.5208	-2.5667	-1.6063	-2.5458	-2.1354	-1.8208	-2.6229	-1.6646	-2.1271	-2.5479	333.052	350.448	385.723	434.435	354.756	179.075	98.204	405.470	313.276	352.204	105.812	342.405	359.063	408.253	90.402	377.284	0.00043676	0.00042806	0.00023318	1286.5	4.4208e-06	4.8004e-06	1287.9	348.94	7.6591e-06	3.3171e-06	402.63	135.54	116.43	40.661	8.2686e-07	50.783	0.00032583	0.00035857	0.00010153	1276.4	3.6259e-06	3.9787e-06	1281.9	348.47	3.5631e-06	4.0134e-06	398.68	134.37	112.01	40.784	3.8537e-06	50.399	191.682	145.474	167.793	90.631	209.961	234.927	90.582	95.461	214.841	226.881	94.805	99.140	100.305	104.450	217.671	103.774	-8191	255	
8290.844	1	1	0	0	0.13451	0.080611	0.13477	0.35886	0.14228	0.28445	0.2366	0.18976	0.0772	0.093939	0.041735	0.18437	0.22458	0.13713	0.1568	0.058536	-1.3354	-2.2979	-2.1562	-1.8875	-2.5979	-1.8896	-2.1292	-2.6583	-1.8208	-2.3208	-2.2354	-1.75	-2.5	-2.1312	-2.025	-2.6	188.288	394.674	309.885	421.620	374.943	411.263	365.769	381.249	414.811	416.216	434.645	364.755	357.167	151.449	259.616	174.561	0.00052357	0.00037126	0.00023743	1274.7	9.8396e-06	4.165e-06	1275.6	347.25	4.9399e-06	2.0972e-06	397.64	133.94	114.91	40.635	7.8606e-06	50.631	0.00033601	0.00037156	0.00010004	1272.3	3.7219e-06	4.0483e-06	1277.4	347.08	3.6937e-06	3.9799e-06	397.1	134.01	112.36	40.798	3.7845e-06	50.415	189.813	152.576	111.048	90.764	230.001	238.514	90.822	95.771	209.078	247.161	95.153	99.850	100.544	104.420	218.068	103.598	-8191	255	
8290.918	1	1	0	0	0.27314	0.2124	0.22313	0.24901	0.20538	0.066405	0.23697	0.2084	0.23516	0.046199	0.19723	0.20282	0.22368	0.25974	0.067746	0.07578	-1.2333	-2.2042	-2.1667	-1.7396	-2.4917	-1.9062	-2.0312	-2.6417	-1.8479	-2.2333	-2.6437	-1.9042	-2.3812	-1.9917	-1.85	-2.7354	378.530	257.199	256.089	174.176	167.479	363.036	349.760	430.178	309.567	347.425	412.899	162.705	155.974	378.120	178.914	322.967	0.00052456	0.00036606	0.00015624	1268.9	3.0868e-06	2.325e-06	1279.5	347.52	1.0391e-05	4.4076e-06	402.45	134.89	116.56	40.878	3.7324e-06	51.113	0.00035075	0.00036445	9.7522e-05	1269.2	3.8898e-06	4.0321e-06	1278.5	347.44	3.9292e-06	3.9606e-06	397.41	134.19	113.01	40.768	3.712e-06	50.449	179.162	127.048	167.753	90.869	299.094	337.496	90.838	95.447	250.241	308.695	94.765	99.467	100.368	104.354	252.341	103.430	-8191	255	
8291.036	1	1	0	0	0.050253	0.37323	0.054397	0.13459	0.27332	0.34552	0.14286	0.23868	0.19128	0.16931	0.21803	0.19684	0.22426	0.37227	0.28639	0.10465	-1.2958	-1.9771	-2.2313	-1.8458	-2.5667	-2.025	-1.8896	-2.6896	-1.9188	-2.1417	-2.6729	-1.6458	-2.5125	-2.1688	-1.7687	-2.7479	183.949	290.126	234.746	412.920	318.357	391.952	389.922	327.848	109.578	410.002	106.555	387.849	249.981	409.786	158.460	80.492	0.00041977	0.00038243	0.00016626	1273.1	2.7184e-06	2.6822e-06	1277.8	348.81	6.6335e-06	3.2729e-06	402.54	134.5	115.66	40.493	2.0846e-06	50.67	0.0003665	0.00035583	9.5198e-05	1270	3.9805e-06	3.899e-06	1276.2	348.12	3.9864e-06	3.8099e-06	397.11	134.21	113.32	40.636	3.5574e-06	50.47	180.242	153.525	122.381	90.797	211.616	221.350	90.618	95.651	249.437	162.708	94.902	99.753	100.918	104.613	377.718	103.563	-8191	255	
8291.133	1	1	0	0	0.29442	0.091279	0.13891	0.29397	0.21347	0.28786	0.41907	0.27032	0.038559	0.030189	0.30563	0.31756	0.15013	0.33255	0.023804	0.13667	-1.4042	-2.0812	-2.6979	-1.6083	-2.2812	-2.2583	-1.8646	-2.6125	-1.8375	-2.0208	-2.8042	-1.8292	-2.3479	-2.5396	-1.8687	-2.6792	157.624	243.999	301.880	84.564	122.880	243.794	292.237	357.864	326.061	308.249	345.380	87.931	392.835	402.571	236.071	412.827	0.00041895	0.00021032	5.8998e-05	1267.5	6.1773e-06	6.2434e-06	1272.1	348.38	7.0604e-07	3.8171e-06	400.07	134.93	116.51	40.796	8.0388e-07	51.238	0.00037018	0.00034458	9.1963e-05	1271.9	3.965e-06	3.8195e-06	1275	348.23	4.0405e-06	3.7347e-06	395.08	134.56	113.19	40.648	3.4693e-06	50.654	186.371	138.018	184.432	90.944	199.457	209.362	90.758	95.569	224.560	143.233	94.881	99.398	100.249	104.032	376.829	103.513	-8191	255	
8291.229	1	1	0	0	0.29439	0.17008	0.14313	0.31515	0.123	0.081032	0.058849	0.19084	0.19345	0.25004	0.20817	0.095962	0.10863	0.2178	0.20317	0.17406	-1.8104	-1.975	-2.6813	-1.8438	-2.4021	-2.4708	-1.8104	-2.6312	-2.0375	-1.7563	-2.6021	-1.8854	-2.2875	-2.5187	-1.65	-2.5104	118.990	221.525	409.293	377.415	144.970	148.608	352.769	106.356	172.851	344.364	395.748	122.586	255.815	397.575	419.812	105.233	0.00037435	0.00056397	0.00018791	1288.1	4.2649e-06	1.5659e-06	1293	353.72	8.4375e-06	7.3789e-06	407.11	136.48	117.74	41.334	3.7042e-06	51.693	0.00036768	0.00033791	8.9791e-05	1276.8	3.9134e-06	3.7325e-06	1276.8	350.07	3.9064e-06	3.6277e-06	397.07	135.23	112.83	40.746	3.4418e-06	50.861	187.476	84.688	180.545	90.532	262.353	288.142	90.340	95.099	220.832	136.597	93.876	98.399	99.549	103.315	234.063	102.362	-8191	255	
8291.349	1	1	0	0	0.25179	0.18007	0.25892	0.22139	0.13325	0.062246	0.14533	0.087233	0.0096273	0.16665	0.12072	0.18582	0.10914	0.096815	0.28046	0.14883	-1.75	-1.8875	-2.6646	-2.0292	-1.9813	-2.7354	-1.75	-2.5521	-2.2646	-1.8542	-2.6542	-2.0125	-2.1312	-2.5687	-1.7167	-2.6646	337.423	371.557	282.605	382.319	187.589	414.665	196.489	184.898	329.108	412.613	113.932	308.959	307.217	294.711	254.845	132.273	0.00039657	0.00053949	0.00011844	1285.2	1.3152e-06	5.514e-06	1294.8	352.14	7.4116e-06	5.7611e-06	406.7	136.68	117.22	41.316	5.7387e-06	51.541	0.00035615	0.00032516	8.9435e-05	1276.8	3.7355e-06	3.5894e-06	1279.5	349.79	3.7954e-06	3.4671e-06	397.64	135.41	112.07	40.719	3.578e-06	50.832	183.868	139.920	155.518	89.611	254.507	77.782	89.258	94.245	233.480	244.071	93.297	97.702	98.534	102.541	219.345	102.109	-8191	255	
8291.446	1	1	0	0	0.084719	0.18503	0.12954	0.30368	0.11905	0.051154	0.11778	0.086692	0.24746	0.29571	0.12673	0.16009	0.097426	0.25266	0.024469	0.14517	-1.9958	-1.6792	-2.4125	-2.1396	-1.8729	-2.5771	-1.7563	-2.2375	-2.1729	-1.6938	-2.7208	-2.05	-1.8833	-2.6479	-1.5375	-2.3146	216.346	195.096	287.501	94.243	335.617	241.920	392.046	379.142	390.561	324.384	180.778	379.985	424.973	164.948	104.144	376.535	0.00046924	0.00026473	0.0002265	1289.3	5.477e-06	2.238e-06	1291.9	353.49	5.7429e-06	2.8044e-06	406.47	137.23	117.6	41.304	5.4383e-06	51.178	0.00034401	0.000314	9.1859e-05	1279.7	3.6129e-06	3.4634e-06	1280.6	350.24	3.7121e-06	3.3828e-06	398.55	135.45	112.19	40.596	3.7578e-06	50.616	182.898	87.493	189.953	88.946	189.231	252.443	88.737	93.911	213.546	242.735	93.192	97.662	99.210	102.667	184.339	101.899	-8191	255	
8291.542	1	1	0	0	0.2659	0.14877	0.028836	0.33533	0.31533	0.032151	0.21982	0.12733	0.13533	0.090701	0.077581	0.26984	0.013495	0.24369	0.060876	0.43183	-1.7771	-1.5417	-2.5167	-2.2583	-1.8062	-2.6646	-1.9188	-2.4333	-2.4271	-1.7417	-2.6042	-2.0917	-1.7958	-2.7438	-1.7125	-1.9958	97.437	184.219	85.552	365.869	365.671	350.278	393.481	369.591	120.005	321.597	422.579	373.187	130.566	420.496	362.453	409.029	0.00044108	0.00028754	0.00034814	1290.1	3.6183e-06	5.1539e-06	1291.4	352.77	9.5976e-07	1.9638e-06	407.17	137.09	117.29	41.236	4.9805e-06	51.478	0.00034018	0.00031058	9.5721e-05	1278.7	3.5894e-06	3.4692e-06	1279.7	349.86	3.6427e-06	3.4118e-06	399.89	135.29	112.06	40.635	3.8936e-06	50.719	194.458	176.581	150.061	88.887	159.208	276.470	89.041	93.931	147.879	157.104	93.005	97.678	98.601	102.690	239.478	102.011	-8191	255	
8291.638	1	1	0	0	0.039955	0.18371	0.13441	0.17992	0.077764	0.25751	0.033197	0.14092	0.097167	0.090911	0.27418	0.25585	0.21781	0.014573	0.11604	0.053405	-2.1521	-1.4125	-2.2917	-2.475	-1.6333	-2.55	-1.8542	-2.0812	-2.4417	-1.7062	-2.3646	-2.2917	-1.6208	-2.5938	-1.8417	-1.9417	122.981	416.894	322.769	76.570	350.448	321.707	348.171	226.139	183.277	429.026	406.859	396.196	163.612	374.725	108.829	396.184	0.00045402	0.00039098	0.00015977	1291.5	4.1533e-06	1.0188e-05	1293.5	352.63	6.5654e-06	9.1208e-06	405.82	136.75	117.53	41.178	4.489e-06	51.621	0.0003328	0.00031868	9.8325e-05	1277.1	3.4716e-06	3.5403e-06	1281.6	349.57	3.5103e-06	3.5507e-06	398.79	135.04	111.48	40.684	3.8917e-06	50.585	184.718	202.534	110.394	88.998	238.846	168.643	88.914	93.736	190.892	234.975	93.157	98.005	98.937	102.398	110.101	101.846	-8191	255	
8291.734	1	1	0	0	0.27435	0.058139	0.18569	0.19336	0.12997	0.29775	0.15773	0.024395	0.13215	0.1332	0.15119	0.10617	0.14873	0.24713	0.19645	0.15948	-2.1917	-1.5458	-2.1604	-2.2979	-1.5	-2.3104	-2	-2.0104	-2.5604	-1.7146	-2.3458	-2.4708	-1.6437	-2.5104	-2.1667	-1.8208	341.182	84.646	316.448	369.820	128.267	119.095	279.510	343.263	205.185	310.405	91.620	304.645	184.218	274.513	82.180	412.024	0.00054144	0.00068118	0.00013425	1286.8	2.8641e-06	6.5724e-06	1293.3	351.97	7.0461e-07	8.3054e-06	405.77	136.37	116.94	41.187	2.5992e-06	51.5	0.00032229	0.0003351	9.7785e-05	1274.7	3.4221e-06	3.6903e-06	1279.8	349.07	3.4596e-06	3.7318e-06	398.69	134.8	111.48	40.788	3.8099e-06	50.464	179.246	169.133	131.507	88.805	233.801	180.359	88.755	93.839	257.635	230.529	93.030	97.587	98.498	102.675	309.245	102.083	-8191	255	
8291.830	1	1	0	0	0.19431	0.13326	0.26673	0.10868	0.32717	0.027473	0.077836	0.48726	0.29383	0.24101	0.29223	0.15125	0.11633	0.14905	0.18584	0.11635	-2.1875	-1.7354	-2.1583	-2.4771	-1.6562	-2.3354	-2.3146	-1.8417	-2.4958	-1.7	-2.2313	-2.4625	-1.7354	-2.3979	-2.2062	-1.6771	150.500	203.524	116.588	147.032	176.354	342.020	417.802	391.409	150.913	186.440	109.865	404.670	225.339	145.297	328.203	217.202	0.00050091	0.00070838	0.00020835	1289	6.8449e-06	3.8112e-06	1292.9	353.59	3.6135e-06	2.8705e-06	407.54	136.76	117.51	41.111	2.4039e-06	51.38	0.00032083	0.00035025	9.4523e-05	1275.4	3.4046e-06	3.8205e-06	1280.9	349.11	3.4926e-06	3.8874e-06	398.08	134.8	111.5	40.755	3.7147e-06	50.367	174.793	149.349	385.191	89.042	199.838	325.753	88.709	93.669	265.917	299.471	93.278	97.771	98.533	102.641	269.493	101.812	-8191	255	
8291.926	1	1	0	0	0.27311	0.1781	0.17859	0.278	0.18644	0.093869	0.26899	0.16726	0.13446	0.1556	0.22391	0.1531	0.083249	0.069845	0.24545	0.11642	-2.225	-1.7188	-1.9042	-2.5625	-1.6229	-2.1771	-2.4437	-1.7542	-2.4417	-1.8667	-2.0104	-2.625	-1.7188	-2.2375	-2.2375	-1.8042	266.642	212.613	363.446	78.166	399.385	331.067	88.769	353.487	287.517	255.387	343.990	180.263	118.875	126.812	334.766	354.401	0.00049224	0.00013558	5.7189e-05	1285.3	5.679e-06	4.1948e-06	1290.1	352.63	5.4846e-06	2.1839e-06	405.57	136.43	117.02	41.13	3.7534e-06	51.595	0.00032697	0.00035493	9.2556e-05	1273	3.5604e-06	3.8245e-06	1278.1	348.3	3.6145e-06	3.8747e-06	397.37	134.38	111.99	40.758	3.6687e-06	50.347	180.802	284.371	200.951	88.824	209.135	132.390	88.936	93.521	205.723	130.132	93.074	97.604	98.285	102.506	305.777	101.892	-8191	255	
8292.045	1	1	0	0	0.26801	0.055546	0.21564	0.23823	0.13478	0.27375	0.099357	0.12907	0.018969	0.058222	0.1451	0.042137	0.30032	0.17679	0.16168	0.16762	-2.1208	-2.0187	-1.7708	-2.6271	-1.5417	-2.2521	-2.4646	-1.5063	-2.5292	-1.9208	-1.8167	-2.5938	-1.6063	-2.0396	-2.4437	-1.5229	341.239	242.972	94.827	76.275	410.755	350.413	433.881	414.842	186.740	274.690	399.700	118.073	286.881	76.959	168.653	120.673	0.00046052	0.00020716	0.00014927	1288.7	6.7507e-06	4.2601e-06	1299.2	352.93	6.8083e-06	9.1845e-06	406.75	136.33	117.25	41.145	4.803e-06	51.453	0.00033956	0.00035183	9.0632e-05	1272	3.7147e-06	3.7638e-06	1281	348.49	3.7445e-06	3.8096e-06	397.36	134.23	112.65	40.716	3.5746e-06	50.352	191.920	181.227	84.409	88.933	240.690	301.046	88.627	93.618	287.175	214.035	93.137	97.573	98.468	102.745	137.322	101.635	-8191	255	
8292.141	1	1	0	0	0.040963	0.18018	0.33275	0.31494	0.06883	0.023271	0.24572	0.10174	0.15331	0.40025	0.2079	0.13815	0.05028	0.37587	0.11449	0.012248	-2.0125	-2.0292	-1.7042	-2.8	-1.6437	-1.9354	-2.6125	-1.7417	-2.4562	-1.9062	-1.7479	-2.7583	-1.8979	-2.0667	-2.3563	-1.8042	376.641	91.916	305.311	419.937	298.753	273.815	399.009	375.086	121.748	428.674	94.608	418.331	340.052	378.399	432.812	399.002	0.0003936	0.00042765	8.1264e-05	1288	5.8392e-06	1.5421e-06	1291.2	353.69	3.2237e-06	2.3505e-06	405.5	136.42	117.96	41.295	3.3169e-06	51.532	0.00035002	0.00034045	8.7774e-05	1272.3	3.817e-06	3.6204e-06	1277.5	348.07	3.8114e-06	3.6897e-06	395.78	134.36	112.81	40.662	3.4542e-06	50.428	191.833	164.560	261.693	89.094	205.516	318.660	88.815	93.663	196.619	264.225	92.957	97.716	98.324	102.611	173.595	101.790	-8191	255	
8292.237	1	1	0	0	0.13996	0.23481	0.060327	0.40156	0.074748	0.27917	0.1276	0.10006	0.15072	0.098745	0.45753	0.19575	0.28227	0.17089	0.2076	0.085558	-1.9833	-2.3333	-1.5146	-2.525	-1.8312	-1.8062	-2.6396	-1.7458	-2.0792	-2.2104	-1.5771	-2.55	-1.9542	-1.925	-2.625	-1.7542	236.442	395.699	116.821	416.648	343.922	106.446	401.296	87.482	100.930	111.886	363.340	378.478	97.259	421.787	360.419	430.750	0.00041705	0.00026361	7.549e-05	1289.3	4.1556e-06	6.8192e-07	1287.3	351.78	4.3419e-06	3.0863e-06	406.02	136.11	116.76	41.18	7.3634e-06	51.341	0.00035168	0.00033376	8.5019e-05	1273	3.8398e-06	3.5576e-06	1273.7	348.42	3.8154e-06	3.6597e-06	395.65	134.52	112.67	40.561	3.3972e-06	50.52	175.339	87.711	254.577	89.210	242.257	294.463	88.972	93.750	224.878	237.600	93.155	97.808	98.306	102.576	160.951	102.061	-8191	255	
8292.334	1	1	0	0	0.18299	0.078063	0.16695	0.13629	0.14987	0.24165	0.33567	0.1428	0.088913	0.15665	0.18354	0.09507	0.024736	0.21931	0.15201	0.13384	-1.8708	-2.3958	-1.5771	-2.4938	-2.1042	-1.6792	-2.7562	-1.8042	-2.2729	-2.2542	-1.7042	-2.5021	-1.9208	-1.7625	-2.4854	-1.7667	211.431	261.571	249.107	425.299	361.501	412.415	370.522	417.384	231.250	344.523	435.625	261.734	388.475	209.473	272.311	384.397	0.00044898	0.00022108	0.00021845	1288.4	5.6862e-06	2.7262e-06	1293.8	353.15	4.8082e-06	5.0162e-06	405.64	136.59	117.71	41.095	7.1279e-06	51.399	0.00034775	0.00033054	8.4776e-05	1273.6	3.7703e-06	3.5031e-06	1274.8	349.37	3.723e-06	3.5809e-06	395.6	134.92	112.62	40.524	3.4511e-06	50.607	180.937	107.109	159.188	89.093	213.553	207.959	88.775	93.749	209.067	274.016	93.145	97.721	98.325	102.407	194.539	101.648	-8191	255	
8292.430	1	1	0	0	0.23978	0.26546	0.21726	0.15941	0.14914	0.059553	0.19273	0.07567	0.19529	0.13922	0.32865	0.22645	0.19194	0.31287	0.12838	0.034489	-1.7646	-2.2667	-1.6833	-2.5771	-2.0812	-1.5667	-2.6396	-1.775	-2.0875	-2.3375	-1.8	-2.3042	-2.1917	-1.6979	-2.5208	-1.8813	118.509	404.048	278.330	323.313	224.038	335.409	375.093	418.212	158.493	346.309	127.325	206.294	124.291	415.649	141.432	370.143	0.00042641	0.00036993	7.0241e-05	1284.8	2.3451e-06	4.5984e-07	1290.2	352.49	3.3816e-06	2.5542e-06	405.86	136.83	117.39	41.096	6.1035e-06	51.277	0.00033957	0.00032138	8.6778e-05	1274.1	3.6938e-06	3.3956e-06	1274.7	349.52	3.6196e-06	3.4718e-06	396.22	135.08	112.04	40.434	3.5724e-06	50.628	181.106	191.339	404.326	88.959	110.860	410.966	88.794	93.718	214.151	149.889	93.073	97.712	98.052	102.522	179.730	101.760	-8191	255	
8292.526	1	1	0	0	0.18364	0.17444	0.19234	0.30069	0.28195	0.10901	0.19176	0.23056	0.12348	0.19784	0.19354	0.032684	0.037933	0.073782	0.085178	0.24221	-1.5167	-2.5125	-1.5667	-2.4354	-2.2708	-1.4208	-2.7375	-2.1667	-1.9167	-2.525	-1.6917	-2.1625	-2.2521	-1.7292	-2.3917	-2.025	143.612	92.127	97.255	336.752	211.889	143.935	418.204	424.197	414.541	424.904	323.440	344.375	85.329	193.695	242.591	359.860	0.00047122	0.00014012	0.00022379	1282.3	1.4055e-06	1.0767e-06	1290.5	350.92	1.0194e-05	5.3026e-06	406.57	136.21	116.74	41.089	6.8423e-06	51.263	0.00033453	0.00031329	9.2154e-05	1271.9	3.67e-06	3.3671e-06	1275.5	348.6	3.6028e-06	3.4209e-06	397.56	134.76	112.06	40.41	3.7526e-06	50.531	193.712	88.876	136.456	88.952	268.704	269.267	88.926	93.598	238.920	277.901	93.019	97.660	98.306	102.580	228.532	101.721	-8191	255	
8292.647	1	1	0	0	0.091799	0.065203	0.20655	0.32067	0.2782	0.25285	0.098946	0.015362	0.029191	0.13262	0.24993	0.2189	0.21417	0.080909	0.21187	0.15054	-1.375	-2.4	-1.7292	-2.3563	-2.3146	-1.6146	-2.6271	-2.3042	-1.7458	-2.6104	-1.75	-2.0875	-2.5479	-1.6208	-2.3479	-2.1917	419.527	362.820	148.966	391.047	330.710	371.493	351.510	406.270	307.611	153.695	114.571	430.301	85.278	305.977	314.669	119.925	0.00039078	4.9835e-05	0.00015342	1286.2	3.8659e-06	6.3166e-06	1287.1	352.78	3.5336e-06	9.8249e-07	404.92	135.87	116.53	40.947	7.4478e-06	51.351	0.00033104	0.00031256	9.7451e-05	1273.5	3.6389e-06	3.4058e-06	1277.5	349.12	3.5511e-06	3.4628e-06	397.44	134.54	111.59	40.462	3.868e-06	50.436	186.229	149.055	135.848	89.114	259.796	234.837	88.847	93.556	320.568	267.085	92.903	97.708	98.226	102.691	230.524	101.683	-8191	255	
8292.741	1	1	0	0	0.14136	0.37325	0.045302	0.3024	0.043465	0.10446	0.24613	0.12656	0.21751	0.066126	0.17433	0.1197	0.060585	0.22611	0.24248	0.17082	-1.1708	-2.3812	-1.7375	-2.2	-2.4646	-1.7208	-2.5229	-2.2125	-1.5812	-2.3396	-2.0229	-1.9583	-2.2938	-1.7792	-2.1083	-2.3604	133.636	217.548	233.459	380.416	433.146	405.844	112.154	386.184	130.231	246.384	92.395	427.432	311.402	370.898	260.410	434.839	0.00049942	0.00030643	0.00015643	1284.6	3.4433e-06	2.5077e-06	1290.6	352.34	4.2576e-06	7.8548e-06	406.66	136.37	117.4	41.282	4.3712e-06	51.592	0.00032125	0.00032368	9.9607e-05	1271.2	3.5065e-06	3.5118e-06	1278.2	348.43	3.389e-06	3.5904e-06	398.84	134.58	111.11	40.614	3.7908e-06	50.477	189.655	191.165	142.568	88.987	185.685	220.372	88.969	93.583	149.686	188.018	92.994	97.693	98.315	102.670	204.959	101.618	-8191	255	
8292.814	1	1	0	0	0.21243	0.18602	0.16704	0.20452	0.030627	0.17675	0.19157	0.097281	0.14437	0.060353	0.25414	0.2194	0.26387	0.36968	0.13461	0.080146	-1.1625	-2.4313	-1.8312	-2.0167	-2.625	-1.5229	-2.5375	-2.2292	-1.3937	-2.3979	-2.2646	-1.7979	-2.6458	-1.9667	-2.1542	-2.5729	94.323	283.882	142.547	405.780	355.224	150.301	375.979	208.606	366.031	88.323	88.238	229.151	374.296	416.811	319.005	395.843	0.00047079	0.0001855	0.0001221	1281.3	6.9636e-06	8.8855e-06	1296	352.08	7.4899e-06	3.1333e-06	403.97	136.19	117.32	41.23	1.9838e-06	51.295	0.00031167	0.00033146	9.7487e-05	1270.6	3.3827e-06	3.6967e-06	1279.5	348.54	3.3426e-06	3.7e-06	397.26	134.22	111.25	40.691	3.6446e-06	50.369	178.682	92.752	148.716	89.099	218.093	177.790	89.010	93.546	276.643	368.348	92.970	97.731	98.547	102.735	122.750	101.808	-8191	255	
8292.911	1	1	0	0	0.0968	0.10404	0.26477	0.038669	0.072035	0.1369	0.36335	0.18577	0.10251	0.1425	0.24102	0.25899	0.099785	0.18006	0.15197	0.39572	-1.0688	-2.4542	-1.8958	-1.8354	-2.575	-1.6646	-2.25	-2.4958	-1.5271	-2.4167	-2.325	-1.7667	-2.5312	-1.9771	-1.9333	-2.6625	364.437	134.488	223.624	304.120	352.070	305.840	401.843	365.344	389.636	87.579	394.146	338.187	319.530	262.619	176.658	96.265	0.00044007	0.00065354	0.00022697	1285.3	5.6706e-06	2.8781e-06	1287.3	353	3.309e-06	3.9595e-06	407.64	136.17	116.8	41.186	6.4286e-06	51.207	0.00031301	0.00034643	9.5029e-05	1269.4	3.4741e-06	3.8419e-06	1274.8	347.96	3.4465e-06	3.7957e-06	398.05	133.98	111.59	40.674	3.651e-06	50.338	185.713	162.732	144.008	88.898	277.886	146.235	89.008	93.671	279.619	231.123	93.018	97.685	98.566	102.399	234.013	101.973	-8191	255	
8293.007	1	1	0	0	0.11067	0.14757	0.22498	0.28535	0.098935	0.18911	0.26369	0.20128	0.26136	0.15132	0.39729	0.31809	0.072051	0.015785	0.26933	0.059672	-0.9875	-2.2167	-2.2354	-1.7875	-2.425	-1.8937	-2.1333	-2.8792	-1.725	-2.2271	-2.3479	-1.6854	-2.5771	-1.9771	-1.9458	-2.4583	382.225	283.202	432.193	371.665	148.404	148.301	337.557	377.204	202.167	146.781	81.303	384.572	304.655	364.538	386.926	377.055	0.00053082	0.00051753	0.00018645	1288.1	9.1662e-06	3.1977e-06	1290.5	352.72	6.4187e-06	6.7484e-06	405.83	135.72	116.93	40.814	3.5396e-06	51.217	0.00032732	0.00035249	9.4027e-05	1269.7	3.6229e-06	3.9045e-06	1277.2	347.72	3.6764e-06	3.824e-06	396.81	133.84	112.06	40.65	3.6265e-06	50.231	190.119	185.308	232.607	88.880	221.204	360.974	88.975	93.629	227.664	194.898	93.075	97.860	98.768	102.563	78.012	101.653	-8191	255	
8293.126	1	1	0	0	0.21655	0.13246	0.17129	0.21836	0.18079	0.19161	0.39196	0.26822	0.22022	0.049827	0.04571	0.30963	0.29356	0.01559	0.15794	0.077217	-1.1333	-2.0917	-2.2729	-1.8208	-2.3104	-2.1188	-1.9479	-2.5125	-1.5104	-2.2167	-2.5083	-1.7104	-2.4667	-2.225	-1.75	-2.6208	149.820	362.521	92.088	371.371	258.932	92.807	358.175	269.860	342.223	153.609	296.706	379.136	92.640	145.442	243.499	200.463	0.00043879	0.00045812	9.6573e-05	1289.6	4.3754e-06	3.0861e-06	1292.7	352.03	7.2068e-06	3.2987e-06	404.1	135.41	117.39	40.785	4.758e-06	51.263	0.00034856	0.00034685	9.3479e-05	1270.1	3.8165e-06	3.8276e-06	1276.3	347.81	3.8644e-06	3.757e-06	396.53	133.84	112.8	40.572	3.5948e-06	50.247	179.652	190.068	127.993	88.906	231.145	77.827	88.710	93.581	248.237	138.069	93.135	97.836	98.665	102.523	150.203	102.037	-8191	255	
8293.222	1	1	0	0	0.36499	0.16988	0.24004	0.15785	0.075889	0.17838	0.15579	0.070392	0.37716	0.16439	0.12086	0.26282	0.055281	0.26119	0.25867	0.13351	-1.3292	-2.0167	-2.325	-1.7437	-2.2938	-2.0896	-1.8	-2.7313	-1.7104	-1.9688	-2.6292	-1.7667	-2.3083	-2.2417	-1.5792	-2.6583	348.536	315.094	152.475	376.453	159.962	87.442	358.795	306.248	225.984	322.594	341.694	361.131	276.966	91.388	96.207	198.106	0.0004854	0.00027639	0.00017596	1282.6	4.4772e-06	5.7257e-06	1287.9	352.28	3.7749e-06	7.6523e-06	405.47	136.01	116.2	40.948	9.6465e-07	51.258	0.0003667	0.00034682	9.3544e-05	1268.4	3.9863e-06	3.8756e-06	1272.8	348.01	4.0431e-06	3.7659e-06	396.2	134.03	112.72	40.556	3.4821e-06	50.389	174.224	225.098	135.118	89.061	196.383	278.869	88.896	93.896	269.366	209.285	93.147	97.529	98.876	102.366	332.067	101.802	-8191	255	
8293.318	1	1	0	0	0.26576	0.14701	0.11328	0.30122	0.058618	0.13302	0.39467	0.23756	0.14552	0.10353	0.2953	0.082437	0.21407	0.15737	0.14326	0.047308	-1.3646	-1.7271	-2.4813	-1.7938	-2.2062	-2.3583	-1.9188	-2.5292	-1.8521	-1.7687	-2.4375	-1.7333	-2.2313	-2.4917	-1.6146	-2.5646	363.536	78.154	244.720	409.817	268.816	115.553	382.673	76.303	224.191	248.070	333.777	339.604	319.271	372.105	289.014	358.494	0.00043053	0.00021211	1.1382e-05	1284.4	5.7984e-06	6.7144e-06	1288.3	350.87	6.2129e-06	3.3243e-06	402.78	135.65	116.53	41.046	8.0873e-06	51.282	0.00036833	0.00033715	8.9217e-05	1271.1	3.8948e-06	3.7523e-06	1272.2	347.75	3.9807e-06	3.6857e-06	395.17	134.45	112.31	40.513	3.4933e-06	50.516	184.714	84.576	258.704	88.861	277.254	194.165	88.782	93.537	185.378	384.233	93.251	97.677	98.816	102.598	171.973	101.725	-8191	255	
8293.438	1	1	0	0	0.35455	0.065852	0.12883	0.16205	0.041084	0.26278	0.2655	0.23479	0.32892	0.016459	0.38371	0.16921	0.15605	0.35896	0.32555	0.25708	-1.4937	-1.8958	-2.5271	-1.6917	-2.2104	-2.4958	-1.8125	-2.5896	-2.1083	-1.6042	-2.7146	-1.8521	-2.1167	-2.4208	-1.4708	-2.5208	163.931	264.119	232.141	113.638	251.614	307.744	335.614	411.411	122.503	379.233	423.181	180.051	190.895	118.179	433.896	394.829	0.0003982	0.0003995	0.00017865	1277.7	2.4694e-06	2.4867e-07	1288.8	351.09	4.4341e-06	4.7177e-06	403.09	135.66	116.4	40.968	5.7159e-06	51.247	0.00036602	0.00034006	9.053e-05	1269.8	3.9017e-06	3.7369e-06	1271.8	348.63	3.9586e-06	3.6307e-06	395.48	134.65	112.29	40.454	3.5921e-06	50.508	192.488	391.163	137.455	89.050	242.551	220.613	88.799	93.607	246.375	250.756	93.134	97.477	98.827	102.595	180.356	101.976	-8191	255	
8293.510	1	1	0	0	0.30772	0.080456	0.033725	0.19036	0.36657	0.050397	0.11748	0.18279	0.19398	0.19046	0.2458	0.19196	0.13825	0.21472	0.11357	0.18758	-1.7833	-1.4896	-2.6167	-2.0604	-2.0104	-2.5104	-1.7375	-2.65	-2.1479	-1.4542	-2.6083	-2.0187	-1.9042	-2.5875	-1.5833	-2.3167	119.014	238.336	274.642	435.269	293.582	168.425	82.238	302.945	391.269	228.667	366.151	149.139	98.419	377.840	212.605	149.716	0.00043916	0.00035916	7.4728e-05	1285.3	3.3988e-06	5.0553e-06	1289.3	351.18	3.0771e-06	5.7947e-06	404.62	135.84	116.73	40.906	4.6306e-06	51.364	0.00035642	0.00032766	9.2356e-05	1273.1	3.8263e-06	3.6804e-06	1273	349.01	3.9027e-06	3.5507e-06	396.36	134.77	112.14	40.364	3.8526e-06	50.598	181.133	420.729	139.298	88.895	241.318	248.804	88.909	93.579	239.382	271.750	93.214	97.470	98.426	102.610	223.315	101.941	-8191	255	
8293.606	1	1	0	0	0.16433	0.0421	0.089804	0.20741	0.047961	0.07928	0.079941	0.20984	0.057132	0.21905	0.11775	0.074189	0.14388	0.11636	0.34668	0.32269	-1.8687	-1.5917	-2.4062	-2.0458	-1.775	-2.5208	-1.825	-2.3521	-2.2188	-1.5854	-2.6854	-2.1833	-1.8438	-2.7083	-1.7979	-2.2521	78.439	300.192	204.994	414.494	93.999	288.151	378.226	350.264	222.463	294.225	358.497	359.793	333.920	136.604	410.044	369.753	0.00037887	0.00074376	0.00015955	1277.5	6.2369e-06	3.0604e-06	1282.4	350.34	7.3614e-06	4.8268e-06	400.97	135.15	116.42	40.799	1.2155e-06	51.245	0.00035779	0.00032593	9.869e-05	1271.5	3.8261e-06	3.6264e-06	1274.7	348.05	3.9221e-06	3.5777e-06	396.81	134.4	111.88	40.331	4.0926e-06	50.485	189.156	156.799	142.734	88.854	207.706	265.005	88.735	93.872	294.887	198.677	93.210	97.681	98.403	102.428	78.917	101.801	-8191	255	
8293.727	1	1	0	0	0.14503	0.21067	0.10199	0.28867	0.1074	0.23191	0.12779	0.097157	0.21514	0.07902	0.40562	0.061208	0.14051	0.34033	0.068157	0.16996	-2.0438	-1.5875	-2.5646	-2.2313	-1.8312	-2.5687	-2.0521	-2.225	-2.3083	-1.6333	-2.5479	-2.1521	-1.8042	-2.7	-1.8375	-2.0938	361.854	339.304	141.914	104.330	337.587	80.891	333.494	362.461	116.425	265.031	415.025	194.537	376.012	331.187	130.245	238.188	0.00050328	0.0002246	0.00019576	1281.3	3.1707e-06	1.0237e-05	1286.9	350.42	3.7097e-06	9.447e-06	402.33	134.91	117.47	40.831	6.5058e-06	51.313	0.00036182	0.00033176	0.0001037	1270.7	3.7716e-06	3.7108e-06	1276.6	347.84	3.8376e-06	3.7405e-06	397.46	134.16	111.72	40.428	4.1974e-06	50.473	188.379	129.152	103.721	88.726	221.028	241.060	88.910	93.842	220.965	253.927	93.432	97.879	98.153	102.619	199.281	101.767	-8191	255	
8293.823	1	1	0	0	0.18389	0.051149	0.22219	0.21424	0.1467	0.3138	0.17409	0.21393	0.22775	0.13645	0.11831	0.17115	0.033398	0.12356	0.039236	0.10053	-2.0875	-1.675	-2.3729	-2.2854	-1.6187	-2.525	-2.0396	-2.0958	-2.5667	-1.525	-2.4125	-2.1979	-1.8417	-2.5792	-1.8229	-1.9542	242.759	267.345	198.070	418.499	371.802	388.474	317.058	131.417	312.076	426.214	336.387	350.054	257.413	84.711	421.229	366.499	0.00034966	0.00028269	7.3173e-05	1282.8	3.8321e-06	4.6795e-06	1284.4	350.69	4.7977e-06	8.5858e-06	405.65	135.55	117.12	40.716	2.3509e-06	50.847	0.000351	0.00035101	0.00010523	1270.3	3.6831e-06	3.9062e-06	1276.9	347.04	3.7819e-06	3.9318e-06	398.25	134.19	111.55	40.509	4.1829e-06	50.203	189.557	203.617	123.377	88.919	216.558	213.176	88.770	93.501	174.160	189.353	93.060	97.843	98.363	102.556	183.151	101.881	-8191	255	
8293.917	1	1	0	0	0.17072	0.051832	0.26558	0.20021	0.10956	0.19322	0.26167	0.33989	0.10478	0.3671	0.26618	0.072387	0.25324	0.077076	0.24232	0.42305	-2.1208	-1.6458	-2.2479	-2.7625	-1.6708	-2.5271	-2.1042	-1.9	-2.4875	-1.5625	-2.2313	-2.6354	-1.6375	-2.3688	-2.1146	-1.7188	196.621	401.937	76.660	381.212	189.887	362.867	313.839	359.083	252.483	295.108	391.785	84.957	235.093	400.483	315.712	310.581	0.00044361	0.00053564	0.00020456	1282	2.0789e-06	4.5238e-06	1283.3	349.13	3.4131e-06	5.7965e-06	402.55	135.22	116.2	40.643	7.1266e-06	50.952	0.00034639	0.00037047	0.00010464	1268.9	3.6844e-06	4.0881e-06	1274.3	346.98	3.7561e-06	4.1374e-06	396.71	134.08	111.31	40.571	4.113e-06	50.227	180.661	144.067	224.808	88.804	235.152	237.504	88.740	93.980	261.124	222.182	92.866	97.537	98.585	102.451	210.026	101.591	-8191	255	
8294.038	1	1	0	0	0.10788	0.26143	0.10348	0.3462	0.098651	0.14513	0.2435	0.088288	0.057432	0.12836	0.28872	0.34732	0.20069	0.20362	0.19682	0.10503	-2.4667	-1.6667	-1.9	-2.6458	-1.4937	-2.4833	-2.3417	-1.7188	-2.6042	-1.7458	-2.2271	-2.6208	-1.5229	-2.2958	-2.1771	-1.6812	285.709	253.895	418.120	403.313	206.756	171.383	393.072	425.648	276.907	219.828	89.011	428.345	203.980	388.814	295.756	415.952	0.00036907	0.00047073	0.00017538	1277.6	7.9911e-06	6.5196e-06	1282.7	350.67	7.0932e-06	3.3836e-06	402.94	134.67	116.82	40.755	5.1047e-06	50.723	0.00034793	0.00038339	0.00010166	1268.4	3.7845e-06	4.1499e-06	1272.6	346.65	3.8581e-06	4.1829e-06	396.27	133.55	111.91	40.545	3.9881e-06	50.01	182.807	241.420	176.507	88.825	255.586	204.995	88.557	93.757	247.666	128.488	93.293	97.696	98.286	102.577	180.863	101.716	-8191	255	
8294.110	1	1	0	0	0.14886	0.095882	0.070497	0.24803	0.076454	0.086111	0.20984	0.12363	0.16866	0.066668	0.19603	0.035946	0.12229	0.15804	0.1644	0.18847	-2.2146	-1.8083	-1.825	-2.575	-1.575	-2.2542	-2.4062	-1.8354	-2.625	-1.8583	-1.8771	-2.7062	-1.7479	-2.2333	-2.3958	-1.775	129.289	397.675	416.486	308.164	176.133	319.166	431.505	228.796	171.708	129.038	423.334	191.812	382.241	405.690	178.332	423.506	0.00048207	0.00019593	0.00011916	1280.5	5.2613e-06	7.0708e-06	1278.6	349.8	7.5241e-06	6.1356e-06	403.37	135.14	116.4	40.765	4.6132e-06	50.797	0.00036027	0.00038369	9.9223e-05	1265.5	3.9349e-06	4.1238e-06	1271.1	346.24	4.02e-06	4.1607e-06	396.06	133.62	112.79	40.568	3.9418e-06	50.022	182.271	162.692	200.496	88.992	214.451	144.943	88.780	93.515	205.013	196.833	92.882	97.369	98.553	102.806	264.074	101.808	-8191	255	
8294.206	1	1	0	0	0.094126	0.31106	0.12421	0.24008	0.22337	0.29197	0.40755	0.2972	0.24451	0.09386	0.078549	0.30857	0.20752	0.094657	0.070804	0.26045	-1.9646	-2.0271	-1.8167	-2.7292	-1.5625	-2.3104	-2.4708	-1.5333	-2.4854	-2.0625	-1.9333	-2.7271	-1.7833	-2.1083	-2.275	-1.7604	87.680	138.632	198.700	405.860	248.543	241.687	414.551	358.379	241.743	255.179	321.034	415.221	84.082	357.594	87.406	420.312	0.0004939	0.00056544	6.9774e-05	1274.7	8.4349e-06	4.9098e-06	1281.7	349.7	9.6486e-07	3.0571e-06	400.87	135.13	116.22	40.68	3.1192e-06	51.132	0.00037365	0.00037807	9.7371e-05	1264.7	4.1312e-06	4.0082e-06	1268.9	346.01	4.1802e-06	4.0885e-06	394.48	133.41	112.97	40.476	3.902e-06	50.173	178.384	387.517	394.982	88.903	174.366	258.711	88.630	93.763	170.868	84.959	93.198	97.594	98.307	102.468	212.191	101.944	-8191	255	
8294.302	1	1	0	0	0.10929	0.075498	0.09701	0.31427	0.18399	0.17721	0.15962	0.21216	0.14817	0.1352	0.053867	0.095938	0.061024	0.11723	0.19334	0.25435	-2.025	-2.2021	-1.6042	-2.6542	-1.7229	-1.9271	-2.4979	-1.5625	-2.5458	-2.2333	-1.5833	-2.6604	-1.8958	-2.0125	-2.4833	-1.7521	250.210	83.081	435.053	410.699	203.035	421.106	380.651	404.001	170.781	430.966	415.351	323.455	306.831	426.209	270.908	324.634	0.00043668	0.00072289	0.00017369	1278.3	6.741e-06	7.8973e-06	1284	349.32	6.9065e-06	2.7805e-06	401.86	134.48	116.26	40.636	3.4703e-06	50.788	0.00038552	0.00037636	9.6248e-05	1267.9	4.3072e-06	4.0421e-06	1271.1	346.3	4.2512e-06	4.1048e-06	394.59	133.9	113.39	40.418	3.844e-06	50.411	179.235	159.154	408.629	88.915	234.808	161.978	88.781	93.522	285.176	199.460	93.191	97.572	98.280	102.514	179.405	101.609	-8191	255	
8294.423	1	1	0	0	0.12704	0.10998	0.10962	0.51212	0.062595	0.17508	0.26507	0.12751	0.1555	0.17364	0.35387	0.30612	0.1751	0.46092	0.44175	0.23163	-1.9167	-2.2854	-1.6208	-2.5958	-1.9833	-1.775	-2.5083	-2.0583	-2.1958	-2.4062	-1.7417	-2.4417	-2.05	-1.8375	-2.3375	-2.0062	221.019	77.990	274.955	366.361	324.050	387.298	434.747	331.635	409.550	320.701	87.970	401.749	314.481	395.086	258.879	157.951	0.00046815	0.0004883	0.00025128	1283.1	3.6083e-06	5.5667e-06	1284.5	349.66	3.4764e-06	6.5602e-06	402.49	135.05	116.46	40.664	5.6e-06	50.578	0.00038794	0.00037515	9.4911e-05	1271.7	4.3429e-06	3.9966e-06	1271.8	347.98	4.2637e-06	4.082e-06	394.86	134.43	113.45	40.355	3.8725e-06	50.517	178.346	150.687	145.851	88.880	208.256	184.337	88.756	93.601	229.406	215.429	92.912	97.840	98.294	102.702	238.458	101.918	-8191	255	
8294.519	1	1	0	0	0.15099	0.17344	0.30641	0.21178	0.047086	0.087089	0.12715	0.37686	0.38013	0.16818	0.21417	0.24797	0.11426	0.20392	0.20218	0.13451	-1.8042	-2.3417	-1.5167	-2.725	-2.0667	-1.7938	-2.7333	-1.775	-1.9208	-2.4604	-1.75	-2.4375	-2.2604	-1.7708	-2.5396	-1.9104	238.375	206.878	376.120	415.894	384.821	116.864	88.439	366.865	421.186	318.786	403.652	400.875	308.180	414.698	277.855	364.859	0.00048783	0.000381	7.6786e-05	1279.8	2.492e-06	4.584e-06	1287.5	350.84	2.6615e-06	5.1348e-06	403.94	135.29	116.36	40.706	7.9425e-06	50.488	0.00038632	0.00037059	9.7261e-05	1272.4	4.2573e-06	3.9541e-06	1274	349.08	4.1684e-06	4.0192e-06	396.38	134.71	113.32	40.357	3.9727e-06	50.537	178.557	108.309	155.613	88.833	154.698	137.797	88.855	93.677	212.083	210.465	93.021	97.603	98.376	102.454	185.623	101.634	-8191	255	
8294.615	1	1	0	0	0.13014	0.18171	0.23744	0.063076	0.14766	0.035349	0.35865	0.12835	0.11293	0.11295	0.19338	0.15736	0.21709	0.13615	0.14502	0.25255	-1.5167	-2.2896	-1.3167	-2.6104	-2.1333	-1.5333	-2.7104	-1.8813	-1.9729	-2.5021	-1.6375	-2.3875	-2.2188	-1.7771	-2.4708	-2.0396	398.364	423.399	215.799	215.028	361.142	252.211	398.085	76.883	392.537	182.267	348.617	429.655	411.616	433.852	152.366	415.622	0.00044832	0.0004793	0.00037213	1284	4.5404e-06	6.2413e-06	1286.5	350.94	9.7955e-07	4.0307e-06	402.4	135.59	115.9	40.794	6.4338e-06	50.887	0.00037645	0.00036033	0.00010124	1275.6	4.1561e-06	3.8103e-06	1277.6	349.13	4.0573e-06	3.8382e-06	396.94	134.65	112.8	40.345	4.0783e-06	50.481	182.770	232.665	92.542	88.928	221.513	255.400	88.890	93.544	110.274	101.488	93.051	97.734	98.435	102.483	185.172	101.669	-8191	255	
8294.711	1	1	0	0	0.2247	0.1552	0.25296	0.27288	0.39474	0.10135	0.44718	0.24991	0.35747	0.18044	0.12812	0.10336	0.084051	0.16142	0.16916	0.21613	-1.4562	-2.6375	-1.5604	-2.2125	-2.1396	-1.6271	-2.6375	-2.1396	-1.6292	-2.5083	-1.8458	-2.1479	-2.4167	-1.6354	-2.4354	-2.0646	387.717	104.647	82.578	365.091	264.605	175.837	413.048	294.747	349.023	90.017	111.757	355.176	106.595	384.447	265.062	413.681	0.00039467	0.00041641	2.8469e-05	1284.3	5.9102e-06	3.5204e-06	1285.7	351.74	4.8106e-06	6.4286e-06	404.84	135.45	116.59	40.548	3.81e-06	50.857	0.00036866	0.00034755	0.00010466	1274.4	4.0347e-06	3.7171e-06	1279.2	348.6	3.9439e-06	3.7875e-06	398	134.47	112.48	40.3	4.2094e-06	50.498	183.928	176.542	239.286	88.846	231.371	137.371	88.762	93.707	246.479	223.542	93.139	97.443	98.588	102.573	228.794	101.608	-8191	255	
8294.807	1	1	0	0	0.20175	0.18657	0.26627	0.13073	0.14309	0.039473	0.32265	0.27824	0.037058	0.43627	0.21851	0.17502	0.21584	0.20564	0.25394	0.27378	-1.2917	-2.4688	-1.5812	-2.15	-2.4688	-1.725	-2.4813	-2.1688	-1.6667	-2.5604	-1.8125	-2.0104	-2.4104	-1.5354	-2.2	-2.1688	385.238	134.767	119.029	350.440	126.381	422.129	376.088	412.642	428.391	313.040	82.898	425.997	408.060	79.198	301.848	421.720	0.00043618	0.00020996	0.00012662	1281.5	4.5574e-06	4.8821e-06	1290.8	349.52	6.8992e-06	6.9347e-06	401.85	135.32	116.39	40.935	2.9703e-06	51.028	0.00035715	0.00035085	0.00010865	1271.9	3.9736e-06	3.8148e-06	1279.7	347.69	3.817e-06	3.9466e-06	398.31	134.3	112.36	40.454	4.2468e-06	50.509	186.840	278.840	118.389	88.947	231.471	181.812	88.870	93.554	257.807	176.715	93.001	97.807	98.556	102.640	218.011	101.901	-8191	255	
8294.903	1	1	0	0	0.26379	0.20935	0.094283	0.33178	0.078171	0.22207	0.047336	0.35589	0.29962	0.085838	0.44017	0.30077	0.33654	0.020482	0.072762	0.34806	-1.1396	-2.5396	-1.7917	-2.0583	-2.6312	-1.4583	-2.3021	-2.3604	-1.5125	-2.4708	-1.9771	-1.8937	-2.4333	-1.8729	-2.05	-2.4583	257.614	417.296	296.855	396.826	419.115	238.409	375.296	358.312	113.384	189.818	415.967	423.421	391.477	395.087	90.746	407.702	0.00040398	0.00050886	0.00026653	1282	6.0689e-06	3.2595e-06	1289.2	350.11	2.0121e-06	1.0491e-05	402.51	135.62	116.18	40.636	4.0259e-06	51.127	0.00035245	0.00036738	0.00010947	1270.8	3.8482e-06	4.0214e-06	1278.1	347.53	3.7439e-06	4.0967e-06	398.34	134.1	112.1	40.51	4.1459e-06	50.423	186.722	238.356	214.197	88.980	237.745	269.834	89.047	93.564	194.828	184.736	93.219	97.851	98.492	102.548	127.106	101.463	-8191	255	
8295.000	1	1	0	0	0.059176	0.28016	0.064321	0.046271	0.11345	0.20957	0.29432	0.20479	0.22322	0.19839	0.13055	0.13134	0.30281	0.1599	0.45395	0.090987	-1.0729	-2.4708	-2.0771	-1.775	-2.5417	-1.675	-2.3208	-2.5917	-1.5333	-2.4271	-2.1229	-1.7437	-2.5521	-1.7062	-1.75	-2.4938	128.446	116.757	81.700	246.086	193.975	203.814	379.910	375.058	145.681	299.445	236.291	396.891	430.160	108.443	302.827	296.487	0.00042273	0.00064086	0.00028177	1282	4.9947e-06	3.8733e-06	1281.8	350.5	6.3729e-06	3.1988e-06	402.11	135.69	116.89	40.368	7.9907e-06	50.81	0.00034658	0.00038261	0.00010732	1270.5	3.8015e-06	4.2106e-06	1276.9	347.76	3.7716e-06	4.2143e-06	398.06	134.17	112.15	40.512	4.1213e-06	50.324	184.864	155.834	93.856	88.900	243.541	239.951	88.761	93.658	251.292	186.986	92.822	97.731	98.478	102.340	169.060	101.707	-8191	255	
8295.119	1	1	0	0	0.025318	0.11409	0.1031	0.47592	0.21443	0.093968	0.38675	0.30517	0.49296	0.18359	0.2266	0.25655	0.16035	0.36817	0.16251	0.25706	-1.3083	-2.1854	-2.2229	-1.8271	-2.4667	-1.8208	-2.1771	-2.625	-1.6333	-2.375	-2.2646	-1.6104	-2.4375	-2.1146	-1.9438	-2.6646	268.571	210.090	378.371	351.894	266.450	148.276	418.559	307.868	160.635	374.220	105.553	356.151	106.925	340.835	314.351	377.847	0.00046972	0.0004639	0.0001383	1283.1	7.6272e-06	5.7706e-06	1283.5	350.96	1.9998e-06	2.5075e-06	402.14	135.21	116.46	40.686	4.7287e-06	50.732	0.00035693	0.00039213	0.00010616	1268.4	3.9789e-06	4.3747e-06	1276.6	347.44	3.9965e-06	4.3336e-06	396.97	133.88	112.65	40.66	4.0746e-06	50.225	180.829	90.390	160.246	88.877	205.820	187.274	88.930	93.469	267.683	180.568	93.052	97.560	98.224	102.417	161.630	101.750	-8191	255	
8295.215	1	1	0	0	0.028029	0.091822	0.086047	0.25338	0.19738	0.10135	0.20963	0.38367	0.0686	0.12612	0.40047	0.35569	0.1603	0.037389	0.11029	0.041108	-1.2771	-2.3646	-2.3479	-1.8229	-2.5125	-1.9312	-1.9854	-2.6479	-1.6063	-2.2271	-2.1104	-1.7792	-2.4896	-2.2	-1.6063	-2.6104	366.369	368.995	88.669	353.276	95.054	212.719	338.837	361.683	431.832	376.225	380.174	104.202	419.346	316.975	318.507	342.567	0.00041926	0.00023553	0.00015477	1276.8	2.4784e-06	4.6537e-06	1291.3	350.68	6.642e-06	5.8653e-06	403.42	134.85	116.11	40.618	3.5243e-06	51.091	0.00037609	0.00038995	0.00010456	1266	4.1389e-06	4.2809e-06	1276.2	346.73	4.1588e-06	4.2114e-06	397.12	133.57	112.86	40.525	3.8939e-06	50.173	191.570	398.459	84.162	88.863	235.535	175.612	88.890	93.599	214.790	278.600	92.952	97.650	98.679	102.522	175.126	101.955	-8191	255	
8295.311	1	1	0	0	0.12837	0.31674	0.25447	0.21564	0.093271	0.33005	0.23866	0.11765	0.063455	0.34229	0.16586	0.061493	0.13847	0.23063	0.28031	0.15764	-1.2958	-2.2021	-2.3396	-1.7708	-2.3042	-2.1188	-1.9646	-2.8187	-1.7229	-2.025	-2.675	-1.4833	-2.3042	-2.1479	-1.7229	-2.6604	339.560	322.397	253.585	411.870	336.942	301.635	314.545	95.867	179.688	417.274	325.074	385.410	324.918	406.802	85.396	431.834	0.00041109	0.00051293	5.4123e-05	1283.1	2.7299e-06	4.9928e-06	1283.4	350.56	4.9948e-06	2.2213e-06	402.7	135	116.77	40.642	2.3843e-06	50.974	0.00038484	0.00037325	9.9848e-05	1268	4.1656e-06	4.1267e-06	1270.7	346.81	4.2333e-06	4.0337e-06	395.01	133.53	113.21	40.404	3.7916e-06	50.246	197.298	275.629	171.718	88.835	213.323	221.226	88.602	93.754	254.210	165.337	93.023	97.709	98.370	102.327	99.635	101.669	-8191	255	
8295.407	1	1	0	0	0.1699	0.020995	0.12164	0.14231	0.10244	0.19677	0.43835	0.22689	0.27274	0.22856	0.078038	0.13834	0.2172	0.24474	0.083982	0.020811	-1.5438	-1.7208	-2.4271	-1.4375	-2.4188	-2.3146	-1.9292	-2.7583	-1.7979	-1.9417	-2.7021	-1.9375	-2.1958	-2.4313	-1.6958	-2.3771	133.776	213.273	211.467	401.732	205.564	192.731	345.159	83.197	96.401	215.667	293.837	303.811	380.123	97.871	98.375	413.799	0.00045735	0.00041935	0.0001029	1278.4	5.0059e-06	1.9427e-06	1279.6	349.69	2.9461e-06	2.773e-06	401.69	134.69	115.01	40.651	2.4272e-06	50.839	0.00039499	0.00036846	9.8807e-05	1266.7	4.2558e-06	4.1211e-06	1268.8	347.1	4.3238e-06	4.0308e-06	395.85	133.85	113.1	40.441	3.8292e-06	50.419	192.431	165.202	432.834	88.984	201.479	274.879	89.084	93.608	262.854	197.958	92.585	97.688	98.451	102.479	149.761	101.853	-8191	255	
8295.503	1	1	0	0	0.13387	0.10109	0.20378	0.29107	0.088475	0.21411	0.26413	0.047285	0.33928	0.18017	0.013604	0.074693	0.16403	0.17281	0.17076	0.052349	-1.4542	-1.7875	-2.6521	-1.9021	-2.2958	-2.4458	-1.7354	-2.7333	-1.9792	-1.9271	-2.6937	-1.9312	-2.2917	-2.6813	-1.7354	-2.4125	346.177	144.861	171.346	85.293	359.455	409.554	349.304	126.769	304.442	369.731	338.185	268.557	151.337	394.419	139.523	331.911	0.00039575	0.00033502	6.4075e-05	1279.7	8.5664e-06	2.4348e-06	1277	349.84	4.3165e-07	5.8883e-06	401.76	134.57	116.08	40.686	7.5759e-06	50.851	0.00040345	0.00037471	9.957e-05	1270.9	4.2933e-06	4.1633e-06	1268.7	348.23	4.3604e-06	4.0481e-06	395.26	134.28	113.26	40.419	3.8226e-06	50.49	184.323	162.422	398.096	89.016	248.674	80.326	88.782	93.507	430.353	197.243	92.984	97.614	98.378	102.456	170.285	101.692	-8191	255	
8295.599	1	1	0	0	0.18104	0.079094	0.094207	0.37313	0.20975	0.11443	0.31698	0.24284	0.16868	0.13753	0.1229	0.18365	0.078037	0.10222	0.1681	0.19812	-1.7313	-1.7875	-2.5396	-2.1021	-2.0271	-2.3167	-1.7313	-2.6042	-2.1375	-1.6146	-2.8063	-1.9479	-1.9542	-2.5333	-1.6562	-2.3312	146.442	196.847	146.143	373.845	84.632	332.592	386.204	391.467	429.415	395.928	83.701	79.173	104.732	222.105	254.939	273.971	0.00040318	0.0004826	0.00020089	1280.3	1.6932e-06	2.5992e-06	1281.1	348.81	2.355e-06	7.1699e-07	401.04	134.9	116.41	40.76	7.5073e-06	50.965	0.00039091	0.00036077	9.8585e-05	1272.5	4.1313e-06	3.9593e-06	1267.5	347.91	4.1359e-06	3.793e-06	394.69	134.19	112.37	40.362	3.9015e-06	50.471	192.389	135.126	405.325	88.971	223.017	144.238	88.716	93.791	202.715	170.782	93.099	97.603	98.892	102.382	228.481	102.087	-8191	255	
8295.720	1	1	0	0	0.1242	0.3455	0.18022	0.39718	0.21065	0.12029	0.11569	0.28956	0.16109	0.10518	0.22574	0.30103	0.18899	0.30613	0.13788	0.15455	-1.925	-1.7625	-2.45	-1.9542	-1.7417	-2.5229	-1.8479	-2.4104	-2.1792	-1.6667	-2.7167	-2.1	-1.9458	-2.5854	-1.7125	-2.4313	175.661	411.672	300.648	418.698	194.272	254.399	360.354	386.914	304.967	118.514	376.698	403.637	129.922	111.587	196.232	367.757	0.00047488	0.00014497	0.00031138	1279.1	1.8328e-06	2.5177e-06	1283	349.69	3.454e-06	3.1531e-06	402.55	135.31	116.31	40.763	5.192e-06	50.594	0.00037313	0.00033885	0.0001	1270.1	3.9793e-06	3.8258e-06	1270.9	348.17	4.0532e-06	3.7045e-06	396.48	134.29	112.27	40.3	4.1217e-06	50.403	191.153	187.213	123.052	89.090	172.879	202.423	88.817	93.799	244.024	83.886	93.133	97.506	98.222	102.537	172.815	101.846	-8191	255	
8295.814	1	1	0	0	0.12586	0.15737	0.1557	0.28069	0.051803	0.19328	0.2595	0.18133	0.17986	0.21334	0.13142	0.083462	0.11973	0.28317	0.16746	0.32087	-2.0583	-1.55	-2.3646	-2.0167	-1.6604	-2.5625	-1.9146	-2.1625	-2.2979	-1.6604	-2.5479	-1.9813	-1.7625	-2.6333	-1.5896	-2.1104	388.251	162.514	128.052	370.972	428.730	237.362	96.677	144.429	190.646	158.245	230.711	250.681	348.248	316.350	341.642	287.761	0.00040935	0.00063382	0.00025195	1280.8	4.4387e-06	7.7506e-06	1280.6	349.24	4.6472e-06	6.7591e-06	402.97	135.11	116.79	40.802	6.0678e-06	50.948	0.00037123	0.00033842	0.00010454	1270.8	3.9234e-06	3.7639e-06	1273.2	347.22	3.9976e-06	3.7589e-06	397.78	134.11	112.21	40.317	4.2687e-06	50.391	186.373	161.334	103.293	88.686	413.530	204.396	88.837	93.671	292.253	167.883	93.099	97.739	98.635	102.597	230.637	102.138	-8191	255	
8295.910	1	1	0	0	0.19391	0.11249	0.090624	0.059583	0.12301	0.052787	0.10884	0.16569	0.15701	0.065731	0.077052	0.081648	0.042973	0.064132	0.35069	0.18819	-2.0292	-1.5583	-2.3	-2.3875	-1.7021	-2.6625	-1.8167	-2.0958	-2.5812	-1.5542	-2.3729	-2.1104	-1.6542	-2.5833	-1.8667	-1.925	275.934	257.950	297.239	302.508	102.253	360.536	386.762	353.463	335.832	240.133	244.455	253.119	384.703	368.062	326.371	391.140	0.00037422	0.0010505	0.00020995	1277.9	1.4916e-06	3.9834e-06	1285	348.2	3.284e-06	8.2718e-06	401.22	134.74	115.77	40.869	5.4531e-06	51.056	0.0003629	0.00034778	0.00010809	1267.1	3.8185e-06	3.8904e-06	1273.5	346.54	3.8339e-06	3.9033e-06	396.64	133.75	111.31	40.416	4.2497e-06	50.291	180.666	137.907	104.819	88.839	107.959	235.348	88.846	93.625	188.808	212.452	93.135	97.537	98.509	102.567	232.522	101.728	-8191	255	
8295.984	1	1	0	0	0.1644	0.36362	0.16219	0.26736	0.13458	0.060666	0.29389	0.17068	0.18768	0.13417	0.21255	0.22117	0.27499	0.084327	0.12469	0.40043	-2.0625	-1.4354	-2.0958	-2.5542	-1.5333	-2.5604	-2.1646	-1.7792	-2.6979	-1.7125	-2.1875	-2.3	-1.7458	-2.55	-1.9125	-1.8646	119.546	417.640	357.052	386.039	134.002	167.282	371.691	133.143	307.698	287.148	85.141	419.336	401.536	286.891	104.271	385.893	0.00050249	0.0012328	7.7188e-05	1274	9.8862e-06	7.8743e-06	1282	349.94	2.9974e-06	4.0061e-06	402.84	134.9	116.42	40.614	4.597e-06	50.604	0.00034896	0.00036491	0.00010566	1265.2	3.6995e-06	3.9886e-06	1271.5	346.37	3.7353e-06	4.0394e-06	396.21	133.71	110.94	40.405	4.1496e-06	50.09	180.568	178.720	226.381	89.028	219.920	211.565	88.743	93.784	252.253	259.702	93.131	97.739	98.847	102.749	180.133	101.934	-8191	255	
8296.103	1	1	0	0	0.073023	0.055518	0.28644	0.34181	0.10787	0.035868	0.34212	0.45443	0.2545	0.10606	0.09577	0.14153	0.11481	0.15823	0.12178	0.15757	-2.0521	-1.7896	-2.1271	-2.6833	-1.6875	-2.5333	-2.2354	-1.8687	-2.4708	-1.725	-2.2521	-2.5708	-1.6063	-2.3604	-2.0979	-1.7583	155.397	396.778	100.319	363.264	232.727	292.412	353.520	356.461	170.761	121.768	428.970	357.552	416.975	262.856	297.699	357.745	0.00035795	0.00043528	0.00018827	1273.2	5.8782e-06	2.6495e-06	1280.8	349.3	7.668e-06	6.3558e-06	402.8	134.77	115.64	40.662	3.0444e-06	50.781	0.00034483	0.00037962	0.00010258	1263.5	3.7003e-06	4.1321e-06	1269.8	346	3.7701e-06	4.1533e-06	394.97	133.57	111.4	40.415	3.9632e-06	50.03	184.514	143.533	235.407	89.011	263.077	292.048	88.896	93.822	239.747	183.426	93.034	97.589	98.326	102.610	330.002	101.995	-8191	255	
8296.199	1	1	0	0	0.099978	0.084715	0.21659	0.30368	0.19026	0.14337	0.034303	0.070956	0.3131	0.31709	0.174	0.22745	0.20172	0.086992	0.18397	0.035726	-2.1125	-1.7229	-2.0125	-2.7	-1.5417	-2.225	-2.2417	-1.6125	-2.6562	-1.8458	-1.8563	-2.6042	-1.7	-2.0292	-2.0875	-1.6167	134.743	158.248	385.035	400.835	89.210	374.477	358.782	352.231	404.007	231.315	366.043	315.084	383.316	424.715	407.178	88.958	0.00048054	0.00039513	0.00014518	1274.7	6.1761e-06	1.5433e-06	1280.2	349.33	4.7995e-06	4.5703e-06	401.78	134.37	115.23	40.63	4.6982e-06	51.012	0.00034904	0.00038199	9.9555e-05	1259.8	3.8238e-06	4.1129e-06	1267	345.41	3.858e-06	4.1386e-06	394.83	133.16	111.61	40.411	3.8694e-06	49.91	182.721	173.037	91.338	88.968	184.105	258.967	88.763	93.607	211.026	221.293	93.277	97.792	98.776	102.780	180.994	101.704	-8191	255	
8296.295	1	1	0	0	0.16009	0.36324	0.09254	0.48858	0.12408	0.16803	0.25345	0.17046	0.16544	0.0078031	0.058703	0.24546	0.26466	0.19801	0.18731	0.14046	-2.0354	-1.8271	-1.8354	-2.7292	-1.5896	-2.2042	-2.5417	-1.65	-2.3833	-1.9958	-1.8583	-2.5729	-1.6688	-2.1271	-2.3583	-1.5229	270.777	410.678	329.176	76.942	301.461	380.570	319.828	293.324	88.781	206.671	369.897	370.254	332.659	302.464	297.537	272.082	0.00050638	0.00047164	9.9999e-05	1273.9	6.1374e-06	1.2906e-06	1277	349.31	5.8106e-06	1.5438e-06	404.01	134.52	114.98	40.931	2.9409e-06	50.948	0.00035916	0.00036966	9.643e-05	1259.9	3.9521e-06	3.9685e-06	1266	344.86	3.9323e-06	3.9745e-06	394.76	133.13	111.78	40.382	3.7103e-06	49.912	174.296	209.640	245.567	88.877	229.017	166.591	88.883	93.649	216.778	303.709	93.292	97.728	98.479	102.463	171.346	101.781	-8191	255	
8296.391	1	1	0	0	0.17398	0.19177	0.024963	0.43689	0.031271	0.081015	0.18157	0.40337	0.2595	0.27858	0.10407	0.13814	0.06211	0.16485	0.13444	0.18445	-2.0708	-1.8792	-1.6333	-2.5187	-1.7583	-1.9229	-2.6271	-1.7667	-2.3521	-2.05	-1.775	-2.5875	-1.7229	-1.9729	-2.3167	-1.6667	205.902	209.357	221.633	402.789	341.927	161.592	86.037	416.800	378.313	403.632	331.926	405.239	401.222	306.631	90.560	118.136	0.00040169	0.00048511	0.0001392	1272.4	7.393e-06	3.9054e-06	1276.9	349.68	6.1803e-06	5.26e-06	402.71	135.52	115.85	40.63	2.277e-06	51.014	0.00036241	0.00035545	9.1266e-05	1259.6	3.9924e-06	3.7842e-06	1262.9	345.41	3.9454e-06	3.8472e-06	393.11	133.3	112.12	40.318	3.5774e-06	50.081	181.145	242.795	130.010	88.957	223.562	257.852	88.713	93.619	243.658	248.074	93.221	97.482	98.178	102.650	161.979	101.685	-8191	255	
8296.512	1	1	0	0	0.28776	0.072508	0.19553	0.38845	0.059174	0.18984	0.15299	0.26091	0.28294	0.037685	0.10833	0.073675	0.18949	0.23665	0.034125	0.1736	-1.8646	-2.2167	-1.4521	-2.7375	-1.8729	-1.8312	-2.65	-1.9125	-2.2313	-2.1958	-1.825	-2.5208	-1.8375	-1.9688	-2.4437	-1.7687	311.918	286.821	366.689	363.444	86.866	265.443	388.967	376.908	175.751	349.655	421.225	380.583	149.077	403.853	425.991	332.740	0.00035903	0.00013523	8.3631e-05	1273.5	5.498e-06	3.3073e-07	1278.3	348.33	2.5154e-06	7.7127e-06	401.91	135.26	115.62	40.728	8.5048e-06	50.784	0.00036665	0.00034574	8.8754e-05	1260.9	4.009e-06	3.7058e-06	1263.4	345.95	3.9704e-06	3.7896e-06	393.34	133.75	112.18	40.27	3.6156e-06	50.177	175.688	221.005	184.230	89.146	196.791	268.137	88.932	93.646	210.999	190.262	92.999	97.747	98.205	102.789	152.010	101.877	-8191	255	
8296.608	1	1	0	0	0.13376	0.2048	0.19823	0.061269	0.15215	0.16488	0.24329	0.26168	0.14414	0.20463	0.2102	0.1614	0.31387	0.30334	0.10529	0.20437	-1.725	-2.2917	-1.6896	-2.6625	-1.9354	-1.7375	-2.7125	-1.8979	-2.0375	-2.3792	-1.8229	-2.3167	-1.9729	-1.5312	-2.5312	-2.0062	135.756	213.240	330.016	106.687	101.696	398.827	384.711	381.079	172.335	433.304	407.702	229.112	434.239	200.906	288.725	327.085	0.00038447	6.9535e-05	0.000126	1273.6	3.9883e-06	6.9916e-06	1275.4	350.37	4.8856e-06	2.6334e-06	402	134.51	115.68	40.756	4.0079e-06	50.947	0.00036563	0.00035171	9.0508e-05	1262.3	4.0232e-06	3.7541e-06	1261.9	347.02	3.96e-06	3.8142e-06	392.88	133.87	112.35	40.24	3.7139e-06	50.291	182.213	307.636	182.929	88.920	212.969	199.750	88.965	93.654	229.478	132.646	93.001	97.750	98.290	102.693	223.667	101.776	-8191	255	
#DATA ENDS
