BOXY.EXE: ISS Imagent and Oximeter Data Acquisition Program Version 0.80
Ascii Record File

#ACQ INFORMATION
2  Detector Channels 
16  External MUX Channels 
1  Auxiliary Channels 
5000  Waveform (CCF) Frequency (Hz)
1  Waveforms Skipped 
30  Waveforms Averaged 
1  Cycles Averaged 
16  Acquisitions per Waveform 
10.0806  Updata Rate (Hz) 

#FILE INFORMATION
TRUE -- External MUX Channel results are PARSED.
FALSE -- AC DC and Phase are NOT grouped.
TRUE -- Companion Program Settings File CREATED.
FALSE -- AC data not excluded
FALSE -- DC data not excluded
FALSE -- Phase data not excluded
FALSE -- Auxillary Chn. data not excluded
Tab delimiters

#CALIBRATION STATE
TRUE -- Waveform Calibration Values APPLIED.


#AUX CALIBRATION VALUES
Val Type	aux-1	

Term	1.0000e+00	
Factor	0.0000e+00	


#WF CALIBRATION VALUES
A = Detector Channel
Val Type	A-AC1	A-AC2	A-AC3	A-AC4	A-AC5	A-AC6	A-AC7	A-AC8	A-AC9	A-AC10	A-AC11	A-AC12	A-AC13	A-AC14	A-AC15	A-AC16	A-DC1	A-DC2	A-DC3	A-DC4	A-DC5	A-DC6	A-DC7	A-DC8	A-DC9	A-DC10	A-DC11	A-DC12	A-DC13	A-DC14	A-DC15	A-DC16	A-Ph1	A-Ph2	A-Ph3	A-Ph4	A-Ph5	A-Ph6	A-Ph7	A-Ph8	A-Ph9	A-Ph10	A-Ph11	A-Ph12	A-Ph13	A-Ph14	A-Ph15	A-Ph16	

Term	0.00000e+00	0.00000e+00	0.00000e+00	0.00000e+00	0.00000e+00	0.00000e+00	0.00000e+00	0.00000e+00	0.00000e+00	0.00000e+00	0.00000e+00	0.00000e+00	0.00000e+00	0.00000e+00	0.00000e+00	0.00000e+00	0.00000e+00	0.00000e+00	0.00000e+00	0.00000e+00	0.00000e+00	0.00000e+00	0.00000e+00	0.00000e+00	0.00000e+00	0.00000e+00	0.00000e+00	0.00000e+00	0.00000e+00	0.00000e+00	0.00000e+00	0.00000e+00	0.00000e+00	0.00000e+00	0.00000e+00	0.00000e+00	0.00000e+00	0.00000e+00	0.00000e+00	0.00000e+00	0.00000e+00	0.00000e+00	0.00000e+00	0.00000e+00	0.00000e+00	0.00000e+00	0.00000e+00	0.00000e+00	
Factor	1.00000e+00	1.00000e+00	1.00000e+00	1.00000e+00	1.00000e+00	1.00000e+00	1.00000e+00	1.00000e+00	1.00000e+00	1.00000e+00	1.00000e+00	1.00000e+00	1.00000e+00	1.00000e+00	1.00000e+00	1.00000e+00	1.00000e+00	1.00000e+00	1.00000e+00	1.00000e+00	1.00000e+00	1.00000e+00	1.00000e+00	1.00000e+00	1.00000e+00	1.00000e+00	1.00000e+00	1.00000e+00	1.00000e+00	1.00000e+00	1.00000e+00	1.00000e+00	X	X	X	X	X	X	X	X	X	X	X	X	X	X	X	X	

B = Detector Channel
Val Type	B-AC1	B-AC2	B-AC3	B-AC4	B-AC5	B-AC6	B-AC7	B-AC8	B-AC9	B-AC10	B-AC11	B-AC12	B-AC13	B-AC14	B-AC15	B-AC16	B-DC1	B-DC2	B-DC3	B-DC4	B-DC5	B-DC6	B-DC7	B-DC8	B-DC9	B-DC10	B-DC11	B-DC12	B-DC13	B-DC14	B-DC15	B-DC16	B-Ph1	B-Ph2	B-Ph3	B-Ph4	B-Ph5	B-Ph6	B-Ph7	B-Ph8	B-Ph9	B-Ph10	B-Ph11	B-Ph12	B-Ph13	B-Ph14	B-Ph15	B-Ph16	

Term	0.00000e+00	0.00000e+00	0.00000e+00	0.00000e+00	0.00000e+00	0.00000e+00	0.00000e+00	0.00000e+00	0.00000e+00	0.00000e+00	0.00000e+00	0.00000e+00	0.00000e+00	0.00000e+00	0.00000e+00	0.00000e+00	0.00000e+00	0.00000e+00	0.00000e+00	0.00000e+00	0.00000e+00	0.00000e+00	0.00000e+00	0.00000e+00	0.00000e+00	0.00000e+00	0.00000e+00	0.00000e+00	0.00000e+00	0.00000e+00	0.00000e+00	0.00000e+00	-3.28693e+01	-1.32896e+02	-1.28227e+02	-1.84331e+02	-5.50572e+01	-6.76425e+01	-1.55816e+02	-1.62015e+02	-2.49983e+01	-7.00590e+01	-1.85569e+02	-1.70510e+02	-1.86375e+02	-1.76893e+02	-4.33464e+01	-1.49751e+02	
Factor	2.47962e-05	2.18224e-04	5.54421e-05	2.29676e-01	2.20983e-06	2.16624e-06	1.69630e-01	5.37163e-02	1.72526e-06	2.07229e-06	2.26844e-01	3.20966e-02	6.82822e-02	9.64419e-03	2.46265e-06	1.39987e-02	1.08586e-05	1.59674e-05	4.46559e-06	1.17077e-01	1.66956e-07	1.78009e-07	8.13498e-02	2.74856e-02	1.61655e-07	1.76989e-07	1.11723e-01	1.59859e-02	3.49321e-02	4.98455e-03	1.69818e-07	7.00431e-03	X	X	X	X	X	X	X	X	X	X	X	X	X	X	X	X	



#DISTANCE SETTINGS
A = Detector Channel
A-1	A-2	A-3	A-4	A-5	A-6	A-7	A-8	A-9	A-10	A-11	A-12	A-13	A-14	A-15	A-16	

2.5000e+00	3.0000e+00	2.5000e+00	3.0000e+00	2.0000e+00	3.0000e+00	1.5000e+00	3.0000e+00	3.0000e+00	3.0000e+00	3.0000e+00	3.0000e+00	3.0000e+00	3.0000e+00	1.5000e+00	3.0000e+00	

B = Detector Channel
B-1	B-2	B-3	B-4	B-5	B-6	B-7	B-8	B-9	B-10	B-11	B-12	B-13	B-14	B-15	B-16	

1.0000e+01	1.0000e+01	1.0000e+01	1.4400e+00	1.0000e+01	1.0000e+01	1.5100e+00	1.9400e+00	1.0000e+01	1.0000e+01	1.9900e+00	2.4900e+00	2.4100e+00	2.9000e+00	1.0000e+01	2.9800e+00	




#DATA BEGINS
time	group	step	mark	flag	A-AC1	A-AC2	A-AC3	A-AC4	A-AC5	A-AC6	A-AC7	A-AC8	A-AC9	A-AC10	A-AC11	A-AC12	A-AC13	A-AC14	A-AC15	A-AC16	A-DC1	A-DC2	A-DC3	A-DC4	A-DC5	A-DC6	A-DC7	A-DC8	A-DC9	A-DC10	A-DC11	A-DC12	A-DC13	A-DC14	A-DC15	A-DC16	A-Ph1	A-Ph2	A-Ph3	A-Ph4	A-Ph5	A-Ph6	A-Ph7	A-Ph8	A-Ph9	A-Ph10	A-Ph11	A-Ph12	A-Ph13	A-Ph14	A-Ph15	A-Ph16	B-AC1	B-AC2	B-AC3	B-AC4	B-AC5	B-AC6	B-AC7	B-AC8	B-AC9	B-AC10	B-AC11	B-AC12	B-AC13	B-AC14	B-AC15	B-AC16	B-DC1	B-DC2	B-DC3	B-DC4	B-DC5	B-DC6	B-DC7	B-DC8	B-DC9	B-DC10	B-DC11	B-DC12	B-DC13	B-DC14	B-DC15	B-DC16	B-Ph1	B-Ph2	B-Ph3	B-Ph4	B-Ph5	B-Ph6	B-Ph7	B-Ph8	B-Ph9	B-Ph10	B-Ph11	B-Ph12	B-Ph13	B-Ph14	B-Ph15	B-Ph16	aux-1	digaux	

41237.969	1	1	0	768	0.23924	0.19147	0.090949	0.098166	0.065219	0.26761	0.4678	0.098234	0.29255	0.066758	0.073774	0.31516	0.17038	0.077757	0.13353	0.047667	-1.6292	-1.6313	-1.8583	-1.9646	-1.3396	-1.9312	-2.0292	-1.6083	-2.0563	-1.7479	-1.9479	-2.1292	-1.55	-2.2896	-1.875	-1.8146	321.773	171.839	199.124	324.142	30.023	354.849	12.943	255.017	178.851	212.223	233.346	2.260	237.199	42.409	308.074	70.689	0.00047117	0.00040861	0.0001206	740.64	4.2688e-06	4.071e-06	856.07	246.21	2.558e-06	6.1145e-06	296.01	120.5	85.465	44.991	5.1589e-06	69.683	0.00050832	0.00046392	0.00012853	726.9	4.8521e-06	4.9802e-06	840.78	242.97	4.7995e-06	5.1799e-06	292.6	119.84	85.247	45.106	5.1872e-06	69.201	238.742	79.527	103.336	8.701	183.323	163.059	8.488	14.396	222.254	141.747	12.468	17.973	20.699	25.041	173.941	21.894	-8191	255	
41238.066	1	1	0	0	0.10645	0.26244	0.10883	0.12618	0.077379	0.19874	0.12424	0.19718	0.29902	0.028322	0.1635	0.23055	0.22508	0.080024	0.093162	0.21681	-1.7437	-1.6896	-1.7396	-2.2146	-1.6375	-1.9021	-2.1729	-1.6333	-2.1417	-1.7167	-1.8396	-2.2417	-1.8354	-1.9813	-2.0021	-1.6958	70.636	187.838	159.681	71.430	280.562	170.233	289.740	299.669	26.792	270.741	54.210	190.472	51.976	271.993	261.416	322.726	0.00041023	0.00077716	0.00011464	739.45	6.9328e-06	6.604e-06	853.6	245.53	3.7674e-06	5.6463e-06	295.46	119.66	85.867	44.982	5.5797e-06	68.786	0.00048911	0.00046226	0.0001231	725.75	5.0215e-06	4.8029e-06	837.26	242.39	4.5479e-06	4.8348e-06	291.34	118.69	85.222	44.835	5.212e-06	68.587	240.013	104.869	79.161	9.446	165.096	147.700	8.663	14.349	190.724	139.454	12.416	18.312	20.979	24.831	167.938	21.846	-8191	255	
41238.160	1	1	0	0	0.19902	0.14249	0.16766	0.11386	0.086066	0.069056	0.16157	0.15165	0.083516	0.088442	0.1989	0.078119	0.14961	0.32004	0.05493	0.15518	-1.5229	-1.7646	-1.8146	-1.9708	-1.8208	-1.7896	-2.1854	-1.4896	-2.0708	-1.9062	-1.7083	-2.275	-1.7667	-2.0417	-2.1771	-1.8146	289.983	225.650	338.438	313.988	279.882	144.485	144.993	70.983	-1.286	111.068	15.905	344.199	161.130	347.686	323.624	290.495	0.00046173	0.00055496	0.00012867	736.67	3.0502e-06	4.2071e-06	852.34	246.17	2.4671e-06	6.6374e-06	296.71	120.15	85.817	44.639	6.325e-06	68.858	0.0004983	0.00048498	0.00012217	723.98	4.9523e-06	4.7877e-06	835.35	242.97	4.9412e-06	5.1072e-06	292.5	118.74	85.649	44.84	5.1787e-06	68.571	240.866	68.540	67.984	8.843	144.130	155.913	8.679	14.243	203.909	176.885	12.336	18.185	20.975	25.067	174.324	21.904	-8191	255	
41238.258	1	1	0	0	0.083203	0.065009	0.19022	0.1718	0.13771	0.14504	0.21421	0.13372	0.20998	0.038965	0.18496	0.017703	0.33599	0.096332	0.23191	0.043062	-1.5	-1.8687	-1.6854	-2.1021	-1.7188	-1.6771	-2.2	-1.6688	-1.8979	-1.9083	-1.7854	-1.9396	-1.7667	-1.9083	-1.9188	-1.8167	334.621	353.520	201.128	248.116	307.143	288.603	299.221	31.049	265.641	16.594	39.537	239.720	299.671	19.624	153.702	305.918	0.00046778	0.00046457	0.00010231	735.31	6.5336e-06	6.6768e-06	852.99	246.28	2.7832e-06	3.4554e-06	295.09	119.9	85.346	44.873	7.0672e-06	69.199	0.00049642	0.00049353	0.00012763	724.53	4.977e-06	4.9831e-06	834.34	242.38	4.7132e-06	5.3871e-06	290.89	118.95	84.923	44.861	5.0464e-06	68.745	237.461	84.384	107.354	9.067	177.077	130.114	8.771	14.427	199.625	120.991	12.280	18.250	20.781	25.103	157.754	21.670	-8191	255	
41238.352	1	1	0	0	0.34067	0.2588	0.096133	0.22607	0.21739	0.16104	0.032933	0.29713	0.078984	0.24511	0.036893	0.22726	0.45498	0.3223	0.24013	0.097767	-1.5229	-2.1854	-1.7917	-2.1208	-1.8583	-1.8104	-2.3417	-1.7188	-1.9562	-2.1188	-1.65	-2.1833	-1.9479	-1.8896	-2.2812	-1.9354	86.237	1.851	55.627	62.119	348.473	111.112	234.414	27.228	131.544	95.613	269.488	305.749	324.299	59.579	325.607	311.812	0.00043902	0.00054126	0.00017749	727.49	6.7712e-06	5.5147e-06	848.22	245.61	3.7812e-06	4.3892e-06	295.23	120.06	86.346	44.968	6.0726e-06	69.514	0.0004868	0.00046582	0.00013004	718.53	5.1029e-06	4.8151e-06	832.71	242.74	4.8853e-06	5.0508e-06	291.63	119.34	85.789	45.073	5.1483e-06	68.99	240.110	106.937	98.865	8.906	134.631	134.243	8.323	14.382	186.659	144.512	12.521	18.166	20.951	24.976	191.302	21.887	-8191	255	
41238.449	1	1	0	0	0.18914	0.30294	0.14678	0.14354	0.16651	0.27037	0.15434	0.31985	0.25359	0.12294	0.37807	0.053367	0.32538	0.13782	0.091934	0.098427	-1.5479	-2.0542	-1.6313	-2.0625	-1.8979	-1.6917	-2.1688	-1.7458	-1.85	-2.0333	-1.6042	-1.9979	-2.05	-1.7958	-2.2812	-1.7563	255.365	232.759	273.720	247.484	14.074	194.281	294.801	28.293	17.625	129.354	22.258	224.605	291.943	103.324	69.277	286.035	0.00047868	0.0007602	0.00013852	736.68	3.9275e-06	6.4157e-06	850.68	247.18	2.5379e-06	3.1813e-06	292.32	118.83	86.148	44.547	3.1466e-06	67.849	0.00050929	0.00048029	0.00013213	722.77	5.3235e-06	5.1333e-06	833.37	243.18	4.9322e-06	5.0062e-06	289.65	118.16	85.154	44.643	5.119e-06	67.524	240.991	63.040	94.548	9.100	159.942	174.555	8.373	14.452	195.241	117.820	12.676	18.201	20.693	25.044	212.519	21.650	-8191	255	
41238.570	1	1	0	0	0.1754	0.059009	0.12685	0.26444	0.047685	0.33164	0.28087	0.14206	0.10539	0.23007	0.054529	0.29493	0.19502	0.17374	0.04191	0.1181	-1.2479	-1.9542	-1.5208	-2.0354	-1.8479	-1.7333	-2.2083	-1.8729	-1.525	-2.0458	-1.5521	-1.8896	-1.9271	-1.7938	-1.9562	-1.8062	14.017	70.662	134.659	286.304	45.964	117.117	300.122	181.920	167.697	283.217	29.313	312.708	4.796	295.136	242.220	332.375	0.00042627	0.00019378	0.00013645	730.54	5.5155e-06	5.1324e-06	842.74	242.98	5.4429e-06	4.8931e-06	290.58	117.15	84.988	43.882	4.4245e-06	66.768	0.000494	0.00046971	0.0001319	717.19	5.1628e-06	5.0291e-06	824.94	240.73	4.9072e-06	5.0258e-06	287.83	116.04	84.409	43.923	4.8313e-06	66.52	241.919	90.440	103.602	8.933	170.323	132.466	8.494	14.665	191.630	133.799	12.312	18.024	20.335	25.089	190.934	21.985	-8191	255	
41238.664	1	1	0	0	0.17163	0.15944	0.088047	0.16152	0.065731	0.24317	0.33141	0.1195	0.26942	0.10317	0.13593	0.11883	0.15966	0.15505	0.18371	0.12913	-1.2313	-2.2396	-1.6375	-1.8854	-2.2188	-1.6417	-2.0021	-1.8875	-1.7208	-2.1604	-1.7083	-1.7687	-1.9979	-1.7021	-1.9146	-2.0208	114.675	97.827	141.095	21.641	331.982	252.049	292.376	299.281	186.199	302.817	103.880	351.795	224.776	118.300	316.396	10.972	0.00038643	0.00048382	0.000166	722.96	6.4523e-06	6.3721e-06	838.34	243.11	3.7526e-06	1.706e-06	287.16	116.93	84.602	43.852	3.1876e-06	66.893	0.000499	0.00045653	0.00012919	712.98	5.1262e-06	4.9598e-06	820.51	239.66	4.9096e-06	5.0106e-06	285.92	115.85	84.131	43.956	5.1193e-06	66.652	234.326	75.553	86.292	9.124	160.162	146.470	8.594	14.413	212.387	144.067	12.736	18.186	20.970	25.024	217.206	21.599	-8191	255	
41238.762	1	1	0	0	0.088878	0.20872	0.082647	0.12441	0.17748	0.14552	0.090019	0.27373	0.17346	0.10556	0.18907	0.27799	0.23446	0.22325	0.052138	0.15421	-1.1688	-1.825	-1.4479	-1.7667	-2.1292	-1.5333	-2.1104	-1.8458	-1.6104	-2.2354	-1.7208	-1.5208	-1.8833	-1.6979	-1.9875	-2.1083	59.555	132.558	330.838	344.363	309.603	59.801	338.990	184.441	273.805	139.510	120.111	325.074	118.092	91.963	229.613	348.332	0.00045107	0.00067812	0.0001331	727.16	5.2622e-06	5.0267e-06	841.78	242.12	2.948e-06	5.8859e-06	290.77	116.43	84.168	43.548	9.577e-06	66.921	0.00051198	0.00045451	0.00013431	712.99	5.1172e-06	5.0187e-06	821.29	239.29	4.8065e-06	5.0272e-06	286.34	116.12	83.761	43.748	5.2743e-06	66.706	238.394	89.004	73.036	9.118	159.371	129.522	8.483	14.361	204.532	155.567	12.262	18.079	21.133	25.126	174.873	21.842	-8191	255	
41238.859	1	1	0	0	0.10074	0.29043	0.27461	0.22957	0.20727	0.17854	0.039799	0.12729	0.14184	0.10387	0.15478	0.080805	0.16531	0.4627	0.064125	0.27008	-1.1812	-2.1521	-1.7812	-1.7958	-2.0521	-1.6521	-1.9458	-2.1083	-1.4479	-2.0625	-1.9167	-1.7729	-1.9979	-1.6	-1.6771	-2.2188	124.250	204.527	125.640	327.408	355.001	286.623	247.372	219.802	89.381	71.816	316.721	290.708	287.602	302.848	-1.912	206.695	0.0004472	0.00060212	9.8059e-05	726.99	4.9251e-06	3.5158e-06	836.01	241.23	4.3267e-06	5.1969e-06	289.24	115.61	84	43.423	4.6566e-06	66.123	0.00050171	0.00044925	0.00013812	712.35	4.7603e-06	5.133e-06	821.05	238.55	4.8988e-06	4.8075e-06	285.79	115.37	83.438	43.49	4.6597e-06	66.08	241.855	78.227	70.196	9.142	175.365	148.504	8.373	14.070	194.190	135.465	12.012	18.173	20.981	25.163	202.815	21.676	-8191	255	
41238.953	1	1	0	0	0.16399	0.21839	0.05277	0.39064	0.29961	0.39651	0.11801	0.37386	0.18476	0.10334	0.081451	0.3704	0.25683	0.14816	0.24409	0.34007	-1.0187	-1.8312	-1.8083	-1.6958	-2.0438	-1.7479	-1.9104	-2.25	-1.7771	-2.1333	-1.9667	-1.5875	-2.2083	-1.8062	-1.7083	-2.1188	37.391	78.380	281.657	300.582	61.151	333.079	331.329	324.820	334.162	7.550	319.418	346.522	212.594	74.071	112.157	35.674	0.00038242	0.000451	0.00016181	724.34	7.4375e-06	4.4946e-06	834.62	243.58	4.0196e-06	3.9366e-06	288.97	116.59	83.81	43.399	6.8595e-06	66.158	0.00050196	0.00043228	0.0001333	710.61	4.9134e-06	5.0948e-06	816.93	239.71	5.0221e-06	4.6699e-06	284.44	115.38	83.644	43.748	4.9817e-06	65.942	242.609	104.832	93.605	8.786	161.056	127.098	8.659	14.177	203.609	151.436	12.545	18.192	20.888	24.878	198.222	21.685	-8191	255	
41239.051	1	1	0	0	0.31679	0.083492	0.10485	0.22499	0.23516	0.078727	0.10301	0.19561	0.13268	0.070938	0.16489	0.092029	0.071407	0.076503	0.12282	0.28688	-1.0229	-1.9167	-1.9146	-1.5833	-1.9854	-1.9042	-1.8021	-2.0458	-1.5396	-1.875	-1.85	-1.4396	-1.9229	-1.7	-1.8604	-2.1437	209.582	341.842	36.430	305.919	225.307	205.834	180.295	11.592	282.774	189.938	2.297	14.502	36.506	5.043	26.085	12.255	0.00042472	0.00040214	0.0001848	724.29	5.5242e-06	5.257e-06	833.25	243.05	4.9784e-06	2.8002e-06	288.77	117.34	85.177	44.318	7.2123e-06	67.226	0.00049447	0.00042806	0.0001258	711.19	4.6508e-06	5.1215e-06	816.97	239.9	5.0217e-06	4.8373e-06	285.6	116.24	84.532	44.51	4.9484e-06	66.846	239.057	83.644	100.218	9.016	156.555	132.363	8.397	14.376	191.250	149.895	12.374	18.447	21.023	25.043	196.897	21.643	-8191	255	
41239.172	1	1	0	0	0.2136	0.12401	0.21205	0.13586	0.16558	0.29095	0.13267	0.09312	0.27119	0.19413	0.15183	0.19329	0.11519	0.32897	0.22891	0.10142	-1.2667	-1.8792	-2.0083	-1.5438	-1.9292	-1.7542	-1.675	-2.2625	-1.5229	-1.825	-1.9167	-1.4896	-1.8792	-1.9979	-1.7188	-1.9417	134.728	180.018	9.956	179.478	270.727	269.671	294.013	331.442	159.536	70.637	342.324	9.311	251.715	11.253	13.307	256.777	0.00046535	0.00031375	0.00010425	727.33	5.4678e-06	2.0907e-06	838.78	244.67	4.2477e-06	7.6419e-06	289.08	117.59	85.009	44.593	6.0746e-06	67.971	0.00049893	0.00043401	0.00012705	714.71	4.7492e-06	4.9279e-06	819.22	241.4	4.9305e-06	4.6463e-06	286.73	116.86	84.991	44.682	4.964e-06	67.428	237.996	89.836	84.433	8.918	163.669	152.021	8.756	14.378	197.096	145.634	12.405	17.987	20.905	25.348	160.737	21.836	-8191	255	
41239.266	1	1	0	0	0.16235	0.22127	0.084209	0.043524	0.27637	0.13228	0.16833	0.23226	0.047976	0.025494	0.26975	0.24563	0.12371	0.56574	0.21904	0.2568	-1.2083	-1.7687	-1.8792	-1.5125	-1.85	-1.8292	-1.6938	-2.1896	-1.6417	-1.6833	-2.0792	-1.7854	-1.8083	-1.9875	-1.55	-2.2229	101.592	10.719	234.553	79.103	86.497	34.526	321.396	347.209	298.073	109.149	90.994	338.273	92.864	353.804	12.176	254.094	0.00041298	0.00020588	0.00014815	727.6	7.6063e-06	2.3455e-06	839.69	244.85	4.4364e-06	3.3449e-06	291.56	119.4	86.675	45.2	2.5527e-06	68.802	0.00050307	0.00044509	0.00012844	715.44	4.7113e-06	5.0899e-06	823.2	242.16	5.0608e-06	4.8864e-06	288.27	118.27	85.477	45.234	5.0057e-06	68.354	236.952	112.261	93.966	9.338	169.736	137.122	8.545	14.524	217.053	117.281	12.850	18.475	21.721	25.061	176.083	21.707	-8191	255	
41239.363	1	1	0	0	0.14372	0.18143	0.40063	0.11956	0.090315	0.24847	0.12987	0.30091	0.074324	0.11998	0.049306	0.28	0.47495	0.20488	0.21477	0.36768	-1.3625	-1.65	-1.9813	-1.7208	-1.6375	-1.8854	-1.7938	-2.0125	-1.8417	-1.6562	-2.0917	-1.625	-1.7938	-1.9042	-1.5646	-2.0146	282.733	102.889	37.655	304.296	28.949	330.404	330.147	20.781	267.067	59.919	16.427	295.375	121.214	26.985	71.927	320.022	0.00044419	0.00066345	0.00015254	731.8	3.0268e-06	2.3268e-06	848.36	246.25	3.3428e-06	4.7411e-06	293.5	118.79	87.051	45.319	6.6119e-06	68.527	0.000504	0.00045208	0.00012661	720.91	4.7892e-06	5.2045e-06	828.33	243.56	4.9625e-06	4.9786e-06	288.57	118.29	86.124	45.479	5.0464e-06	68.01	238.135	81.661	93.035	9.111	155.564	128.707	8.475	14.406	168.655	123.530	12.099	17.985	20.744	25.083	160.734	21.948	-8191	255	
41239.457	1	1	0	0	0.19715	0.24786	0.06914	0.18038	0.11005	0.14746	0.19424	0.237	0.14695	0.23679	0.26889	0.24406	0.23699	0.31161	0.23092	0.32463	-1.3	-1.6833	-2.0229	-1.6979	-1.8312	-1.975	-1.7375	-2.1125	-1.8625	-1.5521	-2.0312	-1.7188	-1.6771	-2.0812	-1.5771	-2.1437	266.759	226.909	25.020	90.467	217.238	125.361	287.956	260.020	302.695	253.536	265.682	308.102	86.734	246.308	289.780	276.904	0.00046649	0.00029285	0.00015898	737.54	3.9883e-06	4.222e-06	843.59	247.81	4.3623e-06	4.1277e-06	293.07	118.45	86.335	45.607	6.1597e-06	68.244	0.0005204	0.00046013	0.00013041	723.3	4.6643e-06	5.2268e-06	827.17	244.54	5.116e-06	5.0848e-06	288.63	117.81	86.173	45.771	5.108e-06	68.213	240.677	41.152	81.583	8.968	144.736	140.988	8.447	14.562	203.783	158.793	12.225	18.158	21.275	25.069	172.268	21.665	-8191	255	
41239.531	1	1	0	0	0.10896	0.13091	0.38071	0.015044	0.10335	0.090215	0.22207	0.27824	0.077467	0.24236	0.23219	0.12134	0.26858	0.19554	0.041798	0.16304	-1.3833	-1.6042	-2.0542	-1.675	-1.7938	-2.0938	-1.8479	-2.2021	-1.7604	-1.4667	-1.7729	-1.8583	-1.8	-2.2833	-1.7125	-1.9708	120.815	103.553	124.081	102.829	90.076	146.133	261.543	206.117	304.250	270.720	269.751	-2.018	85.419	325.372	40.829	122.292	0.00042697	0.00051539	0.00016951	733.59	5.6553e-06	5.0063e-06	845.8	247.76	3.7355e-06	6.9847e-06	293.09	119.61	86.689	45.641	7.0926e-06	68.753	0.00051445	0.00047736	0.00012795	721.57	4.7506e-06	5.1022e-06	826.39	244.33	4.9274e-06	5.0073e-06	288.76	118.5	86.438	45.725	5.0956e-06	68.247	237.457	98.376	100.908	8.917	133.792	160.917	8.395	14.474	190.287	131.190	12.932	18.177	20.892	24.879	156.338	21.886	-8191	255	
41239.648	1	1	0	0	0.14282	0.2032	0.32858	0.321	0.089213	0.23661	0.25159	0.37821	0.06314	0.19078	0.28623	0.18158	0.19973	0.030582	0.11592	0.036134	-1.4958	-1.4458	-1.9729	-1.9	-1.6708	-2.2146	-1.975	-2.0062	-1.9729	-1.6854	-1.9312	-1.8771	-1.6521	-2.1292	-1.6313	-1.9958	149.294	139.988	178.345	306.578	9.769	65.644	262.795	30.014	246.164	67.399	210.331	352.140	32.268	142.939	111.322	1.130	0.00043627	0.00076349	5.3522e-05	736.62	5.8355e-06	4.9976e-06	850.28	246.99	2.3653e-06	4.8922e-06	291.74	119.56	87.171	45.683	8.0574e-06	68.784	0.00050759	0.00046565	0.00011876	723	4.6796e-06	5.0506e-06	829.85	243.89	4.9029e-06	4.879e-06	289.57	118.48	86.449	45.713	5.3012e-06	68.478	236.244	82.857	123.089	8.931	168.268	195.378	8.353	14.369	168.454	176.016	12.586	18.215	21.331	25.491	183.439	21.603	-8191	255	
41239.746	1	1	0	0	0.042638	0.058648	0.31353	0.24161	0.31363	0.15764	0.20757	0.18904	0.24782	0.12681	0.21587	0.15382	0.10627	0.25507	0.10394	0.27109	-1.5292	-1.3396	-1.9438	-1.9042	-1.5604	-2.0292	-1.6542	-1.7125	-1.9583	-1.65	-1.9479	-1.8667	-1.5229	-2.1688	-1.6688	-1.7437	284.560	57.713	163.868	9.512	187.574	27.294	310.498	257.160	291.594	311.130	313.463	18.259	311.849	139.910	130.587	297.500	0.00042796	0.00047338	0.00014411	740.52	3.2633e-06	4.7048e-06	849.37	246.73	4.746e-06	6.2877e-06	292.41	120	86.605	45.606	6.7834e-06	68.322	0.00050513	0.00045989	0.00012194	723.51	4.7805e-06	4.7851e-06	829.78	244.04	4.8847e-06	4.8849e-06	289.8	118.52	86.329	45.658	5.2148e-06	68.015	235.857	76.648	79.929	9.068	143.101	127.156	8.489	14.354	194.661	158.433	12.143	18.056	20.941	25.083	204.430	21.977	-8191	255	
41239.840	1	1	0	0	0.092125	0.049329	0.10055	0.18602	0.066694	0.075094	0.078946	0.22929	0.14202	0.12623	0.11597	0.20474	0.097648	0.0054763	0.1342	0.25244	-1.6063	-1.4062	-1.8563	-1.9667	-1.4417	-1.9542	-1.7687	-1.6	-2.0021	-1.4375	-2.0187	-2.0187	-1.3188	-1.8729	-1.6	-1.7625	198.900	333.173	2.998	219.298	111.753	160.354	242.144	317.158	291.791	204.387	138.126	261.433	101.598	76.003	109.530	232.057	0.00041231	0.00067781	0.00011997	736.24	7.534e-06	5.7035e-06	844.13	246.91	3.519e-06	4.8651e-06	289.72	118.24	85.924	45.205	5.0653e-06	67.544	0.00051255	0.00044492	0.00011959	722.61	4.9523e-06	4.8849e-06	825.11	244.02	4.79e-06	5.0741e-06	286.62	117.19	85.705	45.298	5.0953e-06	67.28	239.671	87.652	77.382	9.131	158.505	131.901	8.354	14.502	189.544	144.681	12.554	17.856	20.558	24.940	168.482	21.660	-8191	255	
41239.938	1	1	0	0	0.015425	0.34588	0.079637	0.31514	0.22392	0.27857	0.1654	0.27173	0.22986	0.12645	0.098336	0.28043	0.25778	0.17096	0.23664	0.19381	-1.5354	-1.3792	-1.8271	-1.85	-1.375	-1.8396	-1.7812	-1.5729	-1.9542	-1.6729	-1.8479	-2.0687	-1.4896	-1.9854	-1.8687	-1.5146	120.159	136.846	6.374	50.994	151.810	292.479	260.288	206.708	131.220	78.136	111.112	258.589	24.310	30.337	244.565	69.070	0.00045277	0.00058397	0.00014444	735.47	4.364e-06	3.5615e-06	838.11	245.69	2.6139e-06	7.0635e-06	290.36	117.51	86.576	45.359	4.2747e-06	67.246	0.00050716	0.00044353	0.0001195	720.8	4.9975e-06	4.6957e-06	821.04	242.84	4.7617e-06	5.035e-06	287.6	117.17	85.889	45.318	5.1982e-06	67.212	239.281	64.398	77.074	9.407	142.908	151.031	8.668	14.454	149.303	141.565	12.331	18.119	21.246	25.301	190.524	22.007	-8191	255	
41240.059	1	1	0	0	0.21822	0.12464	0.13595	0.13553	0.17602	0.2505	0.053023	0.18358	0.11457	0.15711	0.088338	0.15026	0.1374	0.20141	0.20786	0.33478	-1.5	-1.825	-1.6271	-1.9125	-1.5875	-1.9021	-1.8667	-1.625	-1.9208	-1.6792	-1.5979	-1.975	-1.475	-2.0146	-1.9562	-1.6833	41.371	21.774	213.228	38.550	321.159	22.654	19.490	323.943	43.772	239.257	343.577	321.979	330.235	53.630	201.870	30.298	0.00045742	0.00058851	0.00013275	732.25	2.1204e-06	7.3294e-06	841.17	245.98	4.2011e-06	5.7956e-06	290.63	117.7	86.333	45.198	5.3328e-06	67.871	0.00050931	0.00046309	0.0001233	718.64	4.9888e-06	4.926e-06	823.86	243.3	4.9234e-06	5.2448e-06	288	116.95	85.956	45.267	5.0864e-06	67.445	237.356	89.999	90.124	8.991	163.698	149.951	8.339	14.372	219.591	135.502	12.687	18.230	20.808	24.978	207.752	21.760	-8191	255	
41240.129	1	1	0	0	0.12673	0.24424	0.11112	0.30821	0.19316	0.10726	0.068111	0.14117	0.066867	0.11988	0.10218	0.16591	0.17493	0.20625	0.14505	0.11612	-1.4875	-1.5458	-1.8875	-1.7271	-1.6167	-1.7625	-2.0458	-1.6646	-1.9729	-1.6812	-1.5187	-2.3312	-1.5375	-1.9333	-1.9354	-1.6063	168.443	229.711	349.073	322.913	30.693	207.944	205.465	337.059	59.575	302.457	264.360	302.727	228.032	70.510	220.106	205.550	0.00044492	0.00051675	0.00013248	730.53	4.676e-06	6.1925e-06	843.51	245.55	3.5593e-06	8.6202e-06	289.85	118.56	85.813	45.388	7.0584e-06	68.268	0.00049542	0.00045916	0.00012167	719.19	4.8601e-06	4.708e-06	824.37	242.41	4.6573e-06	5.0475e-06	288.85	117.66	85.668	45.475	5.1752e-06	67.859	238.218	72.038	84.689	8.993	165.937	166.006	8.476	14.519	184.637	136.748	12.673	17.699	21.273	25.356	178.731	21.832	-8191	255	
41240.250	1	1	0	0	0.21325	0.19072	0.088103	0.28488	0.094877	0.11423	0.22578	0.21854	0.17698	0.051743	0.22778	0.1347	0.093888	0.047794	0.11858	0.075461	-1.3875	-1.7167	-1.6125	-2.1083	-1.5167	-1.8417	-1.8417	-1.6313	-1.7458	-1.8583	-1.5063	-1.9875	-1.575	-1.7833	-1.9521	-1.7667	294.801	288.278	223.913	122.375	277.466	32.567	290.142	6.768	-0.590	176.066	189.286	221.973	30.972	256.164	118.107	353.215	0.00043667	0.00029032	0.00011594	735.22	5.7178e-06	5.9311e-06	845.47	246.27	2.8619e-06	5.5914e-06	289.12	117.84	86.655	45.554	4.9831e-06	67.464	0.00047694	0.0004548	0.00012433	721.79	5.1635e-06	4.8641e-06	825.71	242.75	4.7247e-06	5.1109e-06	286.71	117.3	86.256	45.631	5.1462e-06	67.17	237.770	60.586	74.626	9.471	170.498	138.740	8.699	14.443	201.714	127.248	12.602	18.317	21.204	25.112	193.874	21.915	-8191	255	
41240.348	1	1	0	0	0.1881	0.28991	0.15302	0.23819	0.041681	0.34525	0.056877	0.043201	0.12954	0.067745	0.16309	0.29218	0.13525	0.13924	0.24545	0.15722	-1.3167	-1.8083	-1.5438	-2.15	-1.4875	-1.5792	-2.0229	-1.5938	-1.9167	-1.8604	-1.5125	-2.0396	-1.9	-1.5854	-2.2354	-1.5792	291.870	301.745	93.620	300.964	294.668	203.481	164.961	226.411	159.516	78.143	119.433	295.452	324.161	121.338	150.672	312.897	0.00046428	0.00059004	0.00011107	733.88	8.1336e-06	6.8684e-06	835.12	244.85	2.8868e-06	4.6822e-06	288.5	116.81	86.094	45.307	8.7949e-06	67.102	0.00049144	0.00047836	0.00012866	720.23	5.2156e-06	4.9008e-06	819.45	242.86	4.7786e-06	5.2392e-06	286.5	116.34	86.326	45.517	5.1335e-06	66.772	239.546	40.299	116.922	9.048	185.161	144.169	8.379	14.441	205.288	129.782	12.567	17.909	21.354	25.239	178.923	21.586	-8191	255	
41240.441	1	1	0	0	0.095941	0.42626	0.15432	0.3106	0.11431	0.42381	0.15382	0.19786	0.21644	0.10948	0.2278	0.092785	0.14919	0.14777	0.11961	0.45252	-1.2417	-1.9083	-1.5187	-1.8542	-1.8062	-1.6313	-2.1417	-1.7021	-1.6104	-2.1063	-1.3604	-1.9083	-1.7854	-1.5708	-2.1792	-1.7687	41.544	232.601	33.993	292.806	63.252	327.794	261.337	17.889	201.180	120.224	302.934	239.340	37.595	205.891	150.209	287.739	0.00045425	0.00043575	0.00013666	733.99	5.0275e-06	2.9205e-06	835.85	245.86	4.4354e-06	8.8925e-06	288.5	116.99	86.89	44.988	9.0422e-06	67.031	0.00049321	0.00046941	0.00013276	720.14	5.2181e-06	4.9924e-06	821.3	242.61	4.7291e-06	5.1069e-06	284.82	116.3	85.93	45.268	5.1345e-06	66.706	234.849	63.298	66.967	9.061	166.895	165.055	8.407	14.720	210.428	137.118	12.501	18.439	21.070	25.135	174.457	21.707	-8191	255	
41240.539	1	1	0	0	0.13947	0.36993	0.095731	0.081386	0.43455	0.20555	0.33561	0.23039	0.086236	0.33747	0.21858	0.33236	0.071954	0.071443	0.095512	0.3575	-1.2687	-1.9208	-1.3667	-2.0771	-1.6729	-1.7292	-2.0542	-1.7729	-1.8458	-2.15	-1.4521	-2.0021	-1.6979	-1.6021	-2.0625	-1.8292	149.437	294.508	303.645	322.127	115.625	13.301	322.055	350.585	162.543	86.473	100.282	73.005	10.751	270.276	86.916	9.570	0.00046478	0.00047658	0.00014289	730.97	6.6311e-06	6.1403e-06	840.01	246.26	3.1325e-06	2.9048e-06	287.91	118.34	86.13	45.384	5.0272e-06	67.145	0.00049891	0.00047839	0.00013466	720.81	5.2212e-06	5.1181e-06	823.51	242.61	4.8523e-06	5.1353e-06	285.88	117.14	86.171	45.506	5.0079e-06	67.02	235.903	71.067	110.890	8.829	176.486	131.614	8.452	14.518	174.606	169.282	12.076	18.285	21.410	25.116	175.701	21.824	-8191	255	
41240.660	1	1	0	0	0.29627	0.053577	0.12865	0.11938	0.13278	0.2045	0.29429	0.25261	0.078456	0.11196	0.12618	0.23742	0.23951	0.33432	0.16385	0.13218	-1.3167	-2.0021	-1.4062	-2.0187	-1.8396	-1.3917	-2.0125	-1.8875	-1.5583	-2.0062	-1.4104	-1.8813	-1.9729	-1.6104	-1.9042	-2.0479	24.548	101.854	126.501	273.708	212.469	272.461	223.138	323.285	188.221	80.944	204.660	313.874	79.855	311.212	101.316	329.205	0.00042454	0.00068572	0.00014636	732.64	5.7085e-06	7.5686e-06	842.65	246.93	4.7114e-06	7.8487e-06	288.93	118.02	85.61	45.315	7.5646e-06	67.017	0.00049151	0.00047656	0.00013082	721.7	5.096e-06	4.916e-06	825.35	242.91	4.8446e-06	4.9122e-06	285.9	117.11	85.788	45.439	5.103e-06	66.629	235.351	92.894	63.704	8.950	170.369	166.528	8.486	14.633	211.464	158.289	12.046	18.009	20.918	25.265	163.554	21.903	-8191	255	
41240.754	1	1	0	0	0.087316	0.2672	0.16094	0.062403	0.16384	0.12053	0.332	0.18397	0.15107	0.20527	0.19697	0.19114	0.15071	0.15758	0.25825	0.15736	-1.0854	-1.8312	-1.5896	-1.8708	-1.9333	-1.4292	-1.9729	-1.9125	-1.5146	-2.2583	-1.7687	-2.0083	-1.9333	-1.5438	-1.8875	-1.9271	260.523	351.370	208.697	235.925	118.002	152.729	289.136	235.508	292.812	180.624	52.622	246.173	314.714	278.584	75.516	240.556	0.0004161	0.00042072	0.00019039	729.46	3.658e-06	3.5597e-06	839.14	243.98	4.0108e-06	3.6942e-06	287.59	116.39	85.243	44.58	5.4779e-06	65.449	0.00049334	0.00048069	0.00013474	720.49	5.0751e-06	5.1229e-06	821.27	241.13	5.0904e-06	5.1419e-06	284.01	115.26	84.936	44.743	5.0737e-06	65.28	237.754	93.576	106.367	9.056	165.776	167.584	8.194	14.506	214.026	159.614	12.241	18.081	21.478	24.829	166.330	21.660	-8191	255	
41240.828	1	1	0	0	0.033393	0.27182	0.03844	0.18014	0.17604	0.16846	0.17875	0.1229	0.1705	0.17111	0.1605	0.103	0.18154	0.19011	0.1369	0.23023	-1.2104	-1.8833	-1.85	-1.6917	-2.0187	-1.3125	-1.8271	-1.9792	-1.5021	-2.0625	-1.7458	-1.6479	-2.0563	-1.6854	-1.9458	-1.9083	222.644	290.473	220.937	220.067	240.439	4.513	309.993	3.486	235.483	187.741	268.021	277.341	92.674	5.913	355.680	292.694	0.00041948	0.00064367	0.00012387	733.59	5.1633e-06	3.9248e-06	841.78	243.37	4.1827e-06	5.7985e-06	284.07	115.12	85.534	44.412	5.9206e-06	65.53	0.00050334	0.00046778	0.0001348	720.48	5.1165e-06	5.4849e-06	822.08	241.03	5.0584e-06	5.1548e-06	282.72	114.76	85.335	44.637	5.1855e-06	65.198	235.461	80.625	68.205	8.936	168.384	127.104	8.418	14.798	193.491	169.073	11.905	18.518	20.968	25.097	194.357	21.773	-8191	255	
41240.945	1	1	0	0	0.16367	0.26124	0.29199	0.24976	0.38422	0.28615	0.17013	0.38423	0.11605	0.17021	0.018813	0.14461	0.15656	0.3564	0.17175	0.15413	-0.91875	-1.6958	-1.825	-1.7396	-2.1312	-1.8563	-1.8729	-1.7021	-1.4104	-1.9854	-1.6375	-1.6125	-2.1396	-1.7729	-1.825	-2.0854	329.910	263.769	93.019	194.697	208.064	239.304	116.569	321.837	191.618	97.579	10.419	231.504	1.235	248.222	10.838	128.027	0.00043366	0.00068751	0.00016944	730.59	3.0189e-06	2.6903e-06	837.36	243.43	2.2182e-06	5.094e-06	289.88	115.68	85.43	44.779	5.0269e-06	66.408	0.00050839	0.00047397	0.00013768	718.83	5.3005e-06	5.3621e-06	821.2	240.94	5.0534e-06	5.2927e-06	285.29	115.34	85.546	44.97	5.2322e-06	65.833	236.997	75.526	86.347	8.895	152.451	129.787	8.366	14.527	210.755	128.553	12.714	18.180	21.339	25.190	164.023	21.756	-8191	255	
41241.043	1	1	0	0	0.041817	0.16064	0.18277	0.2305	0.067285	0.18394	0.11589	0.31608	0.052639	0.099934	0.30236	0.21613	0.31038	0.13513	0.26713	0.27627	-1.3396	-1.8729	-1.8125	-1.5812	-2.0375	-1.65	-1.8667	-2.0104	-1.6021	-1.9375	-1.7708	-1.6333	-2.1458	-1.8229	-1.875	-2.0979	138.392	18.873	201.516	272.619	267.313	335.553	144.205	306.343	51.519	160.997	275.892	-1.782	63.136	287.648	256.045	351.420	0.00042258	0.00043996	8.884e-05	739.38	3.0686e-06	9.7599e-06	842.48	243.73	6.1161e-06	5.2947e-06	288	116.26	86.426	45.025	4.1408e-06	66.273	0.00052022	0.00049379	0.00013803	724.72	5.209e-06	5.4675e-06	825.34	241.34	5.4212e-06	5.202e-06	285.02	115.93	85.97	45.175	5.1848e-06	66.081	236.831	101.018	102.326	9.197	191.696	123.288	8.372	14.463	208.236	153.079	12.463	18.319	21.303	25.081	169.199	21.765	-8191	255	
41241.137	1	1	0	0	0.14785	0.16382	0.24919	0.29827	0.12751	0.11849	0.29842	0.11098	0.084006	0.14816	0.24195	0.208	0.19069	0.22132	0.16924	0.20929	-1.2021	-1.8083	-1.8042	-1.4604	-2.1937	-1.7625	-1.825	-2.2021	-1.5875	-2.0312	-1.7563	-1.4062	-1.7729	-1.8292	-1.55	-2.1208	305.641	6.534	216.040	286.799	244.680	85.105	298.429	283.631	294.349	34.842	102.616	57.959	77.708	332.628	167.177	240.730	0.0004165	0.00050884	0.00015445	733.8	5.443e-06	6.8556e-06	844.28	244.59	5.7645e-06	3.9327e-06	285.44	116.99	86.034	45.086	6.2403e-06	66.668	0.00051967	0.00047244	0.00013901	724.89	5.2351e-06	5.4471e-06	828.82	241.89	5.5171e-06	5.3805e-06	285	116.12	85.755	45.221	5.5294e-06	66.025	237.641	101.515	78.473	9.007	135.747	160.448	8.287	14.497	191.031	145.420	12.156	18.092	21.289	25.268	161.095	21.834	-8191	255	
41241.234	1	1	0	0	0.060115	0.10578	0.14626	0.19368	0.098065	0.17407	0.35097	0.23373	0.17145	0.046824	0.20874	0.18049	0.14488	0.21579	0.2383	0.074977	-1.0812	-1.9021	-1.8083	-1.8375	-1.9417	-1.6979	-1.6792	-2.1167	-1.6646	-1.8625	-1.9271	-1.6875	-1.6625	-1.9396	-1.5375	-2.0521	184.441	62.814	54.645	160.563	271.720	200.909	356.139	346.750	97.576	190.677	242.520	65.014	217.347	356.509	67.590	306.262	0.00044058	0.00057384	0.00015014	740.33	5.3184e-06	6.0798e-06	851.45	247.11	3.1259e-06	2.8681e-06	288.77	117.6	86.882	45.608	5.1364e-06	66.994	0.00052189	0.00047563	0.00014215	728.71	5.2337e-06	5.7293e-06	830.12	243.86	5.4313e-06	4.9697e-06	286.38	117.09	86.908	45.806	5.5011e-06	66.58	238.694	92.102	91.216	9.297	152.253	189.955	8.488	14.630	193.900	157.805	12.826	18.209	20.639	25.424	159.267	21.826	-8191	255	
41241.355	1	1	0	0	0.088088	0.24002	0.36981	0.12599	0.288	0.23335	0.15559	0.16633	0.23422	0.27465	0.11729	0.37569	0.16737	0.18865	0.1056	0.36694	-1.1521	-1.6333	-1.9875	-1.4979	-2.0125	-1.9292	-1.6979	-2.1333	-1.7146	-1.6125	-1.9937	-1.6229	-1.7521	-2.0125	-1.6771	-2.1667	148.674	86.985	132.299	299.434	135.842	270.717	343.401	329.044	131.014	136.238	25.393	322.895	239.169	282.427	337.883	23.606	0.00044155	0.00084577	0.00013125	740.28	6.2544e-06	4.7948e-06	848.43	247.51	2.6633e-06	8.9706e-06	288.88	117.39	87.077	45.342	5.4015e-06	66.48	0.00052872	0.00050304	0.00013985	729.17	5.0344e-06	5.7056e-06	829.22	244.26	5.4727e-06	5.3919e-06	285.98	116.45	86.756	45.448	5.6065e-06	65.992	237.273	93.805	114.804	8.805	149.494	160.094	8.611	14.472	208.281	160.627	12.015	18.054	21.303	25.002	187.098	21.984	-8191	255	
41241.426	1	1	0	0	0.097715	0.1619	0.25457	0.26222	0.24994	0.047631	0.26522	0.24386	0.33841	0.16935	0.26868	0.1591	0.11611	0.10705	0.35111	0.2644	-1.1083	-1.4688	-2.0708	-1.7062	-1.6646	-1.9604	-1.6625	-1.9688	-1.8	-1.6021	-1.9854	-1.4604	-1.8083	-1.8479	-1.5875	-1.9188	347.884	306.911	337.484	209.705	139.552	285.027	320.407	19.871	194.993	222.846	267.504	342.926	195.451	22.587	332.513	337.836	0.00044355	0.00068265	8.9303e-05	736.32	2.9476e-06	5.979e-06	840.58	245.86	1.7557e-06	5.372e-06	288.09	117.1	86.955	45.228	6.371e-06	65.945	0.00052816	0.00048714	0.00014211	726.23	5.1701e-06	5.4274e-06	825.72	242.63	5.3582e-06	5.3344e-06	284.31	116.06	85.937	45.188	5.4929e-06	65.934	239.661	67.699	108.497	9.303	178.011	120.822	8.528	14.524	206.958	151.038	12.737	18.039	21.248	25.136	184.208	21.976	-8191	255	
41241.523	1	1	0	0	0.1754	0.21514	0.32612	0.33745	0.053238	0.16785	0.54439	0.088677	0.051459	0.27679	0.20146	0.11152	0.077312	0.1616	0.062312	0.14373	-1.1625	-1.4958	-1.9667	-1.5417	-1.5708	-1.8375	-1.6271	-1.8062	-1.7417	-1.5667	-2.0375	-1.6938	-1.7938	-2.0104	-1.5042	-2.0667	84.131	326.846	153.744	338.019	85.175	178.259	262.656	149.106	0.217	248.013	62.169	138.541	17.225	37.560	117.395	43.467	0.00042818	0.00069663	9.8539e-05	730.82	6.1562e-06	4.0928e-06	842.33	243.43	5.7371e-06	5.697e-06	287.47	115.95	84.519	43.938	5.2149e-06	65.108	0.00054687	0.00049176	0.00013501	720.99	5.1735e-06	5.4456e-06	823.07	241.07	5.4441e-06	5.4671e-06	283.63	114.78	84.46	44.151	5.4834e-06	64.617	236.084	88.509	78.284	9.025	184.034	191.025	8.294	14.474	201.304	133.870	12.251	18.276	21.324	24.908	198.338	21.994	-8191	255	
41241.617	1	1	0	0	0.2714	0.069361	0.19911	0.18215	0.045774	0.23986	0.14675	0.083745	0.29152	0.080819	0.10876	0.10274	0.039722	0.071498	0.10504	0.24785	-1.45	-1.6083	-1.9542	-1.7833	-1.8208	-2.1437	-1.5833	-2.0521	-1.7042	-1.6167	-2.1188	-1.7708	-1.7583	-2	-1.5667	-1.9312	25.275	34.423	35.770	120.020	257.578	38.090	235.008	26.975	-0.350	161.172	284.265	169.815	203.625	255.434	346.745	347.696	0.00040945	0.00078306	0.00019093	728.04	3.6077e-06	3.0649e-06	830.72	240.59	4.8228e-06	4.664e-06	282.7	112.47	83.564	43.081	3.6135e-06	63.866	0.00053381	0.00049762	0.00013335	715.11	5.0727e-06	5.3629e-06	814.03	237.68	5.3632e-06	5.1839e-06	278.74	112.04	83.211	43.372	5.3047e-06	63.386	238.318	72.855	97.683	8.987	153.186	174.022	8.365	14.509	200.811	161.583	12.158	17.803	21.305	25.335	187.854	21.928	-8191	255	
41241.738	1	1	0	0	0.34561	0.21207	0.33313	0.25572	0.23981	0.51717	0.2488	0.2178	0.11979	0.14455	0.019371	0.29026	0.17642	0.2945	0.17359	0.25499	-1.6146	-1.3625	-1.8438	-1.9312	-1.65	-2.1188	-1.9292	-2.0083	-2.0729	-1.5792	-1.9479	-1.8646	-1.7042	-2.1937	-1.6646	-1.9188	111.151	148.733	125.110	250.223	325.283	103.478	182.002	257.950	189.522	268.641	83.372	23.998	36.437	315.886	94.505	265.266	0.00042377	0.00031018	0.00014647	722.9	3.0643e-06	6.5937e-06	829.14	240.17	4.8609e-06	6.2441e-06	282.29	113.4	83.635	43.124	7.5468e-06	64.073	0.00051847	0.00046369	0.00013301	711.23	4.9148e-06	5.2676e-06	810.57	236.91	5.1103e-06	5.2348e-06	278.59	112.19	82.826	43.252	5.2343e-06	63.462	234.844	96.921	74.376	9.011	171.841	122.795	8.321	14.598	231.274	149.090	12.039	18.139	21.566	25.100	182.693	21.856	-8191	255	
41241.836	1	1	0	0	0.15786	0.18436	0.14786	0.058344	0.20133	0.2004	0.24951	0.46363	0.055464	0.012187	0.10164	0.15371	0.18327	0.25184	0.23019	0.044139	-1.6	-1.4667	-1.9958	-1.8375	-1.5896	-2.1104	-1.9646	-1.6167	-1.8396	-1.3792	-1.9229	-2.1021	-1.4146	-2.2604	-1.5375	-1.975	266.366	219.970	318.677	-0.570	265.993	116.477	169.139	314.406	241.110	217.848	211.134	187.707	16.792	328.557	312.283	186.398	0.00041312	0.00039647	0.00016273	719.92	4.8328e-06	6.5793e-06	829.32	239.97	2.8071e-06	3.5456e-06	284.13	112.5	83.833	43.141	4.4506e-06	64.292	0.00050486	0.00046206	0.00012403	709.28	4.8525e-06	5.2123e-06	809.18	236.35	4.9955e-06	4.917e-06	279.44	112.09	82.925	43.242	5.2923e-06	63.701	235.857	63.430	57.605	9.057	190.231	150.851	8.582	14.478	185.480	125.618	12.222	18.040	20.904	25.115	174.657	21.673	-8191	255	
41241.934	1	1	0	0	0.10998	0.14307	0.08929	0.080193	0.44598	0.10213	0.32147	0.23697	0.13861	0.069544	0.18333	0.33565	0.15377	0.074239	0.11943	0.42283	-1.6187	-1.3563	-1.8771	-1.7979	-1.6875	-1.8125	-1.8771	-1.8042	-2.1333	-1.5146	-1.7792	-1.9229	-1.5854	-1.9833	-1.775	-1.6417	51.660	145.549	337.668	171.705	134.951	3.977	309.743	347.139	15.484	152.873	296.360	230.576	257.668	59.878	21.322	285.562	0.00043752	0.00046141	8.6158e-05	723.8	6.0774e-06	4.8143e-06	828.61	240.79	5.9959e-06	5.9309e-06	283.64	113.6	83.159	43.342	6.5351e-06	64.699	0.00048855	0.00046525	0.0001201	709.55	4.8685e-06	4.573e-06	809.52	237.06	4.9167e-06	5.1216e-06	279.97	112.86	83.334	43.448	5.1635e-06	64.358	235.804	80.396	77.083	9.211	177.876	171.177	8.543	14.400	198.554	131.190	12.367	17.823	20.882	25.121	175.098	21.807	-8191	255	
41242.027	1	1	0	0	0.15792	0.08953	0.24089	0.17486	0.13313	0.19158	0.35603	0.19237	0.13261	0.074104	0.093998	0.17538	0.1754	0.20994	0.11802	0.26198	-1.6125	-1.55	-1.7875	-2.2583	-1.5458	-2.0187	-1.8146	-1.8	-2.0146	-1.6375	-1.8875	-2.0042	-1.5583	-2.1479	-1.7042	-1.7521	314.914	292.882	53.108	68.856	256.733	291.487	-0.445	225.050	222.057	225.415	45.955	265.280	4.627	282.724	283.645	272.671	0.00039987	0.00052439	0.00017877	720.24	5.9613e-06	6.6962e-06	826.45	240.87	4.1283e-06	5.6649e-06	280.84	113.25	83.982	43.224	4.4459e-06	63.709	0.00048407	0.00045434	0.00012194	708.43	4.9081e-06	4.9179e-06	810.98	238.13	4.623e-06	5.1083e-06	278.72	112.93	83.63	43.444	5.2704e-06	63.526	241.820	77.750	93.861	8.924	167.886	141.532	8.743	14.365	174.013	160.285	12.194	18.220	20.638	25.213	235.242	21.877	-8191	255	
41242.121	1	1	0	0	0.040407	0.13936	0.21926	0.21423	0.20616	0.1113	0.12046	0.17534	0.16507	0.26283	0.018698	0.088997	0.16625	0.35998	0.16819	0.38091	-1.7	-1.6562	-1.6896	-2.0771	-1.5417	-1.6688	-1.7417	-1.6104	-1.9521	-1.5896	-1.8833	-2.0625	-1.6125	-1.8521	-1.9604	-1.4688	113.256	202.755	257.732	296.617	75.753	287.874	177.312	295.521	159.155	282.560	334.176	314.587	153.829	309.608	87.739	276.128	0.00039814	0.00064825	0.00012492	724.36	4.2116e-06	3.5523e-06	825.28	241.75	4.1443e-06	6.0467e-06	281.12	112.66	83.804	43.09	5.7136e-06	63.678	0.00047398	0.00046954	0.00012087	711.13	4.9937e-06	4.8107e-06	808.61	237.98	4.6661e-06	5.0671e-06	278.12	112.02	83.562	43.251	5.252e-06	63.204	245.205	109.898	77.775	9.173	170.577	115.336	8.387	14.339	198.813	127.268	12.257	18.135	20.805	25.357	176.155	21.754	-8191	255	
41242.219	1	1	0	0	0.25989	0.15349	0.22179	0.059029	0.20338	0.18209	0.27522	0.27722	0.091387	0.086078	0.041971	0.15181	0.15303	0.12983	0.38034	0.216	-1.3646	-1.5896	-1.6875	-1.9937	-1.4167	-1.8896	-2.0583	-1.4688	-2.1458	-1.7208	-1.6896	-1.9208	-1.5104	-1.8458	-1.8875	-1.6292	248.371	259.387	226.946	39.256	279.089	165.701	270.810	325.024	183.424	201.016	35.745	290.388	285.517	71.548	113.612	320.971	0.00039154	0.00044476	0.00016411	722.08	4.7008e-06	5.8313e-06	828.95	241.02	2.6564e-06	3.0793e-06	285	113.21	83.836	43.326	4.8538e-06	63.864	0.00048162	0.00048145	0.00012814	710.19	5.0737e-06	4.9127e-06	810.48	237.92	4.8136e-06	5.2164e-06	279.63	112.38	83.603	43.412	5.2626e-06	63.597	238.476	91.722	93.035	8.976	146.710	139.832	8.233	14.196	224.675	154.352	11.976	18.144	20.783	25.278	205.705	21.795	-8191	255	
41242.340	1	1	0	0	0.066826	0.25365	0.32049	0.33297	0.23704	0.37038	0.18536	0.39904	0.036272	0.24332	0.15533	0.035236	0.04471	0.30414	0.16455	0.11835	-1.4792	-1.6146	-1.65	-2.1542	-1.6354	-1.8417	-2.1333	-1.5792	-1.8917	-1.8	-1.5438	-2.0771	-1.7542	-1.5854	-2.0875	-1.4771	152.074	92.886	324.423	296.129	179.095	333.754	86.919	300.832	334.327	339.573	14.407	221.802	168.098	337.469	281.235	30.812	0.00039619	0.00051034	9.4476e-05	723.12	2.913e-06	5.8768e-06	833.47	240.87	3.8894e-06	1.4918e-06	282	114.26	84.466	43.705	2.8593e-06	64.497	0.00046929	0.00046229	0.00012971	711.41	4.9221e-06	4.7977e-06	814.8	238.34	4.8015e-06	5.1762e-06	281.19	113.15	83.842	43.844	5.2322e-06	64.095	239.085	90.711	58.064	9.245	151.532	159.571	8.453	14.539	206.169	99.513	12.585	18.165	21.111	25.450	170.116	21.883	-8191	255	
41242.434	1	1	0	0	0.06215	0.13285	0.033116	0.14494	0.13217	0.18631	0.25407	0.095063	0.12718	0.047503	0.074839	0.15059	0.22604	0.15014	0.14751	0.058703	-1.4875	-1.7521	-1.725	-2.1437	-1.6875	-1.6917	-2.1958	-1.6938	-1.7958	-1.9229	-1.4896	-2.1875	-1.7812	-1.7542	-1.9729	-1.7042	217.046	83.171	65.620	46.580	221.334	352.476	331.462	334.337	184.281	120.229	200.074	291.474	270.003	2.252	347.199	150.078	0.00040423	0.00041347	0.0001149	722.43	6.1178e-06	5.2285e-06	833.42	243.07	4.8306e-06	4.7408e-06	284.97	114.44	84.623	43.82	4.6029e-06	64.42	0.00047789	0.00047769	0.00013107	712.99	5.1029e-06	4.9709e-06	815.82	239.62	4.8611e-06	5.1895e-06	282.49	113.8	84.139	43.901	5.2856e-06	64.269	242.388	73.928	102.804	9.125	182.270	191.129	8.428	14.528	188.783	136.870	12.083	18.242	21.112	25.148	199.411	21.935	-8191	255	
41242.531	1	1	0	0	0.26775	0.05391	0.18498	0.097891	0.24294	0.078084	0.20688	0.27245	0.12001	0.31116	0.23797	0.19557	0.24528	0.064168	0.10321	0.14785	-1.3896	-1.8458	-1.4583	-2.2146	-1.4896	-1.7938	-2.15	-1.7062	-1.9042	-1.8229	-1.5458	-2.0208	-1.7479	-1.5979	-2.0438	-1.8458	136.010	345.063	45.368	295.035	312.400	339.570	256.659	271.547	241.045	209.808	282.873	106.576	309.888	5.740	135.357	298.093	0.00042651	0.00086872	9.7574e-05	729.38	5.6196e-06	5.7248e-06	831.16	241.3	4.6631e-06	2.7992e-06	281.41	113.63	84.528	43.39	5.3648e-06	63.524	0.00047855	0.00048927	0.00013351	714.88	5.1725e-06	4.9627e-06	814.37	238.85	4.9285e-06	5.0792e-06	280.82	112.77	83.687	43.638	4.9849e-06	63.459	239.060	62.078	55.825	8.915	185.340	154.934	8.659	14.609	225.054	147.870	12.504	18.526	20.831	25.494	192.129	21.813	-8191	255	
41242.652	1	1	0	0	0.089115	0.072487	0.16183	0.13128	0.2979	0.11924	0.22406	0.071509	0.3137	0.070078	0.30221	0.27384	0.17653	0.3742	0.37045	0.19469	-1.3854	-2.0458	-1.4625	-1.9375	-1.5979	-1.6812	-2.1688	-1.65	-1.8208	-2.0708	-1.4646	-2.0083	-1.7958	-1.6938	-2.1104	-1.6396	306.045	268.123	91.090	49.280	155.059	-0.137	284.953	290.824	283.075	74.666	343.394	337.872	157.974	356.258	-2.517	230.773	0.00040977	0.00034763	0.00015541	719.11	4.9967e-06	3.4906e-06	831.29	241.48	2.7276e-06	4.312e-06	282.66	113.51	84.773	43.673	6.486e-06	64.365	0.00048373	0.00046848	0.00013049	710.38	5.0671e-06	5.0462e-06	813.39	238.54	4.6392e-06	5.0431e-06	279.38	112.65	83.811	43.739	4.9958e-06	63.815	234.813	57.726	100.200	9.337	139.819	135.930	8.461	14.305	243.350	135.116	12.160	17.989	21.139	25.242	206.635	21.816	-8191	255	
41242.723	1	1	0	0	0.19577	0.16202	0.27943	0.1739	0.25829	0.10581	0.26867	0.050526	0.17035	0.17903	0.12347	0.16119	0.23496	0.19994	0.21419	0.42737	-1.0979	-1.9354	-1.5021	-1.8854	-1.9333	-1.5521	-2.1021	-1.8604	-1.6604	-2.0771	-1.6187	-1.6896	-1.9208	-1.5562	-1.9438	-1.7771	67.557	250.873	87.644	83.867	242.743	28.055	331.186	328.982	318.497	202.049	47.762	288.786	57.249	328.977	232.381	251.816	0.00042447	0.00059573	0.00014309	724.92	5.186e-06	4.4126e-06	834.43	243.07	2.1209e-06	4.8661e-06	281.57	114.01	83.965	43.579	5.7692e-06	64.505	0.00050531	0.00046345	0.00013356	712.27	5.1885e-06	5.1467e-06	815.37	238.91	4.9123e-06	4.8886e-06	280.17	113.07	84.061	43.878	5.0369e-06	64.239	233.518	71.569	76.854	8.952	162.028	172.275	8.603	14.549	181.278	118.443	12.192	18.188	21.564	25.149	206.945	21.828	-8191	255	
41242.820	1	1	0	0	0.10098	0.10674	0.12208	0.12755	0.31305	0.0943	0.20344	0.18489	0.086274	0.32174	0.34891	0.16152	0.27449	0.20674	0.25179	0.077253	-1.0604	-1.9312	-1.5708	-1.9979	-1.9229	-1.525	-2.0312	-1.9417	-1.5938	-2.0146	-1.6479	-1.85	-1.8979	-1.7104	-1.9875	-1.8146	113.484	118.520	270.481	286.911	118.985	228.103	241.315	72.150	26.758	78.076	8.320	22.156	38.683	346.653	277.667	287.474	0.0003913	0.00051242	0.00015153	725.24	3.8465e-06	6.8873e-06	834.61	241.71	2.6723e-06	3.8162e-06	287.73	114.57	84.704	44.04	6.9233e-06	64.961	0.00048977	0.00044862	0.00013082	713.75	5.0139e-06	4.9865e-06	817.95	239.56	4.7298e-06	4.9092e-06	282.84	113.85	84.446	44.255	4.8349e-06	64.757	238.641	78.310	75.000	8.986	170.752	159.124	8.483	14.602	204.951	156.145	13.016	18.121	20.753	25.404	195.655	21.900	-8191	255	
41242.914	1	1	0	0	0.25875	0.13973	0.086668	0.20494	0.28968	0.12504	0.27152	0.19076	0.15903	0.24354	0.21687	0.13511	0.1638	0.41604	0.052629	0.20302	-1.2229	-1.9646	-1.2917	-1.95	-1.9271	-1.4312	-2.0417	-1.8208	-1.5958	-2.0146	-1.7896	-1.6875	-2.1688	-1.5604	-1.6729	-2.125	341.922	49.315	129.665	97.442	317.577	155.196	298.027	343.373	263.402	22.666	29.416	233.725	326.323	327.057	180.591	67.145	0.0004383	0.00060921	0.00012091	729.19	5.4683e-06	5.4675e-06	836.33	242.94	4.3378e-06	2.2147e-06	287.11	113.41	84.698	43.731	7.8892e-06	64.56	0.00049033	0.00046312	0.00012773	717.69	5.0073e-06	5.0573e-06	821.71	240.47	4.9409e-06	4.987e-06	283.65	113.48	84.411	43.955	5.1451e-06	64.29	240.367	74.158	58.957	8.991	175.861	161.432	8.407	14.556	183.738	175.252	12.068	17.715	20.407	25.323	175.725	21.810	-8191	255	
41243.035	1	1	0	0	0.27257	0.16614	0.27306	0.13775	0.16342	0.05131	0.30587	0.17833	0.22198	0.16433	0.072404	0.41892	0.17472	0.15605	0.077983	0.43714	-1.1938	-1.9562	-1.7646	-1.6771	-1.9917	-1.6604	-1.8687	-1.9604	-1.575	-1.9	-1.7833	-1.4583	-2.0208	-1.5375	-1.8208	-1.9917	119.159	42.305	279.082	336.721	350.976	129.764	317.528	253.623	352.312	227.174	346.856	21.009	247.360	92.921	163.048	311.151	0.00041252	0.00029773	0.00012163	728.78	8.444e-06	5.1754e-06	839.83	243.11	3.9518e-06	6.7332e-06	285.55	114.27	84.764	43.545	5.14e-06	64.301	0.00049554	0.00043671	0.0001348	716.7	5.0452e-06	5.1482e-06	819.96	240.49	4.8082e-06	4.9815e-06	283.06	113.43	84.161	43.775	4.8628e-06	63.948	241.852	36.590	99.272	8.918	161.803	167.178	8.398	14.514	201.195	145.868	12.749	18.031	20.938	25.258	194.722	21.941	-8191	255	
41243.133	1	1	0	0	0.27111	0.039529	0.13519	0.21476	0.078489	0.29489	0.2383	0.10685	0.25193	0.074056	0.14078	0.12221	0.14056	0.25682	0.22584	0.24302	-1.0063	-1.8604	-1.6417	-1.7146	-1.9208	-1.5562	-1.7958	-2.3208	-1.5333	-2.0042	-1.9354	-1.6708	-1.9896	-1.575	-1.5708	-2.2292	141.876	14.793	28.633	213.379	289.287	210.236	236.977	31.204	87.992	295.279	265.967	292.045	226.428	33.603	223.537	283.357	0.00043672	0.00039955	0.00011538	725.88	6.9213e-06	4.0189e-06	835.69	242.43	4.723e-06	4.3005e-06	284.07	113.49	83.655	43.702	4.2905e-06	64.242	0.00050592	0.00045703	0.00013543	714.46	5.0247e-06	5.3087e-06	817.66	240.27	4.8513e-06	4.8171e-06	282.18	112.86	83.713	43.742	4.9063e-06	63.928	238.300	70.352	74.137	9.044	176.993	136.360	8.811	14.383	213.549	117.226	12.727	17.955	21.839	25.152	208.437	22.037	-8191	255	
41243.227	1	1	0	0	0.094093	0.18944	0.12201	0.26731	0.068314	0.30236	0.088607	0.12273	0.25644	0.18245	0.17938	0.18538	0.11905	0.21619	0.02092	0.33041	-1.0625	-1.8854	-1.8542	-1.5104	-2.2188	-1.4896	-1.8667	-2.0729	-1.5854	-1.8958	-1.775	-1.4167	-2.0292	-1.8167	-1.5542	-2.0792	302.416	189.185	304.209	304.385	214.664	48.682	251.003	295.044	259.310	90.924	288.934	145.884	328.106	253.745	34.838	332.756	0.00041415	0.00053968	0.00020301	722.56	4.9255e-06	5.6847e-06	834.46	244.07	3.9559e-06	5.252e-06	283.93	113.41	84.534	43.541	7.0766e-06	63.834	0.000499	0.00046202	0.00013236	713.33	4.8271e-06	5.2183e-06	819.91	240.3	5.0066e-06	4.9177e-06	282.5	113.16	84.251	43.661	5.2895e-06	63.716	234.802	101.163	94.584	9.098	139.142	144.156	8.345	14.410	204.423	155.711	12.417	17.939	20.867	25.232	175.054	22.001	-8191	255	
41243.301	1	1	0	0	0.30728	0.18229	0.075191	0.16728	0.24634	0.074923	0.12016	0.19501	0.10103	0.18687	0.087006	0.22459	0.24957	0.18982	0.18576	0.21555	-1.1667	-1.6938	-2.0021	-1.5083	-1.8813	-1.7708	-1.7521	-2.1813	-1.6146	-1.6812	-1.8875	-1.6271	-1.8583	-1.6896	-1.55	-2.2438	43.029	283.641	62.142	254.836	207.210	53.979	178.134	263.429	228.450	113.586	-2.659	25.696	348.162	254.740	247.422	255.274	0.00040217	0.00045015	0.00011161	730.93	3.3668e-06	4.5164e-06	840.98	241.94	3.6418e-06	5.1588e-06	285.19	114.04	83.827	43.054	4.183e-06	64.032	0.00049526	0.00047703	0.00012944	715.54	4.9481e-06	5.5238e-06	821.73	238.97	5.0403e-06	5.1426e-06	282.09	113.02	83.388	43.344	5.2881e-06	63.617	241.427	103.708	82.767	9.293	183.161	167.404	8.512	14.399	227.413	128.158	12.193	18.047	20.954	25.468	147.077	21.658	-8191	255	
41243.418	1	1	0	0	0.15192	0.10947	0.19088	0.070807	0.12085	0.030884	0.16787	0.15498	0.14081	0.13407	0.25454	0.26735	0.19474	0.32997	0.10251	0.098374	-1.1583	-1.7354	-2.0104	-1.5562	-1.9	-1.8354	-1.8333	-2.0625	-1.5917	-1.7521	-2.1229	-1.5292	-1.9792	-2.0792	-1.5396	-2.0563	312.423	253.229	313.430	304.888	60.774	129.046	63.635	332.584	212.268	100.731	134.587	276.951	278.965	309.933	192.782	312.105	0.00045443	0.00034903	0.00010029	723.73	4.3418e-06	7.5209e-06	836.97	240.87	6.4418e-06	5.182e-06	283.23	112.55	83.062	42.627	4.7e-06	63.022	0.00049646	0.00046086	0.00013367	713.02	5.129e-06	5.3558e-06	817.83	237.88	5.1581e-06	5.0575e-06	280.56	111.72	82.905	42.894	5.3022e-06	62.607	242.201	81.207	83.768	8.880	146.760	143.820	8.583	14.521	235.558	130.268	12.514	18.395	20.593	25.617	224.807	22.301	-8191	255	
41243.516	1	1	0	0	0.11197	0.17381	0.16647	0.22776	0.13336	0.24668	0.093791	0.25808	0.24327	0.15713	0.21129	0.11946	0.038542	0.14791	0.28746	0.24706	-1.2604	-1.5521	-1.9333	-1.5063	-1.9021	-1.8188	-1.6542	-1.8854	-1.4917	-1.7062	-2.0187	-1.4479	-1.7229	-1.9875	-1.4104	-2.0542	16.294	255.563	348.350	187.503	216.955	208.864	5.534	80.601	268.870	75.434	317.625	139.938	275.511	338.273	217.760	253.439	0.00043203	0.00046412	0.0001967	722.25	4.4551e-06	5.6497e-06	830.03	239.56	2.9472e-06	4.4801e-06	281.41	111.49	82.215	42.828	7.0414e-06	63.185	0.00051522	0.00046894	0.00014007	711.98	5.1245e-06	5.5023e-06	813.09	236.63	5.4478e-06	5.3701e-06	278.43	110.99	82.413	42.891	5.4377e-06	62.815	238.816	90.199	94.132	9.026	156.573	134.936	8.463	14.379	214.712	164.137	12.646	18.315	21.239	25.375	160.056	22.106	-8191	255	
41243.613	1	1	0	0	0.059873	0.24851	0.20772	0.09625	0.20079	0.3335	0.28992	0.21534	0.081389	0.32467	0.172	0.20892	0.068782	0.21091	0.11396	0.14845	-1.2958	-1.6063	-2.1146	-1.6896	-1.6854	-1.95	-1.6187	-1.8937	-1.8104	-1.8167	-1.9375	-1.7292	-1.7458	-1.9292	-1.7479	-1.9208	91.761	261.361	346.752	279.272	216.336	218.639	300.486	1.764	328.002	92.643	93.841	14.206	306.114	238.154	209.015	51.420	0.00042978	0.00035131	0.00018053	724.21	6.1916e-06	5.2874e-06	833.5	241.44	5.8172e-06	4.8843e-06	282.8	113.31	83.398	43.318	2.0422e-06	63.785	0.00052927	0.00049333	0.00013825	710.71	5.1029e-06	5.6258e-06	815.03	238.64	5.3747e-06	5.3757e-06	280.57	112.43	83.339	43.285	5.3224e-06	63.557	231.334	59.100	65.695	9.286	199.347	143.158	8.474	14.628	203.886	124.042	12.397	18.268	20.976	25.348	186.505	21.943	-8191	255	
41243.730	1	1	0	0	0.017531	0.13176	0.25552	0.10039	0.093217	0.14242	0.16133	0.094665	0.21566	0.13445	0.036365	0.17162	0.16716	0.21295	0.26696	0.24535	-1.3062	-1.4646	-1.8958	-1.6833	-1.8563	-1.8708	-1.7875	-1.8521	-1.7354	-1.7042	-1.9833	-1.5521	-1.7958	-1.8979	-1.4854	-1.9646	163.311	56.425	355.494	97.819	318.645	234.660	251.998	347.314	7.392	128.576	261.279	1.612	355.416	326.269	171.508	235.304	0.00038348	0.00032836	0.00014786	720.88	4.6669e-06	4.4749e-06	829.43	241	3.2434e-06	5.9749e-06	283.45	113.26	82.834	42.923	6.6112e-06	64.289	0.00051377	0.00049043	0.0001356	711.31	5.3043e-06	5.3618e-06	815.68	238.39	5.3302e-06	5.2219e-06	281.6	112.72	83.056	43.218	5.4812e-06	63.615	247.355	53.760	89.432	8.720	176.165	137.872	8.369	14.215	222.438	135.675	12.385	18.031	20.789	25.422	178.694	22.144	-8191	255	
41243.828	1	1	0	0	0.13943	0.21615	0.17118	0.22167	0.1225	0.18222	0.22777	0.10454	0.088452	0.086408	0.037428	0.27902	0.16765	0.17012	0.06862	0.29314	-1.3813	-1.625	-1.9937	-1.7167	-1.6042	-1.8729	-1.7	-1.8583	-1.9688	-1.5875	-2.0021	-1.8438	-1.6979	-2.2	-1.5938	-1.6729	17.431	33.711	352.395	242.330	71.557	188.387	275.170	114.063	216.743	243.922	76.081	276.622	92.473	265.070	113.400	323.524	0.00039493	0.00044914	0.00011181	722.16	8.4602e-06	2.3656e-06	838.29	239.8	5.4508e-06	6.1026e-06	282.2	110.75	82.88	41.905	5.0265e-06	62.038	0.0005078	0.00048321	0.00012974	712.44	5.3468e-06	5.2776e-06	820.49	236.92	5.3706e-06	5.2953e-06	279.24	110.74	82.022	42.101	5.3801e-06	61.886	238.359	66.531	63.826	8.795	168.229	136.220	8.489	14.464	205.972	130.878	12.476	18.025	21.206	25.467	193.850	21.772	-8191	255	
41243.922	1	1	0	0	0.08155	0.064519	0.046351	0.18013	0.20118	0.2658	0.15816	0.19447	0.14624	0.3143	0.22679	0.042379	0.22866	0.2645	0.13525	0.14658	-1.4396	-1.5292	-1.9688	-1.8479	-1.6562	-2.2188	-1.7333	-1.7604	-2.0708	-1.4875	-1.9708	-1.9167	-1.3771	-2.0146	-1.7938	-1.8229	309.152	335.658	278.129	145.117	216.300	195.278	355.049	327.125	279.441	126.862	33.049	179.680	39.224	281.731	159.577	174.231	0.0004231	0.00047475	0.00017426	724.94	3.6781e-06	2.7601e-06	833.86	238.54	6.1413e-06	6.9785e-06	281.23	110.6	81.669	41.471	6.174e-06	61.619	0.00052151	0.00048195	0.00012669	709.88	5.1367e-06	5.2101e-06	818.03	235.59	5.1548e-06	5.3963e-06	278.64	109.81	81.175	41.658	5.4586e-06	61.315	242.033	111.191	95.027	8.835	185.602	137.531	8.334	14.432	195.733	143.672	12.590	17.859	21.538	25.054	204.674	22.024	-8191	255	
41244.020	1	1	0	0	0.4457	0.13385	0.11409	0.06703	0.15364	0.08244	0.28304	0.11124	0.29901	0.19117	0.043711	0.15043	0.083309	0.1441	0.11087	0.45147	-1.5063	-1.4375	-1.9188	-1.6604	-1.3479	-2.0042	-1.6271	-1.6417	-2.0625	-1.3771	-1.7979	-1.8854	-1.575	-1.8771	-1.6458	-1.4917	296.937	73.821	338.766	276.472	217.135	135.830	292.822	352.408	60.781	9.660	312.526	50.995	230.803	165.312	199.499	271.755	0.00038847	0.00058735	9.0875e-05	722.74	4.6185e-06	1.7905e-06	833.02	236.87	2.9994e-06	1.5979e-06	282.17	110.09	80.644	41.114	6.6685e-06	61.042	0.00050196	0.00048411	0.00013185	708.44	5.2309e-06	5.2175e-06	816.98	234.37	5.1982e-06	5.7503e-06	278.24	109.52	80.788	41.293	5.5753e-06	60.937	227.067	70.129	71.488	9.053	152.541	137.354	8.387	14.412	208.051	135.568	12.020	17.783	20.804	25.334	161.007	22.039	-8191	255	
41244.113	1	1	0	0	0.14494	0.18905	0.077272	0.099508	0.26072	0.1227	0.17608	0.3548	0.19085	0.31015	0.29165	0.11462	0.12552	0.18633	0.2571	0.17422	-1.4479	-1.5292	-1.6521	-1.9417	-1.5979	-1.9146	-1.8875	-1.6333	-2.0021	-1.4854	-1.9083	-1.9312	-1.5229	-1.9333	-1.8292	-1.6792	342.198	121.124	191.596	263.380	223.512	76.329	104.348	28.710	164.055	311.168	207.180	203.532	144.945	8.603	10.676	356.425	0.00038514	0.00064512	0.00015434	717.81	5.4092e-06	3.644e-06	839.21	236.39	3.3446e-06	5.8377e-06	281.72	109.06	80.481	40.929	9.3638e-06	60.857	0.00049626	0.00050903	0.0001335	708.98	5.3777e-06	5.1537e-06	821.28	234.22	5.2561e-06	5.6965e-06	277.83	109.19	80.434	41.031	5.7625e-06	60.676	241.289	90.205	97.028	9.078	152.713	116.739	8.395	14.437	207.084	148.349	12.464	18.040	20.646	25.360	174.166	21.830	-8191	255	
41244.211	1	1	0	0	0.2371	0.29025	0.18836	0.16448	0.28023	0.03549	0.13426	0.14836	0.014997	0.21593	0.18218	0.099198	0.076292	0.24774	0.12437	0.34831	-1.4542	-1.6688	-1.6938	-2.2208	-1.5104	-1.8667	-2.05	-1.6917	-2.0187	-1.6063	-1.6437	-1.9375	-1.55	-1.8667	-1.9542	-1.5187	330.392	274.732	253.117	299.404	215.501	31.408	317.481	79.414	314.074	43.384	80.450	25.042	212.194	9.063	-2.307	272.366	0.00039817	0.00042596	6.7749e-05	727.26	3.4613e-06	3.1169e-06	841.95	237.2	2.8033e-06	6.1233e-06	280.38	109.46	80.021	40.013	5.5526e-06	60.254	0.00051707	0.00053132	0.00014377	714.49	5.3847e-06	5.3659e-06	822.11	234	5.4269e-06	5.7367e-06	278.66	108.99	79.961	40.269	5.9182e-06	59.989	233.879	62.197	54.651	9.029	151.553	144.383	8.286	14.035	240.782	130.914	12.377	18.026	20.552	25.533	174.844	21.932	-8191	255	
41244.332	1	1	0	0	0.11243	0.35744	0.24712	0.36875	0.10698	0.21971	0.38137	0.1033	0.12805	0.2784	0.20046	0.29613	0.22027	0.33014	0.046406	0.12936	-1.5312	-1.7229	-1.6396	-2.1521	-1.4188	-1.8375	-2.0062	-1.5917	-2.0042	-1.5917	-1.4688	-2	-1.5521	-1.9354	-1.9125	-1.4479	192.684	57.571	331.578	323.078	111.757	317.003	299.573	291.678	176.053	327.284	320.503	316.395	186.962	354.245	173.946	316.181	0.00038285	0.00046572	0.00013275	727.93	5.9676e-06	4.8488e-06	841.9	238.26	4.5646e-06	3.3673e-06	281.37	108.73	80.783	39.977	4.2792e-06	59.594	0.00052067	0.00055726	0.00014535	713.23	5.6841e-06	5.7842e-06	823.99	235.06	5.5219e-06	6.174e-06	279.27	108.4	80.57	40.127	6.3116e-06	59.245	242.593	63.392	64.855	8.956	205.422	148.606	8.347	14.363	199.350	185.464	12.039	17.635	21.037	25.436	198.676	22.024	-8191	255	
41244.430	1	1	0	0	0.3111	0.06429	0.056199	0.12787	0.093319	0.13603	0.28658	0.37917	0.22421	0.12869	0.14848	0.4925	0.21727	0.37833	0.12673	0.085082	-1.5396	-1.6646	-1.5208	-2.0042	-1.7792	-1.6437	-2.0312	-1.45	-1.8687	-1.7458	-1.5833	-2.125	-1.4708	-1.6396	-1.8	-1.5938	8.289	18.316	342.972	288.560	0.707	175.644	315.981	316.768	335.410	31.013	312.981	258.500	142.419	290.628	241.586	22.473	0.00037854	0.00023455	0.00018102	726.35	6.0327e-06	5.2255e-06	840.23	238.66	3.0797e-06	5.0809e-06	279.23	108.66	80.276	39.374	2.4576e-06	59.375	0.00054062	0.00056794	0.00016052	715.5	6.2709e-06	6.2496e-06	826.38	235.93	6.3685e-06	6.9881e-06	278.49	108.12	80.307	39.646	7.0404e-06	58.907	233.992	37.948	88.743	8.943	149.508	146.207	8.266	14.207	224.364	145.235	11.890	17.821	21.465	25.564	188.505	22.133	-8191	255	
41244.523	1	1	0	0	0.24722	0.072384	0.3509	0.10958	0.076017	0.25019	0.18382	0.22578	0.19251	0.25511	0.09771	0.32273	0.19895	0.18792	0.18501	0.27117	-1.2812	-1.7188	-1.4292	-1.9625	-1.5708	-1.6729	-1.9958	-1.7729	-1.7729	-1.7083	-1.4792	-2.1896	-1.7104	-1.6479	-1.8833	-1.6708	334.950	292.456	337.098	55.687	97.891	59.605	311.167	266.602	11.954	297.948	123.457	209.082	67.963	29.529	224.113	347.671	0.00039659	0.0001946	0.000135	724.55	5.8891e-06	2.5388e-06	839.54	237.2	2.7601e-06	7.4955e-06	278.35	107.92	79.347	38.551	7.1298e-06	58.134	0.00060623	0.00065856	0.0001797	714.83	7.0598e-06	7.1066e-06	823.3	234.74	6.5373e-06	7.1341e-06	277.44	107.34	79.657	38.773	7.2887e-06	57.96	237.970	83.328	51.947	9.011	178.916	103.650	8.046	14.334	177.739	127.136	12.291	17.695	20.439	25.393	156.524	22.205	-8191	255	
41244.598	1	1	0	0	0.051913	0.056246	0.15124	0.19857	0.13261	0.11913	0.20929	0.27408	0.14108	0.20218	0.095459	0.21128	0.22368	0.25774	0.2669	0.12289	-1.4292	-1.9354	-1.4375	-2.0312	-1.5896	-1.5917	-2.1312	-1.6063	-1.8458	-2.1875	-1.4667	-2.0917	-1.6375	-1.7625	-2.0167	-1.6125	115.128	301.492	236.796	282.807	51.174	270.259	286.827	335.731	268.154	27.079	337.304	330.780	266.151	300.296	330.614	66.415	0.00037655	0.00042432	0.00010542	731.16	6.6198e-07	8.5604e-06	845.18	237.61	5.1256e-06	3.4058e-06	282.43	109.09	79.947	38.887	4.9566e-06	58.814	0.00060609	0.00067479	0.00018761	718.58	7.3784e-06	7.2913e-06	827.69	235.5	6.9818e-06	7.6061e-06	280.32	108.43	80.565	39.252	7.3531e-06	58.569	236.715	59.194	76.203	9.034	101.124	119.300	8.384	14.206	194.256	157.754	11.655	18.207	20.959	25.365	199.229	22.225	-8191	255	
41244.691	1	1	0	0	0.081647	0.12652	0.16746	0.22365	0.1241	0.065714	0.013379	0.24231	0.20775	0.093796	0.15922	0.21543	0.27737	0.078584	0.11541	0.18296	-1.1542	-2.0042	-1.2833	-2.0583	-1.7625	-1.5812	-2.0229	-1.8687	-1.8771	-2.1167	-1.5625	-1.8792	-1.7646	-1.575	-1.9792	-1.7833	173.669	157.989	277.769	285.141	250.666	5.673	0.906	304.343	41.771	-2.558	78.195	303.323	79.670	287.602	-0.796	278.127	0.00038127	0.00062504	0.00017101	736.22	4.3387e-06	5.9236e-06	849.68	238.43	3.8657e-06	3.9653e-06	284.24	110.93	82.277	40.247	6.4698e-06	60.518	0.00062005	0.00070087	0.00019311	721.9	7.3603e-06	7.199e-06	833.05	236.62	6.9e-06	7.3922e-06	283.31	110.17	82.327	40.379	7.2389e-06	60.208	238.821	75.128	123.534	9.124	180.632	139.111	8.331	14.327	224.590	174.048	11.784	17.966	21.280	25.346	184.286	21.796	-8191	255	
41244.812	1	1	0	0	0.2459	0.24081	0.1418	0.34021	0.26284	0.1715	0.21717	0.38448	0.049422	0.13683	0.11424	0.13283	0.094432	0.15931	0.20439	0.083816	-1.1708	-1.9479	-1.5917	-1.7917	-1.8083	-1.4521	-1.8292	-1.8021	-1.8604	-2.0125	-1.5729	-1.8917	-1.825	-1.5271	-1.9479	-1.8875	16.292	29.880	235.295	81.195	296.921	101.641	226.877	226.570	-0.191	228.771	89.782	284.811	281.968	263.778	319.064	44.019	0.0003652	0.00082695	0.00020644	730.4	5.8993e-06	3.5674e-06	843.6	239.07	3.3492e-06	7.0002e-06	285.75	111.1	81.956	41.166	6.6543e-06	61.75	0.00060093	0.00065659	0.00018179	719.62	7.096e-06	7.0959e-06	827.3	236.48	6.5881e-06	6.9343e-06	282.17	110.42	82.655	41.316	6.9919e-06	61.543	244.208	87.382	87.368	8.929	143.309	136.200	8.164	14.343	222.093	161.233	12.167	17.926	20.740	25.633	164.055	21.942	-8191	255	
41244.906	1	1	0	0	0.14644	0.126	0.17721	0.046265	0.18817	0.14599	0.34918	0.10237	0.21276	0.060667	0.1856	0.089812	0.25002	0.13151	0.25513	0.29914	-1.1125	-1.9542	-1.5479	-2.0854	-2.0021	-1.5312	-2.075	-1.8354	-1.5167	-2.0312	-1.3708	-1.7833	-1.8646	-1.6583	-1.9646	-1.7833	-2.256	192.078	178.190	313.958	15.245	183.412	263.272	34.384	157.923	354.840	190.568	331.019	68.985	164.356	266.524	319.382	0.00038899	0.00074416	8.3795e-05	734.75	4.2746e-06	2.2e-06	852.9	244.25	2.5157e-06	4.5723e-06	287.67	113.18	84.365	42.296	5.9708e-06	63.132	0.00059362	0.00065353	0.00017835	724.34	7.0469e-06	7.1085e-06	834.03	241.22	6.5676e-06	6.7684e-06	285.97	112.8	84.501	42.363	6.8734e-06	62.99	235.513	91.546	61.912	9.371	121.960	149.053	8.384	14.491	253.928	145.098	12.399	17.836	20.557	25.322	186.307	21.993	-8191	255	
41245.004	1	1	0	0	0.15399	0.061212	0.17358	0.23376	0.15272	0.206	0.13112	0.099902	0.18827	0.27462	0.21735	0.35822	0.12496	0.14876	0.25643	0.035771	-1.1729	-2.125	-1.5771	-1.7188	-2.0042	-1.5479	-2.0729	-1.8417	-1.6167	-1.8563	-1.8667	-2.0083	-2.0042	-1.8021	-1.8167	-1.9188	197.969	308.509	121.671	309.589	110.832	62.503	308.484	251.069	165.605	119.165	225.806	356.358	129.189	291.187	120.375	257.137	0.00034926	0.00047567	0.00014981	741.38	4.8124e-06	6.0324e-06	854.9	246.27	5.2145e-06	3.5477e-06	290.41	116.27	87.086	43.702	6.1824e-06	65.788	0.00060831	0.0006547	0.00018231	729.03	6.7408e-06	7.2268e-06	838.11	244.34	6.7434e-06	7.3329e-06	290.01	115.75	87.224	43.975	7.2721e-06	65.661	245.284	83.759	70.609	8.918	178.172	124.958	8.650	14.528	203.121	139.464	12.745	17.879	20.955	25.400	197.761	22.202	-8191	255	
41245.098	1	1	0	0	0.15794	0.10033	0.12237	0.061595	0.041234	0.11056	0.078756	0.21738	0.13727	0.14564	0.095596	0.20519	0.079993	0.31843	0.27555	0.26141	-0.90625	-1.8646	-1.6625	-1.7792	-1.8188	-1.5479	-1.9479	-1.9167	-1.6375	-2.05	-1.6521	-1.8062	-1.9604	-1.7188	-1.7521	-2.025	178.163	268.630	261.532	314.087	179.232	123.616	290.031	269.758	58.033	110.775	21.331	311.741	320.771	318.633	136.281	339.443	0.00041304	0.00063677	0.00018379	746.02	8.0312e-06	3.7412e-06	862.71	249.99	4.6342e-06	1.7452e-06	295.2	120.69	89.079	45.196	4.6028e-06	68.015	0.00063358	0.00065945	0.00019218	738.5	7.3902e-06	7.7426e-06	846.69	247.7	7.2388e-06	7.3506e-06	293.99	119.76	89.63	45.395	7.415e-06	67.597	237.255	61.585	88.478	8.952	173.415	135.399	8.954	14.794	196.010	104.209	13.037	18.240	21.044	25.275	197.350	22.078	-8191	255	
41245.195	1	1	0	0	0.069792	0.1751	0.10996	0.21472	0.063545	0.17026	0.23782	0.23324	0.15239	0.16294	0.17517	0.19999	0.14951	0.061402	0.16697	0.17223	-1.0958	-1.9792	-1.7479	-1.5854	-1.9	-1.5979	-1.8896	-1.9875	-1.475	-1.975	-1.6354	-1.6521	-2.0167	-1.7542	-1.7729	-2.1583	18.624	281.966	185.635	337.607	319.304	105.383	231.061	306.767	128.099	302.984	222.186	336.148	236.663	355.781	1.854	142.183	0.00041659	0.00069707	6.2448e-05	754.38	6.8952e-06	4.6195e-06	861.05	251.58	4.7977e-06	6.0295e-06	291.82	120.59	89.717	45.103	3.8449e-06	67.119	0.00064559	0.00067718	0.00019552	740.86	7.1436e-06	7.5943e-06	844.03	249.02	7.4688e-06	7.4081e-06	291.71	120.15	90.067	45.514	7.5229e-06	66.909	242.079	79.445	69.554	9.306	186.824	150.485	8.909	14.820	189.981	155.536	12.929	17.932	21.348	25.512	163.287	22.047	-8191	255	
41245.293	1	1	0	0	0.090834	0.11631	0.30894	0.16925	0.15494	0.21114	0.17019	0.18731	0.2079	0.28133	0.12521	0.34817	0.021548	0.24337	0.10513	0.26154	-1.2708	-1.8292	-1.8271	-1.5625	-2.0854	-1.5479	-1.7687	-2.0083	-1.4125	-2.0021	-2.0167	-1.5771	-2.0563	-1.7333	-1.6938	-2.2604	354.540	105.353	342.330	287.174	261.832	274.545	20.463	137.795	199.273	310.467	86.182	208.794	307.294	305.385	153.212	24.150	0.0004528	0.00030494	8.2006e-05	751.87	6.0355e-06	3.1346e-06	857.6	249.42	5.6107e-06	4.2238e-06	292.44	120.78	90.111	44.726	1.0337e-05	65.65	0.00066565	0.0006697	0.00019603	740.21	7.3527e-06	7.9255e-06	840.28	247.31	7.3038e-06	7.4719e-06	291.26	119.62	89.983	44.838	7.8859e-06	65.489	236.453	106.147	140.613	9.135	169.775	122.911	8.719	14.553	217.025	100.772	12.507	18.018	21.078	25.149	177.952	21.950	-8191	255	
41245.410	1	1	0	0	0.16893	0.14369	0.048828	0.061686	0.13454	0.2663	0.30032	0.081016	0.079566	0.099078	0.2156	0.4619	0.056673	0.22665	0.026249	0.35578	-1.1833	-1.8958	-1.8167	-1.4375	-2.1063	-1.8417	-1.8646	-2.0812	-1.5979	-1.8333	-2.0438	-1.4979	-1.9396	-1.6917	-1.4958	-2.0646	269.627	321.497	7.889	75.239	238.487	232.899	0.457	254.031	151.849	330.408	117.712	335.028	352.814	89.340	166.701	275.612	0.00045701	0.00059439	9.4104e-05	742.2	7.3793e-06	4.5434e-06	860.91	244.18	1.3249e-06	7.2185e-06	288.86	117.19	86.723	38.333	4.6044e-06	56.689	0.00071411	0.00072675	0.00022228	732.63	8.5106e-06	9.608e-06	844.78	241.8	9.929e-06	1.0507e-05	290.07	116.77	88.199	38.644	1.2457e-05	56.637	236.651	110.615	116.342	9.085	191.275	160.687	8.511	14.801	159.399	169.684	12.243	17.853	20.612	25.242	156.519	22.169	-8191	255	
41245.508	1	1	0	0	0.1354	0.29073	0.19537	0.071941	0.15287	0.15425	0.039807	0.23028	0.166	0.071618	0.096159	0.24344	0.16257	0.23934	0.194	0.28158	-1.375	-1.8646	-1.9312	-1.5167	-2.0021	-2.0333	-1.7646	-2.1729	-1.8083	-1.75	-1.9646	-1.75	-1.6458	-1.8604	-1.5688	-2.0833	20.917	8.052	114.704	275.882	3.164	88.504	340.566	257.107	141.604	336.349	89.058	331.498	165.589	257.969	84.079	263.978	0.00035674	0.00062908	0.00029829	791.68	3.9828e-06	1.2577e-06	975.86	300.55	5.8994e-06	8.6661e-06	392.02	184.58	160.25	60.296	7.5264e-06	89.222	0.0010477	0.0013149	0.00041685	786.04	1.6948e-05	2.0058e-05	962.5	299.35	2.2032e-05	2.4587e-05	397.76	185.43	163.32	61.544	3.2141e-05	90.335	236.789	65.104	94.509	8.894	226.910	124.755	7.769	12.317	265.210	147.630	9.648	11.853	12.536	14.831	173.416	13.004	-8191	255	
41245.605	1	1	0	131072	0.045125	0.30402	0.10964	0.27449	0.23298	0.29945	0.31328	0.14184	0.025749	0.27806	0.074091	0.28941	0.19495	0.3672	0.23293	0.458	-1.3375	-1.7229	-1.8438	-1.6167	-1.9417	-1.9958	-1.5625	-2.0833	-1.6708	-1.6104	-1.9708	-1.9208	-1.825	-2.0667	-1.3937	-2.0792	172.210	260.863	124.323	298.383	5.554	174.069	303.594	306.179	198.727	274.704	15.924	241.522	7.420	311.293	82.022	283.175	0.00051795	0.00092373	0.00036367	1023.3	1.0246e-05	1.1247e-05	1259.4	435.38	1.0501e-05	1.6709e-05	508.55	288.72	245.49	57.321	1.6103e-05	131.92	0.0025265	0.003403	0.001027	1033.5	4.0825e-05	4.5541e-05	1252	436.36	4.4304e-05	4.6733e-05	528.07	289.15	251.27	145.41	4.6885e-05	182.01	233.196	111.480	87.252	7.082	168.146	152.749	5.887	8.444	210.970	118.809	6.942	8.058	8.903	7.236	191.005	6.072	-8191	255	
41245.699	1	1	0	131072	0.30504	0.23347	0.11054	0.12156	0.15768	0.22951	0.18386	0.27841	0.22584	0.2644	0.16671	0.3536	0.098752	0.39648	0.17403	0.22165	-1.2729	-1.7729	-2.0104	-1.7417	-1.7313	-1.75	-1.3729	-2.0125	-1.5875	-1.5271	-1.7812	-1.7208	-1.8563	-2.0896	-1.2104	-2.2417	246.565	283.274	326.782	12.561	59.602	76.562	279.920	298.224	202.076	226.079	83.079	302.520	36.632	296.772	110.443	324.977	0.001123	0.0014291	0.00044217	1068.7	2.1179e-05	1.2076e-05	1258.2	448.91	9.4941e-06	1.7349e-05	516.68	305.71	260.67	40.588	2.2609e-05	127.75	0.0035238	0.0043234	0.0012146	1080.9	4.3119e-05	4.688e-05	1252.3	451.23	4.1276e-05	4.212e-05	536.17	306.72	264.67	151.42	3.8166e-05	184.32	234.145	65.176	90.390	5.678	169.400	193.519	5.293	7.635	210.703	133.977	6.299	7.117	7.804	5.759	207.653	5.003	-8191	255	
41245.820	1	1	0	131072	0.065128	0.17226	0.22954	0.18021	0.27076	0.37396	0.21033	0.14566	0.15562	0.13284	0.15252	0.45891	0.12058	0.40608	0.37272	0.39599	-1.2625	-1.3958	-1.5708	-1.6104	-1.7146	-1.7917	-1.6146	-2.0229	-1.8062	-1.4813	-2.0417	-1.7708	-1.5208	-2.1813	-1.4354	-2.1542	92.504	143.849	131.458	298.876	173.989	23.975	251.420	273.724	207.330	299.810	324.251	307.424	335.764	274.398	87.489	314.297	0.0010645	0.00066205	0.00022651	988.76	1.0329e-05	1.0139e-05	1147.2	414.82	1.0872e-05	1.0065e-05	471.84	283.44	242.54	71.868	1.8104e-05	152.24	0.0027837	0.0031799	0.00087379	994.71	3.0755e-05	3.2327e-05	1137.1	413.41	2.7162e-05	2.7668e-05	479.8	283.82	243.47	139.79	2.4577e-05	157	239.432	34.806	91.537	4.881	116.463	141.844	5.079	6.908	217.613	115.911	5.859	6.423	7.234	5.055	185.943	5.222	-8191	255	
41245.891	1	1	0	131072	0.02712	0.098703	0.25364	0.22207	0.21702	0.28959	0.10115	0.19287	0.22036	0.09647	0.06974	0.28214	0.041008	0.34144	0.13487	0.012214	-1.3667	-1.4417	-1.7938	-1.8021	-1.5438	-1.8	-1.6688	-1.7292	-1.8792	-1.5	-1.7563	-1.7979	-1.5146	-2.2125	-1.4438	-1.875	333.893	189.821	297.283	176.769	29.488	40.384	234.577	42.018	246.209	345.665	91.141	297.292	258.752	256.925	94.417	187.123	0.00089877	0.0012827	0.00023211	891.92	5.0057e-06	6.6494e-06	1039.1	367.23	5.1548e-06	1.1706e-05	425.34	250.55	209	105.35	1.6011e-05	117.83	0.0019099	0.0021624	0.00058056	884.22	2.0819e-05	2.217e-05	1026.5	366.18	1.9279e-05	2.0304e-05	429.7	250.61	210.16	117.33	1.9046e-05	118.04	237.634	51.885	87.854	5.195	166.288	166.939	5.412	7.680	172.050	144.220	6.447	7.134	8.013	5.645	193.744	7.425	-8191	255	
41246.012	1	1	0	0	0.15212	0.087533	0.23692	0.27821	0.11521	0.1929	0.21934	0.41426	0.16046	0.057336	0.26981	0.11425	0.15796	0.23731	0.23109	0.19059	-1.2271	-1.3104	-1.8396	-1.7083	-1.3271	-1.7583	-1.5	-1.8083	-1.8979	-1.5208	-1.7812	-1.7812	-1.5	-2.1063	-1.6146	-1.7625	225.571	210.598	224.324	53.953	-0.198	113.096	80.963	0.221	54.482	320.496	198.202	302.947	273.866	336.989	335.574	330.158	0.00061446	0.00093284	0.00019084	822.43	1.2939e-05	7.2072e-06	968.79	335.22	7.6465e-06	5.4045e-06	389.41	225.35	185.64	91.404	9.7897e-06	95.899	0.0014438	0.0016209	0.00044937	818.48	1.7034e-05	1.7244e-05	959.48	334.15	1.5173e-05	1.6211e-05	394.99	225.06	186.45	92.243	1.5334e-05	96.508	234.908	91.598	28.439	6.018	159.712	155.980	6.153	8.589	244.838	169.741	7.006	7.774	8.906	8.138	175.619	9.965	-8191	255	
41246.109	1	1	0	0	0.19378	0.15297	0.18096	0.28776	0.20854	0.085154	0.11466	0.16478	0.039565	0.18907	0.14769	0.17206	0.085857	0.02538	0.13159	0.20837	-1.5271	-1.4854	-1.8167	-1.75	-1.3667	-1.7563	-1.8312	-1.8583	-1.8667	-1.3708	-1.7917	-1.9667	-1.5	-2.0542	-1.5542	-1.6021	130.989	187.207	177.712	334.402	164.247	182.957	73.035	12.875	-0.034	52.702	288.527	267.237	335.984	313.028	246.312	309.364	0.00052748	0.00090951	0.00021803	793.09	7.971e-06	7.2948e-06	942.93	318.16	4.1902e-06	6.056e-06	372.18	207.79	170.64	74.676	8.7367e-06	82.964	0.0011884	0.0013336	0.00035631	790.81	1.3497e-05	1.407e-05	931.22	316.89	1.2966e-05	1.3716e-05	374.69	207.85	170.88	75.67	1.2882e-05	83.022	234.370	55.170	81.558	6.788	155.479	142.812	6.456	9.089	175.247	133.982	7.866	8.586	9.523	10.117	189.350	11.831	-8191	255	
41246.203	1	1	0	0	0.075851	0.10014	0.10641	0.16078	0.089531	0.091936	0.134	0.032379	0.41933	0.32352	0.062888	0.17863	0.12011	0.15492	0.13522	0.17868	-1.5771	-1.4833	-1.7687	-1.7333	-1.5729	-2.0771	-1.8125	-1.5812	-1.9583	-1.4958	-1.8125	-2.0542	-1.4979	-1.8062	-1.7667	-1.6583	81.275	105.357	170.121	114.909	144.704	339.768	329.376	102.713	42.800	343.396	50.571	261.858	237.030	308.519	319.305	14.412	0.00047444	0.00043267	0.00023595	766.03	2.8992e-06	6.3108e-06	913.96	298.77	6.2175e-06	5.7931e-06	353.36	191.67	153.41	60.496	7.0928e-06	70.746	0.001009	0.0011447	0.00031822	762.05	1.1858e-05	1.2254e-05	899.97	297.88	1.1212e-05	1.1981e-05	354.05	191.49	154.84	61.277	1.1545e-05	71.219	236.779	24.612	78.838	6.895	110.365	150.599	6.543	9.763	189.408	120.501	8.893	8.988	10.454	12.565	188.600	13.946	-8191	255	
41246.301	1	1	0	0	0.030273	0.34035	0.081082	0.20781	0.21314	0.28927	0.27847	0.1775	0.21585	0.037462	0.098861	0.14036	0.29403	0.36405	0.073473	0.23296	-1.4688	-1.5604	-1.7854	-1.9062	-1.5063	-1.7771	-1.7979	-1.6771	-1.9229	-1.5688	-1.6583	-2.0187	-1.5167	-1.9167	-1.7687	-1.5604	238.490	135.375	129.658	-4.049	65.272	59.308	325.087	236.511	335.989	43.748	3.277	41.479	40.463	293.824	205.143	324.724	0.00041582	0.00073687	0.0001712	751.92	7.1464e-06	7.6539e-06	896.85	288.6	4.0149e-06	5.9335e-06	341.89	183.28	147.96	53.297	4.282e-06	66.646	0.00088635	0.001058	0.00028189	743.11	1.0742e-05	1.1009e-05	881.56	286.84	1.0224e-05	1.1254e-05	342.43	183.92	149.28	53.911	1.1096e-05	66.666	239.133	66.102	82.913	6.988	162.673	128.463	6.594	9.998	202.411	139.281	8.127	9.134	10.565	14.412	168.775	14.932	-8191	255	
41246.398	1	1	0	0	0.047618	0.14289	0.48586	0.22181	0.27295	0.16698	0.13776	0.17807	0.029742	0.1055	0.29874	0.28033	0.38039	0.30788	0.072273	0.035353	-1.65	-1.6562	-1.7125	-1.8875	-1.5229	-1.8813	-2.1417	-1.4417	-1.8542	-1.625	-1.5083	-2.0833	-1.6521	-1.8937	-1.7583	-1.6646	217.473	40.159	90.147	23.053	140.921	285.146	286.467	18.872	76.357	86.130	337.257	326.356	3.949	330.818	-3.739	221.270	0.00037512	0.00089381	0.00016168	747.08	7.6034e-06	6.9343e-06	893.01	284.93	3.3682e-06	6.2851e-06	339.98	177.88	144.36	48.996	5.4548e-06	63.025	0.00085486	0.0010098	0.00027184	739.09	1.0363e-05	1.0672e-05	878.64	284.2	9.8303e-06	1.0649e-05	339.44	178.08	144.93	49.707	1.0674e-05	63.781	237.081	78.176	111.896	7.420	196.538	140.919	6.709	10.442	167.986	166.218	8.926	9.712	11.243	16.112	202.860	16.581	-8191	255	
41246.492	1	1	0	0	0.038379	0.15524	0.19924	0.20226	0.13452	0.21871	0.23961	0.20628	0.069239	0.2887	0.25051	0.23308	0.059753	0.30644	0.21854	0.12595	-1.4708	-1.5063	-1.5312	-1.9771	-1.5812	-1.8625	-2.0229	-1.4583	-1.8312	-1.7396	-1.6146	-2.2583	-1.5021	-1.6875	-2.1125	-1.6375	101.432	212.780	139.831	250.237	146.889	341.986	188.346	244.217	175.144	212.918	302.260	268.959	59.512	319.836	146.950	-2.191	0.00040509	0.00093804	0.00013882	741.07	9.839e-06	5.8449e-06	885.42	281.37	7.0121e-06	4.9956e-06	331.19	170.45	138.38	45.991	2.8013e-06	61.219	0.00082333	0.00098915	0.00026403	733.08	1.0265e-05	1.0664e-05	873.27	279.69	9.9869e-06	1.113e-05	333.49	170.84	139.38	46.694	1.09e-05	61.77	230.392	35.438	71.659	7.717	141.907	155.365	6.994	10.688	205.487	142.549	8.943	10.540	11.501	18.051	160.701	17.259	-8191	255	
41246.590	1	1	0	0	0.025151	0.21949	0.2029	0.17858	0.15932	0.14517	0.19468	0.15533	0.12755	0.2122	0.16944	0.29862	0.15894	0.18628	0.1863	0.10469	-1.5958	-1.8229	-1.3896	-1.8875	-1.6229	-1.6167	-1.9458	-1.6229	-1.8563	-1.9771	-1.5792	-1.9937	-1.5896	-1.6104	-1.9333	-1.3792	112.907	231.619	333.812	31.938	53.126	282.954	324.280	289.369	323.355	204.613	180.953	27.604	47.493	324.404	206.612	205.904	0.00035485	0.00083944	0.00013787	735.47	6.5838e-06	4.9025e-06	881.01	278.21	2.9169e-06	5.8333e-06	326.28	163.06	132.81	43.781	7.1543e-06	59.916	0.00083274	0.00098702	0.00027661	731.91	1.0587e-05	1.1154e-05	868.53	277.28	1.0531e-05	1.1692e-05	329.36	162.82	133.81	44.47	1.1597e-05	60.264	235.249	56.387	77.039	7.428	158.643	151.447	6.915	10.988	230.382	126.105	9.493	11.080	12.142	19.279	181.904	18.220	-8191	255	
41246.684	1	1	0	0	0.11156	0.12843	0.29278	0.01741	0.14738	0.08847	0.10974	0.24954	0.13431	0.15727	0.30632	0.34212	0.20834	0.31576	0.27393	0.31604	-1.2188	-1.7292	-1.4208	-1.9354	-1.7646	-1.5458	-1.8729	-1.6354	-1.7042	-1.8729	-1.4458	-1.9688	-1.7958	-1.8229	-2.0083	-1.8458	326.408	271.328	260.585	304.102	271.232	87.628	204.901	75.182	190.412	19.771	326.025	285.424	210.622	344.610	318.290	209.014	0.00037126	0.00041002	0.00021564	734.08	4.1725e-06	4.8731e-06	866.53	268.79	4.0828e-06	1.0887e-06	310.59	147.04	118.42	39.108	6.1546e-06	55.556	0.00085749	0.0010601	0.00030358	726.14	1.1552e-05	1.1938e-05	856.99	267.65	1.0858e-05	1.2171e-05	316.66	147.26	119.83	39.769	1.1985e-05	55.821	237.503	118.263	81.663	7.764	164.254	126.417	6.999	11.291	184.217	206.603	9.272	12.571	13.582	21.380	203.920	19.825	-8191	255	
41246.781	1	1	0	0	0.10397	0.086669	0.26258	0.081526	0.13233	0.12108	0.49732	0.39074	0.16142	0.30686	0.232	0.24063	0.15481	0.31549	0.088006	0.22665	-1.2708	-1.8354	-1.4167	-1.9083	-1.9479	-1.6625	-2.0354	-1.8937	-1.7687	-1.8604	-1.4917	-2.0208	-1.6583	-1.6229	-1.9125	-1.5021	263.682	43.727	266.447	80.471	126.047	339.118	205.304	302.520	272.629	291.349	325.641	282.800	287.272	49.385	136.548	282.255	0.00038856	0.00041707	0.00013906	716.94	5.0425e-06	3.7618e-06	852.9	257.06	6.9442e-06	7.912e-06	302.14	133.69	106	36.306	7.3809e-06	53.491	0.00090497	0.0011434	0.00031646	710.28	1.2273e-05	1.2932e-05	839.79	256.73	1.2054e-05	1.3172e-05	306.59	134.09	107.76	36.843	1.3146e-05	53.684	235.130	81.551	53.007	7.756	136.073	185.164	7.015	11.684	205.711	178.310	10.454	13.015	14.750	22.437	135.639	20.263	-8191	255	
41246.898	1	1	0	0	0.10598	0.17875	0.2013	0.031712	0.34073	0.12363	0.073071	0.39711	0.2231	0.11283	0.1303	0.19506	0.17	0.11414	0.3912	0.058924	-1.175	-1.8979	-1.4562	-1.7812	-1.7583	-1.6417	-2.0542	-1.9083	-1.5542	-1.8167	-1.5688	-1.8729	-1.8563	-1.6417	-1.975	-1.6854	333.450	37.927	234.078	225.692	236.619	39.838	190.882	72.198	142.036	151.070	96.028	297.212	172.833	254.045	187.333	97.490	0.00037569	0.00054839	0.00012724	704.02	5.8763e-06	7.2062e-06	843.81	251.46	4.4803e-06	4.9932e-06	298.72	126.91	100.3	35.288	7.2005e-06	52.503	0.0010079	0.0012963	0.00036109	700.94	1.4373e-05	1.5172e-05	832.44	250.86	1.4074e-05	1.57e-05	301.96	127.37	102.42	35.859	1.5421e-05	53.1	232.310	55.029	59.532	7.929	196.799	150.767	7.648	11.958	188.128	133.702	9.901	13.834	15.254	22.743	149.537	20.768	-8191	255	
41246.996	1	1	0	0	0.087119	0.041235	0.12657	0.13441	0.10883	0.21259	0.22527	0.11073	0.070761	0.03811	0.22863	0.09798	0.15484	0.28835	0.14576	0.12452	-1.2125	-1.8937	-1.5542	-1.9708	-1.8438	-1.6313	-1.9292	-1.8146	-1.4125	-2.0021	-1.6771	-1.7437	-1.8042	-1.5479	-1.9167	-1.9646	335.080	313.885	272.964	287.637	209.074	78.294	278.622	256.867	229.428	299.042	346.537	199.036	184.665	3.598	228.014	273.127	0.00030421	0.00084861	0.0001703	699.56	6.4957e-06	6.8872e-07	829.66	243.55	3.9183e-06	4.2222e-06	286.24	119.67	92.691	34.381	3.1248e-06	51.667	0.001125	0.0014666	0.00042019	695.61	1.5832e-05	1.6716e-05	818.42	243.46	1.5127e-05	1.6636e-05	292.37	120.52	95.443	34.95	1.5905e-05	52.279	240.432	64.446	28.594	8.084	189.268	241.877	7.422	12.260	227.105	137.961	10.629	14.574	16.636	23.254	202.168	21.306	-8191	255	
41247.094	1	1	0	0	0.084703	0.21417	0.051031	0.29845	0.10141	0.24	0.15259	0.2081	0.047616	0.27161	0.1761	0.15644	0.19391	0.25351	0.15143	0.0674	-1.0521	-1.9896	-1.4583	-1.8854	-1.9042	-1.4333	-2.0042	-1.7083	-1.4917	-1.9062	-1.7083	-1.7229	-2.0021	-1.5562	-1.8417	-1.8979	298.697	107.536	294.815	281.038	171.948	213.332	208.108	329.264	187.225	252.491	102.163	122.922	134.712	296.838	55.666	320.155	0.00037261	0.00049856	0.00017878	686.79	9.7981e-06	4.046e-06	819.26	239.2	2.4812e-06	7.3537e-06	281.58	117.07	89.757	34.147	8.5065e-06	51.583	0.001167	0.0014905	0.00041991	685.43	1.6368e-05	1.7266e-05	808.57	239.2	1.5598e-05	1.6982e-05	288.86	117.95	92.791	34.663	1.6393e-05	52.078	226.963	0.854	123.607	8.020	181.530	125.152	7.573	12.338	191.315	150.137	10.196	15.118	16.573	23.511	153.018	21.222	-8191	255	
41247.188	1	1	0	0	0.10869	0.14628	0.050303	0.22808	0.12087	0.12007	0.20296	0.046474	0.17587	0.10464	0.084742	0.21641	0.18564	0.035486	0.048861	0.10136	-1.0125	-1.9833	-1.6396	-1.7458	-2.0292	-1.5146	-1.9188	-1.8396	-1.5104	-1.9625	-1.725	-1.7979	-1.8958	-1.5833	-1.8146	-1.9	88.946	109.956	26.083	312.155	2.850	104.018	243.255	141.164	35.967	57.239	9.707	348.293	46.707	166.604	239.807	33.060	0.00026821	0.00046888	0.00016879	684.14	5.3916e-06	1.2424e-06	815.2	237.95	3.8462e-06	7.8278e-06	283.43	116.03	89.37	33.946	2.8796e-06	51.249	0.0011745	0.0015578	0.00043739	682.32	1.644e-05	1.717e-05	805.16	237.27	1.5894e-05	1.7158e-05	288.04	116.7	91.683	34.525	1.6646e-05	52.028	229.669	329.387	73.607	7.753	232.913	102.432	7.459	12.880	160.764	119.368	10.535	15.261	17.231	24.037	191.308	21.355	-8191	255	
41247.285	1	1	0	0	0.13378	0.20953	0.080017	0.25405	0.19397	0.26329	0.36538	0.15208	0.17516	0.031754	0.10081	0.14155	0.12406	0.18176	0.1647	0.15217	-1.0854	-1.8229	-1.6958	-1.5396	-1.9583	-1.5646	-1.8687	-2.0271	-1.4625	-1.8292	-1.9021	-1.6167	-1.9	-1.7208	-1.7833	-2.0479	237.333	339.161	220.062	343.228	224.441	68.771	314.841	274.129	19.595	123.580	310.882	3.155	276.932	327.065	239.709	311.255	0.00036802	0.0011613	0.00014815	687.61	1.6092e-06	4.769e-06	816.43	237.94	3.2892e-06	3.4816e-06	280.39	115.45	88.049	33.891	9.874e-07	51.912	0.0012149	0.0015809	0.00045671	685.8	1.685e-05	1.7569e-05	808.87	237.4	1.6374e-05	1.7239e-05	286.85	116.29	90.929	34.489	1.6658e-05	52.175	235.246	86.868	50.181	8.228	43.669	166.011	7.736	12.614	244.361	131.192	10.479	15.249	17.449	23.744	119.825	21.360	-8191	255	
41247.383	1	1	0	0	0.27732	0.36458	0.16945	0.34536	0.19581	0.16559	0.22173	0.27946	0.030791	0.31805	0.21665	0.14165	0.19662	0.12727	0.093912	0.088026	-1.05	-1.8104	-1.7333	-1.3438	-1.9396	-1.7625	-1.75	-2.1167	-1.6417	-1.9375	-1.9771	-1.3958	-1.8813	-1.8771	-1.4688	-2.2812	151.207	335.311	222.401	334.029	301.056	257.799	246.979	8.926	86.737	129.915	334.951	150.432	32.761	333.503	150.119	46.567	0.00034346	0.00049698	0.00016882	687.55	5.8419e-06	5.455e-06	820.6	237.51	2.811e-06	5.4692e-06	282.96	115.05	88.13	33.887	7.5284e-06	51.513	0.0012581	0.0015932	0.0004549	688.99	1.7114e-05	1.8512e-05	812.58	238.31	1.6694e-05	1.7111e-05	289.24	115.89	90.733	34.489	1.7036e-05	52.208	233.406	93.729	42.093	8.266	220.583	137.773	7.776	12.648	197.894	145.033	10.442	15.212	16.914	23.857	153.311	21.279	-8191	255	
41247.500	1	1	0	0	0.16946	0.28078	0.2789	0.13381	0.1505	0.045024	0.030419	0.26388	0.36605	0.19614	0.011837	0.27542	0.24269	0.13861	0.093253	0.092487	-1.2396	-1.9042	-1.9229	-1.3542	-1.9667	-1.7396	-1.75	-2.1354	-1.5375	-1.6562	-2.1208	-1.6292	-1.8875	-1.7667	-1.7146	-2.2125	141.245	0.385	102.826	234.473	95.664	188.331	137.514	341.702	248.653	188.690	161.687	335.644	121.687	7.822	218.320	215.877	0.00031669	0.00077242	0.00012741	686.25	8.7675e-06	4.0163e-06	818.07	237.06	8.1674e-06	9.473e-06	277.44	113.66	87.721	33.712	4.1282e-06	51.417	0.0012397	0.0015586	0.00045584	686.22	1.6908e-05	1.836e-05	807.67	236.46	1.6435e-05	1.7555e-05	285.69	114.82	89.899	34.415	1.7195e-05	51.941	240.860	131.030	103.721	8.443	153.763	186.444	7.514	12.390	202.188	138.608	10.408	15.473	17.435	23.925	69.643	21.708	-8191	255	
41247.598	1	1	0	0	0.09934	0.36215	0.24279	0.18644	0.20612	0.18552	0.14265	0.089905	0.15631	0.19081	0.08209	0.23725	0.23668	0.11668	0.10707	0.15201	-1.1917	-1.6104	-1.9833	-1.5333	-2.0458	-1.9312	-1.5542	-2.0583	-1.6521	-1.6479	-2.1813	-1.5208	-1.875	-2.0104	-1.5125	-1.9667	202.724	113.080	66.344	302.507	187.774	51.403	61.518	308.573	152.405	173.537	342.917	275.714	306.062	238.700	13.956	317.897	0.00040252	0.00057733	0.00012411	683.92	6.164e-06	4.8533e-06	815.48	235.01	2.8154e-06	6.3207e-06	278.51	113.15	85.895	33.485	3.3121e-06	51.543	0.0012359	0.0015609	0.00045042	683.66	1.6535e-05	1.8188e-05	803.55	234.79	1.6589e-05	1.7463e-05	284.77	114.13	88.726	34.176	1.7392e-05	52.069	230.084	127.223	87.515	8.391	13.152	130.888	7.822	12.628	288.262	155.059	10.626	15.675	17.833	24.031	213.883	21.343	-8191	255	
41247.695	1	1	0	0	0.20741	0.18328	0.30999	0.24059	0.11371	0.022148	0.47155	0.044189	0.21362	0.25736	0.21191	0.21946	0.2064	0.056089	0.14471	0.22679	-1.1625	-1.6333	-2.0563	-1.8	-1.9792	-1.9146	-1.6375	-1.9188	-1.7687	-1.5375	-2.1937	-1.7896	-1.9396	-1.9312	-1.6604	-2.1188	210.536	288.457	348.555	77.425	38.125	9.290	301.930	218.961	9.428	17.384	128.999	33.042	103.266	134.434	79.610	290.725	0.00035101	0.00068553	0.00018847	688.72	2.1318e-06	5.2215e-06	812.98	233.63	5.291e-06	3.7885e-06	275.58	112.16	85.452	33.396	4.1392e-06	52.081	0.0012601	0.001617	0.00045288	686.56	1.6577e-05	1.8267e-05	803.11	233.8	1.6554e-05	1.7216e-05	282.48	113.18	87.591	34.225	1.7026e-05	52.372	243.949	76.359	22.929	8.151	326.357	94.782	7.729	12.321	227.829	95.053	10.829	15.841	18.114	24.074	161.902	21.668	-8191	255	
41247.789	1	1	0	0	0.21173	0.071234	0.25991	0.26317	0.12044	0.22602	0.26949	0.27526	0.3541	0.11899	0.10977	0.38637	0.42875	0.020173	0.080679	0.17826	-1.2062	-1.6708	-2.0062	-1.6292	-1.8062	-1.9792	-1.5417	-2.1583	-1.775	-1.5187	-2.0167	-1.5771	-1.7021	-2.0687	-1.5854	-2.0938	147.439	249.585	330.078	257.415	277.569	160.161	323.836	328.171	137.621	188.206	-0.780	335.045	75.529	306.996	118.471	14.730	0.00034182	0.0002282	0.00016999	681.27	7.7297e-06	9.7555e-06	811.34	230.72	3.8564e-06	7.5627e-06	276.88	112.04	84.465	33.586	6.6964e-06	52.027	0.0012387	0.0015785	0.0004414	681.98	1.6404e-05	1.7914e-05	800.05	231.26	1.6447e-05	1.7425e-05	282.69	113.1	86.803	34.251	1.7349e-05	52.397	241.591	83.227	40.973	8.423	163.827	142.153	8.193	12.745	101.156	139.349	10.895	16.122	18.559	23.996	164.352	21.485	-8191	255	
#DATA ENDS
