BOXY.EXE: ISS Imagent and Oximeter Data Acquisition Program Version 0.80
Ascii Record File

#ACQ INFORMATION
2  Detector Channels 
16  External MUX Channels 
1  Auxiliary Channels 
5000  Waveform (CCF) Frequency (Hz)
1  Waveforms Skipped 
30  Waveforms Averaged 
1  Cycles Averaged 
16  Acquisitions per Waveform 
10.0806  Updata Rate (Hz) 

#FILE INFORMATION
TRUE -- External MUX Channel results are PARSED.
FALSE -- AC DC and Phase are NOT grouped.
TRUE -- Companion Program Settings File CREATED.
FALSE -- AC data not excluded
FALSE -- DC data not excluded
FALSE -- Phase data not excluded
FALSE -- Auxillary Chn. data not excluded
Tab delimiters

#CALIBRATION STATE
TRUE -- Waveform Calibration Values APPLIED.


#AUX CALIBRATION VALUES
Val Type	aux-1	

Term	1.0000e+00	
Factor	0.0000e+00	


#WF CALIBRATION VALUES
A = Detector Channel
Val Type	A-AC1	A-AC2	A-AC3	A-AC4	A-AC5	A-AC6	A-AC7	A-AC8	A-AC9	A-AC10	A-AC11	A-AC12	A-AC13	A-AC14	A-AC15	A-AC16	A-DC1	A-DC2	A-DC3	A-DC4	A-DC5	A-DC6	A-DC7	A-DC8	A-DC9	A-DC10	A-DC11	A-DC12	A-DC13	A-DC14	A-DC15	A-DC16	A-Ph1	A-Ph2	A-Ph3	A-Ph4	A-Ph5	A-Ph6	A-Ph7	A-Ph8	A-Ph9	A-Ph10	A-Ph11	A-Ph12	A-Ph13	A-Ph14	A-Ph15	A-Ph16	

Term	0.00000e+00	0.00000e+00	0.00000e+00	0.00000e+00	0.00000e+00	0.00000e+00	0.00000e+00	0.00000e+00	0.00000e+00	0.00000e+00	0.00000e+00	0.00000e+00	0.00000e+00	0.00000e+00	0.00000e+00	0.00000e+00	0.00000e+00	0.00000e+00	0.00000e+00	0.00000e+00	0.00000e+00	0.00000e+00	0.00000e+00	0.00000e+00	0.00000e+00	0.00000e+00	0.00000e+00	0.00000e+00	0.00000e+00	0.00000e+00	0.00000e+00	0.00000e+00	0.00000e+00	0.00000e+00	0.00000e+00	0.00000e+00	0.00000e+00	0.00000e+00	0.00000e+00	0.00000e+00	0.00000e+00	0.00000e+00	0.00000e+00	0.00000e+00	0.00000e+00	0.00000e+00	0.00000e+00	0.00000e+00	
Factor	1.00000e+00	1.00000e+00	1.00000e+00	1.00000e+00	1.00000e+00	1.00000e+00	1.00000e+00	1.00000e+00	1.00000e+00	1.00000e+00	1.00000e+00	1.00000e+00	1.00000e+00	1.00000e+00	1.00000e+00	1.00000e+00	1.00000e+00	1.00000e+00	1.00000e+00	1.00000e+00	1.00000e+00	1.00000e+00	1.00000e+00	1.00000e+00	1.00000e+00	1.00000e+00	1.00000e+00	1.00000e+00	1.00000e+00	1.00000e+00	1.00000e+00	1.00000e+00	X	X	X	X	X	X	X	X	X	X	X	X	X	X	X	X	

B = Detector Channel
Val Type	B-AC1	B-AC2	B-AC3	B-AC4	B-AC5	B-AC6	B-AC7	B-AC8	B-AC9	B-AC10	B-AC11	B-AC12	B-AC13	B-AC14	B-AC15	B-AC16	B-DC1	B-DC2	B-DC3	B-DC4	B-DC5	B-DC6	B-DC7	B-DC8	B-DC9	B-DC10	B-DC11	B-DC12	B-DC13	B-DC14	B-DC15	B-DC16	B-Ph1	B-Ph2	B-Ph3	B-Ph4	B-Ph5	B-Ph6	B-Ph7	B-Ph8	B-Ph9	B-Ph10	B-Ph11	B-Ph12	B-Ph13	B-Ph14	B-Ph15	B-Ph16	

Term	0.00000e+00	0.00000e+00	0.00000e+00	0.00000e+00	0.00000e+00	0.00000e+00	0.00000e+00	0.00000e+00	0.00000e+00	0.00000e+00	0.00000e+00	0.00000e+00	0.00000e+00	0.00000e+00	0.00000e+00	0.00000e+00	0.00000e+00	0.00000e+00	0.00000e+00	0.00000e+00	0.00000e+00	0.00000e+00	0.00000e+00	0.00000e+00	0.00000e+00	0.00000e+00	0.00000e+00	0.00000e+00	0.00000e+00	0.00000e+00	0.00000e+00	0.00000e+00	-1.31583e+02	-1.21578e+02	-1.40012e+02	-1.81298e+02	-8.87385e+01	-6.29981e+01	-1.57795e+02	-1.62015e+02	-6.94921e+01	-9.60310e+01	-1.75953e+02	-1.70521e+02	-1.80371e+02	-1.76072e+02	-6.81803e+01	-1.48893e+02	
Factor	1.93261e-05	1.42640e-04	3.75110e-05	1.68919e-01	1.12948e-06	1.23653e-06	1.80120e-01	7.03469e-02	1.11070e-06	1.40164e-06	1.16901e-01	3.27342e-02	2.64059e-02	1.04235e-02	1.14977e-06	1.44954e-02	1.13826e-06	1.18118e-06	3.28429e-07	8.21832e-02	1.29226e-08	1.29492e-08	8.20368e-02	3.39068e-02	1.29380e-08	1.29875e-08	5.34765e-02	1.52769e-02	1.27878e-02	5.00872e-03	1.30016e-08	6.72239e-03	X	X	X	X	X	X	X	X	X	X	X	X	X	X	X	X	



#DISTANCE SETTINGS
A = Detector Channel
A-1	A-2	A-3	A-4	A-5	A-6	A-7	A-8	A-9	A-10	A-11	A-12	A-13	A-14	A-15	A-16	

2.5000e+00	3.0000e+00	2.5000e+00	3.0000e+00	2.0000e+00	3.0000e+00	1.5000e+00	3.0000e+00	3.0000e+00	3.0000e+00	3.0000e+00	3.0000e+00	3.0000e+00	3.0000e+00	1.5000e+00	3.0000e+00	

B = Detector Channel
B-1	B-2	B-3	B-4	B-5	B-6	B-7	B-8	B-9	B-10	B-11	B-12	B-13	B-14	B-15	B-16	

1.0000e+01	1.0000e+01	1.0000e+01	1.4400e+00	1.0000e+01	1.0000e+01	1.5100e+00	1.9400e+00	1.0000e+01	1.0000e+01	1.9900e+00	2.4900e+00	2.4100e+00	2.9000e+00	1.0000e+01	2.9800e+00	




#DATA BEGINS
time	group	step	mark	flag	A-AC1	A-AC2	A-AC3	A-AC4	A-AC5	A-AC6	A-AC7	A-AC8	A-AC9	A-AC10	A-AC11	A-AC12	A-AC13	A-AC14	A-AC15	A-AC16	A-DC1	A-DC2	A-DC3	A-DC4	A-DC5	A-DC6	A-DC7	A-DC8	A-DC9	A-DC10	A-DC11	A-DC12	A-DC13	A-DC14	A-DC15	A-DC16	A-Ph1	A-Ph2	A-Ph3	A-Ph4	A-Ph5	A-Ph6	A-Ph7	A-Ph8	A-Ph9	A-Ph10	A-Ph11	A-Ph12	A-Ph13	A-Ph14	A-Ph15	A-Ph16	B-AC1	B-AC2	B-AC3	B-AC4	B-AC5	B-AC6	B-AC7	B-AC8	B-AC9	B-AC10	B-AC11	B-AC12	B-AC13	B-AC14	B-AC15	B-AC16	B-DC1	B-DC2	B-DC3	B-DC4	B-DC5	B-DC6	B-DC7	B-DC8	B-DC9	B-DC10	B-DC11	B-DC12	B-DC13	B-DC14	B-DC15	B-DC16	B-Ph1	B-Ph2	B-Ph3	B-Ph4	B-Ph5	B-Ph6	B-Ph7	B-Ph8	B-Ph9	B-Ph10	B-Ph11	B-Ph12	B-Ph13	B-Ph14	B-Ph15	B-Ph16	aux-1	digaux	

2072.730	1	1	0	768	0.10034	0.26704	0.085744	0.25174	0.14324	0.061237	0.44607	0.09231	0.044783	0.14649	0.097545	0.16166	0.10601	0.14348	0.064526	0.17306	0.15	-0.87708	-0.60833	-0.65208	-1.1688	-0.41875	-0.775	-1.0146	-0.18125	-0.88333	-0.93333	-0.4	-1.1938	-0.43125	-0.52083	-1.2104	307.972	319.714	258.850	445.743	352.856	305.575	364.610	121.820	354.599	206.287	424.094	462.523	376.409	372.224	275.883	354.059	0.00056826	0.001942	0.00016935	743.95	1.0997e-05	3.6856e-06	1071.1	173.29	3.3499e-06	1.1613e-05	354.67	134.78	71.991	26.445	4.3376e-06	52.614	0.00031609	0.00031157	8.7864e-05	561.02	3.3991e-06	3.4965e-06	799.09	133.5	3.373e-06	3.3844e-06	265.24	100.47	54.846	20.348	3.5333e-06	39.536	178.434	190.598	261.862	127.979	244.354	210.780	127.497	133.290	188.476	225.290	131.265	136.239	136.921	141.681	389.769	140.431	-8191	255	
2072.826	1	1	0	0	0.10321	0.23267	0.21118	0.13329	0.29888	0.10316	0.1946	0.067662	0.16884	0.028852	0.17703	0.084334	0.18652	0.075745	0.13368	0.20074	0.14167	-0.72083	-0.66875	-0.25625	-1.2583	-0.525	-0.65833	-1.1875	-0.2875	-0.91042	-1.0938	-0.43125	-1.3479	-0.5875	-0.48125	-1.2687	327.487	449.170	422.549	220.902	183.668	419.050	408.453	382.992	152.958	343.599	454.908	348.863	340.490	277.453	132.118	363.099	0.00054758	0.0003287	0.00013065	750.42	8.8269e-06	2.0067e-05	1057.5	174.29	2.9002e-06	1.1733e-05	356.47	134.86	70.869	25.93	7.6989e-06	51.671	0.00031849	0.00031278	8.7435e-05	564.27	3.4014e-06	3.4815e-06	795.56	133.62	3.5161e-06	3.6751e-06	266.45	101.27	54.856	20.185	3.6059e-06	39.367	177.494	192.369	152.221	128.276	171.729	275.466	127.635	133.731	365.638	467.591	131.483	135.610	137.760	142.025	320.493	140.772	-8191	255	
2072.922	1	1	0	0	0.044335	0.086229	0.11287	0.1114	0.19295	0.10822	0.26596	0.17277	0.13782	0.17083	0.18227	0.25347	0.24309	0.24489	0.19472	0.31816	0.19167	-0.65208	-0.94375	-0.22708	-1.1167	-0.69583	-0.5125	-1.2375	-0.19375	-0.70208	-1.1167	-0.35833	-1.2292	-0.58958	-0.2375	-1.0021	421.587	304.945	304.108	380.924	180.173	245.404	136.095	267.097	444.419	434.167	192.888	367.249	415.149	433.124	190.762	455.037	0.0004572	0.0010326	0.00040531	736.44	1.0392e-06	5.4974e-06	1043.4	175.74	1.2443e-05	9.584e-06	357.68	133.93	71.015	26.09	7.731e-06	52.296	0.00034437	0.00034063	9.5807e-05	559.01	3.6841e-06	3.7301e-06	785.82	133.97	3.8272e-06	3.7733e-06	266.61	101.02	54.872	20.234	3.8346e-06	39.505	169.624	253.107	270.750	128.118	264.069	267.039	128.139	132.179	225.496	395.060	131.800	135.921	138.706	142.588	263.457	140.946	-8191	255	
2073.018	1	1	0	0	0.25229	0.050154	0.12597	0.20825	0.19256	0.19678	0.25807	0.3921	0.17692	0.11781	0.35109	0.14974	0.20717	0.22571	0.25579	0.40462	-0.15417	-0.55	-0.9375	-0.1125	-0.8625	-0.67708	-0.40417	-1.025	-0.35	-0.54375	-1.2563	-0.19375	-0.9125	-0.88333	-0.11042	-1.0792	138.802	228.033	436.832	185.591	145.829	330.355	355.515	419.646	421.816	375.068	461.029	387.826	434.734	185.513	357.138	440.477	0.00053329	0.0013415	0.00042034	729.37	7.3404e-06	8.4635e-06	1031.7	171.55	7.9998e-06	1.3015e-05	353.34	132.66	71.123	26.789	9.7328e-06	51.971	0.00035474	0.00036418	9.7596e-05	554.97	3.8487e-06	3.8534e-06	777.96	133.61	3.8317e-06	3.9253e-06	265.82	100.63	54.589	20.558	3.8077e-06	39.319	182.960	443.136	452.483	127.793	201.695	365.965	127.784	133.034	206.209	311.240	131.861	136.041	137.937	142.515	469.604	140.755	-8191	255	
2073.113	1	1	0	0	0.22621	0.055868	0.14546	0.16974	0.12078	0.13	0.20476	0.077213	0.23388	0.1729	0.25164	0.19732	0.2158	0.11333	0.30343	0.23889	-0.25833	-0.4125	-0.80417	-0.34583	-0.7875	-0.80417	-0.16042	-1.0646	-0.40833	-0.23333	-1.1917	-0.53125	-0.90208	-1.1	-0.29167	-1.0604	159.472	257.336	448.271	286.019	115.384	317.448	377.430	417.231	465.633	451.009	412.980	453.152	470.734	150.099	335.949	365.581	0.00041217	0.00034102	0.00022022	730.97	1.006e-05	1.8965e-06	1049.6	173.88	5.1077e-06	5.4062e-06	356.76	132.81	70.963	26.267	8.535e-06	52.81	0.0003443	0.00033551	9.0657e-05	557.07	3.7174e-06	3.7359e-06	784.9	134.12	3.7163e-06	3.5774e-06	266.33	100.21	54.59	20.295	3.7184e-06	39.318	187.265	311.238	438.704	127.713	420.305	151.758	127.189	133.275	116.559	225.706	130.997	136.303	137.864	142.327	268.672	140.950	-8191	255	
2073.211	1	1	0	0	0.13634	0.13413	0.128	0.24179	0.22529	0.24737	0.22452	0.13987	0.19293	0.022825	0.30817	0.16356	0.12161	0.24167	0.11949	0.29605	-0.52083	-0.25	-1.1021	-0.44375	-0.66667	-1.0479	-0.47708	-0.9875	-0.625	-0.31875	-1.3396	-0.41458	-0.74167	-1.0542	-0.1	-1.0667	214.609	154.213	212.308	417.650	454.507	354.187	473.005	292.771	396.105	363.269	411.595	366.969	227.653	394.217	442.542	454.024	0.0004039	0.0015969	0.00012651	744.77	1.039e-05	5.3657e-06	1059.3	172.52	5.4659e-06	6.862e-06	358.79	134.12	72.156	25.761	1.0515e-05	51.071	0.00033298	0.00032493	9.0076e-05	557.54	3.6076e-06	3.5278e-06	788.28	133.5	3.5318e-06	3.5084e-06	266.08	100.22	54.867	19.838	3.5143e-06	38.904	167.328	196.864	359.850	127.500	293.092	212.826	127.823	133.568	228.542	236.673	130.813	135.841	137.934	142.184	127.107	140.486	-8191	255	
2073.329	1	1	0	0	0.15559	0.38001	0.10723	0.28678	0.11586	0.15945	0.16193	0.12847	0.047281	0.12423	0.21945	0.17322	0.31625	0.19763	0.3997	0.014971	-0.31667	-0.27292	-0.99792	-0.39583	-0.46458	-1.0042	-0.2	-0.9125	-0.69167	0.027083	-1.1625	-0.31042	-0.3625	-1.1063	-0.09375	-0.775	437.380	312.902	236.466	396.884	408.043	142.162	321.677	346.869	410.848	313.768	415.146	121.793	439.288	417.376	418.338	350.833	0.00033928	0.00122	0.0005394	747.79	1.3437e-05	6.5053e-06	1062.6	176.51	5.4096e-06	9.1858e-06	358.39	133.91	70.913	25.495	4.2823e-06	52.082	0.00032473	0.00031659	8.6719e-05	558.72	3.5536e-06	3.4763e-06	794.9	134.5	3.3744e-06	3.425e-06	266.61	100.1	54.307	19.613	3.346e-06	38.847	162.981	122.938	226.510	127.490	175.772	230.745	127.613	133.763	213.709	253.488	131.611	135.633	138.240	142.066	268.955	140.513	-8191	255	
2073.426	1	1	0	0	0.16726	0.18126	0.143	0.47419	0.074552	0.16637	0.24009	0.15233	0.26641	0.14937	0.092692	0.021159	0.24108	0.13299	0.06679	0.3	-0.45833	0.10417	-1.1083	-0.75208	-0.56042	-0.98542	-0.24583	-0.53333	-0.79167	-0.016667	-1.1	-0.55833	-0.30417	-1.0396	-0.44167	-0.83333	174.669	324.072	290.123	359.109	326.521	261.079	408.584	433.086	322.602	192.497	145.023	162.935	345.577	175.990	450.802	417.644	0.00042201	0.00073633	0.00020018	745.29	6.9599e-06	1.1506e-05	1061.4	174.64	1.1362e-05	1.3969e-05	356.04	134.27	72.092	26.11	2.917e-06	52.462	0.00031391	0.00030432	8.467e-05	559.56	3.3585e-06	3.2668e-06	795.3	133.76	3.2603e-06	3.3313e-06	264.69	100.12	54.45	20.062	3.3515e-06	39.324	176.947	297.181	219.921	127.209	394.705	248.021	127.449	133.023	239.469	243.849	131.081	135.787	138.031	142.357	418.124	140.163	-8191	255	
2073.522	1	1	0	0	0.1739	0.24137	0.14063	0.10265	0.12128	0.24626	0.096422	0.16308	0.26215	0.32846	0.15161	0.14151	0.081996	0.029413	0.18868	0.13505	-0.58958	-0.21667	-0.99792	-0.625	0.01875	-0.92917	-0.32917	-0.80625	-0.91042	-0.20625	-0.79167	-0.76667	-0.375	-1.1125	-0.28542	-0.53958	438.969	402.199	192.190	404.339	262.559	389.166	464.037	439.465	350.849	219.438	423.612	438.566	185.322	369.607	118.419	431.628	0.00064407	0.00061604	0.00019499	750.46	8.3442e-06	9.3649e-06	1075.3	177.12	1.5003e-05	9.9505e-06	357.87	134.98	72.628	26.877	5.6907e-06	54.374	0.00030313	0.00029913	8.1721e-05	565.47	3.1835e-06	3.3171e-06	803.44	134.15	3.2202e-06	3.2169e-06	266.69	101.37	54.96	20.612	3.3001e-06	40.365	196.390	152.249	141.853	127.597	206.285	326.493	127.456	133.016	337.416	180.929	130.952	135.767	138.161	142.277	189.949	140.403	-8191	255	
2073.618	1	1	0	0	0.02154	0.21617	0.11091	0.035926	0.28077	0.17486	0.325	0.12154	0.19827	0.032928	0.26181	0.090297	0.27072	0.041931	0.23278	0.25249	-0.74375	-0.40208	-0.79167	-1.0708	-0.058333	-1.1458	-0.67292	-0.23125	-1.0229	-0.32708	-0.92083	-0.98333	-0.28958	-1.0833	-0.425	-0.42708	302.990	186.534	430.192	203.611	235.108	151.318	420.294	374.587	264.844	189.652	151.851	377.789	454.814	452.866	129.663	413.645	0.00044363	0.0016355	0.00014733	747.89	4.1176e-06	1.0321e-05	1085.9	174.8	2.5441e-06	4.705e-06	362.43	137.62	73.927	27.505	8.0949e-06	55.267	0.00030719	0.00029792	8.4874e-05	564.67	3.2167e-06	3.2467e-06	805.97	134.33	3.2506e-06	3.2468e-06	268.93	102.8	55.487	20.999	3.213e-06	41.321	173.699	116.161	182.271	128.042	146.563	261.852	127.601	132.732	243.919	172.552	131.431	135.958	138.134	142.522	205.074	140.519	-8191	255	
2073.714	1	1	0	0	0.26626	0.12228	0.10749	0.14414	0.11966	0.13091	0.059577	0.22658	0.11156	0.21052	0.060864	0.13914	0.086753	0.14313	0.093131	0.36805	-0.78542	-0.3	-0.68958	-0.95	-0.24583	-1.0896	-0.75833	-0.275	-1.1292	-0.36875	-0.53125	-1.1146	-0.16042	-0.94583	-0.75625	-0.22917	263.971	359.139	346.493	393.939	387.116	204.322	146.348	233.793	345.258	147.982	418.292	141.733	266.257	387.296	169.881	458.524	0.00042402	0.00051045	0.0003485	753.19	9.4356e-06	6.8581e-06	1080.8	174.82	1.5483e-05	5.8401e-06	364.44	138.23	73.422	27.974	8.8119e-06	56.308	0.00031286	0.00029365	8.1049e-05	567.18	3.2054e-06	3.39e-06	809.64	134.9	3.2914e-06	3.2714e-06	270.19	104	55.909	21.47	3.319e-06	42.133	193.137	301.776	153.951	127.669	265.759	332.443	127.883	132.441	209.992	185.693	131.268	136.007	138.487	142.033	241.240	141.142	-8191	255	
2073.810	1	1	0	0	0.14472	0.14037	0.20343	0.34022	0.17069	0.32363	0.071335	0.058636	0.32848	0.20956	0.11224	0.15794	0.30973	0.25892	0.17502	0.24697	-0.76458	-0.51667	-0.48542	-1.2729	-0.18125	-1.1146	-1.2229	-0.25	-1.1646	-0.55833	-0.57708	-1.0479	-0.19583	-1.0083	-1.0187	-0.1875	143.646	146.533	463.986	161.970	251.866	252.730	394.740	409.234	276.627	372.811	388.095	141.101	467.580	406.442	382.855	430.476	0.00050405	0.00076814	0.00012338	753.36	8.0749e-06	7.6912e-06	1078.5	178.19	7.4212e-06	4.0561e-06	364.26	138.64	72.994	27.752	7.6186e-06	56.468	0.00031044	0.00029845	8.4256e-05	565.92	3.3583e-06	3.2584e-06	806.12	136.09	3.2344e-06	3.3282e-06	269.69	103.09	55.746	21.428	3.3525e-06	41.851	160.032	250.846	170.349	128.064	205.810	464.636	127.877	132.586	416.587	162.502	132.158	135.944	138.451	142.082	272.972	140.360	-8191	255	
2073.929	1	1	0	0	0.056791	0.14136	0.14314	0.45803	0.065706	0.1451	0.10327	0.23272	0.076142	0.030173	0.058644	0.2296	0.26733	0.20734	0.43974	0.15519	-0.87083	-0.51667	-0.5375	-1.1292	-0.43333	-0.83333	-1.1604	-0.4125	-1.0729	-0.80833	-0.4625	-1.2646	-0.575	-0.74792	-1.2208	-0.34167	410.552	278.917	396.953	412.298	235.009	139.321	428.582	330.918	324.553	163.121	217.190	469.756	326.059	407.539	250.336	129.980	0.0004403	0.00064876	0.00018493	756.78	5.3438e-06	3.7867e-06	1082.3	178.62	1.9149e-06	1.659e-06	361.38	139.37	73.614	28.194	8.6145e-06	56.545	0.00030716	0.00029948	8.3201e-05	568.53	3.3618e-06	3.3333e-06	806.02	136.29	3.3777e-06	3.3414e-06	269.27	104.05	55.81	21.671	3.3456e-06	42.354	179.479	243.903	178.263	127.893	170.976	305.027	128.237	133.377	333.374	333.081	131.886	135.557	137.962	142.089	188.921	140.327	-8191	255	
2074.025	1	1	0	0	0.14266	0.16184	0.27893	0.1581	0.25887	0.17241	0.090481	0.096692	0.1224	0.1659	0.10907	0.12397	0.11762	0.22871	0.25199	0.069322	-0.56875	-0.775	-0.32292	-1.2896	-0.49375	-0.625	-1.1146	-0.26458	-1.0979	-0.86042	-0.475	-1.2687	-0.53958	-0.59375	-1.0583	-0.35625	120.678	149.769	354.895	206.738	151.693	118.258	426.753	254.230	134.121	441.862	371.086	311.744	376.673	470.646	279.914	379.718	0.0005199	0.00091485	0.00058869	749.97	6.4562e-06	7.2248e-06	1069.4	180.72	1.0627e-05	7.2974e-06	365.31	141.18	72.909	28.937	6.1735e-06	58.472	0.00031595	0.00029984	8.3732e-05	563.29	3.352e-06	3.3738e-06	800.78	136.86	3.2842e-06	3.3238e-06	270.63	105.31	55.934	22.215	3.3412e-06	43.57	207.677	372.402	208.296	127.568	391.529	425.544	127.650	133.074	185.908	256.984	131.305	136.059	138.650	142.422	321.176	140.388	-8191	255	
2074.121	1	1	0	0	0.12188	0.077936	0.084645	0.33706	0.15918	0.18076	0.44884	0.091193	0.27547	0.079191	0.027093	0.080415	0.33774	0.03767	0.16911	0.22745	-0.65833	-0.825	-0.12708	-1.2396	-0.58542	-0.54375	-1.275	-0.24167	-0.84792	-0.76042	-0.39167	-1.2	-0.56458	-0.58542	-1.1542	-0.39375	260.443	332.799	277.261	456.515	226.576	197.295	405.014	417.572	361.469	174.150	266.070	356.783	429.309	442.458	369.541	398.658	0.00056395	0.0010419	0.00018719	747.2	4.8805e-06	8.9898e-06	1062.7	177.41	4.8854e-06	1.4618e-05	372.04	141.51	75.775	29.647	4.4729e-06	58.776	0.00031416	0.00030016	8.6297e-05	563.36	3.4566e-06	3.2898e-06	797.47	136.73	3.4057e-06	3.374e-06	273.57	106.24	56.857	22.672	3.4096e-06	44.159	160.691	250.226	292.479	128.046	446.565	182.982	127.479	133.461	164.561	321.657	131.300	135.951	138.748	142.725	291.821	140.788	-8191	255	
2074.218	1	1	0	0	0.25132	0.098356	0.2008	0.28961	0.16836	0.19148	0.29739	0.21817	0.31478	0.077506	0.11756	0.23747	0.21171	0.074965	0.051123	0.23355	-0.51042	-1.0667	-0.16875	-1.0583	-0.51042	-0.49167	-1.4042	-0.42708	-0.7625	-0.78542	-0.32917	-1.0688	-0.74167	-0.46458	-1.3708	-0.60833	475.085	168.000	421.730	395.660	249.468	376.998	433.406	390.749	304.764	120.287	118.013	427.924	161.805	145.694	176.574	441.016	0.00055826	0.00098315	6.3073e-05	740.99	1.1134e-05	8.8232e-06	1072.8	177.38	1.0084e-05	2.2419e-06	365.58	142.25	73.758	29.755	4.4775e-06	58.24	0.00031361	0.00029909	8.4633e-05	560.85	3.3066e-06	3.2481e-06	802.33	136.7	3.3565e-06	3.3291e-06	269.86	105.98	56.063	22.514	3.2726e-06	43.566	177.094	313.480	251.748	127.962	255.340	321.931	128.068	133.153	361.481	277.973	131.872	136.256	138.306	142.668	240.848	140.488	-8191	255	
2074.291	1	1	0	0	0.044053	0.16955	0.17444	0.096764	0.22852	0.099923	0.2895	0.060806	0.39011	0.2061	0.12924	0.24311	0.38763	0.1442	0.15264	0.08345	-0.34167	-1.0583	-0.24583	-1.1688	-0.79167	-0.30833	-1.3292	-0.50208	-0.55625	-1.1583	-0.30833	-0.91458	-0.79583	-0.22292	-1.2958	-0.325	117.274	342.239	118.793	409.702	131.278	127.996	399.277	220.092	229.731	359.885	468.257	126.920	115.955	159.014	255.619	419.074	0.00053623	0.00086478	0.00015126	755.48	5.6404e-06	1.0672e-05	1063.6	176.79	4.7996e-06	1.1103e-05	360.92	140.35	74.221	29.549	5.1994e-06	58.187	0.00031405	0.00030031	8.2213e-05	564.88	3.3319e-06	3.3396e-06	794.44	135.8	3.2669e-06	3.2397e-06	269.55	105.21	56.214	22.555	3.238e-06	43.485	186.808	454.098	232.826	128.756	306.546	273.690	128.662	132.783	303.423	144.510	130.814	135.535	137.463	141.408	279.895	139.692	-8191	255	
2074.410	1	1	0	0	0.24658	0.27186	0.24221	0.098915	0.33902	0.18275	0.19071	0.28475	0.10115	0.16598	0.2743	0.26819	0.26221	0.13739	0.11544	0.17233	-0.0125	-0.97917	-0.14792	-0.95208	-0.93958	-0.1	-1.1854	-0.7	-0.2625	-1.2667	-0.40833	-0.78958	-1.0354	-0.045833	-0.76875	-0.70417	124.250	242.320	195.268	344.879	383.525	115.514	123.503	165.982	374.161	320.040	151.411	142.820	421.028	125.944	451.603	409.436	0.00054882	0.00071947	0.00017178	750.58	7.5438e-06	8.5531e-06	1074.9	180.8	6.8005e-06	1.1926e-05	368.19	141.85	73.927	29.468	3.7234e-06	58.312	0.00030818	0.00029554	8.2749e-05	564.19	3.2223e-06	3.2537e-06	800.33	137.04	3.3164e-06	3.3002e-06	271.16	105.93	56.282	22.516	3.3425e-06	43.582	174.500	471.702	194.654	127.798	206.951	204.988	126.851	132.244	229.284	194.536	130.715	135.509	137.823	141.332	402.308	139.846	-8191	255	
2074.506	1	1	0	0	0.032794	0.27815	0.18231	0.321	0.28739	0.15868	0.33176	0.33766	0.07339	0.2056	0.0237	0.19374	0.062884	0.18804	0.20814	0.541	0.23333	-0.81667	-0.30417	-0.80833	-0.86875	-0.2125	-1.0854	-0.74167	-0.12083	-1.1354	-0.33958	-0.65	-1.1104	-0.12292	-1.0333	-0.64375	198.775	203.541	194.717	257.544	144.143	123.027	396.798	462.773	463.199	164.648	459.196	447.944	408.115	470.038	211.808	453.397	0.00052196	0.0011421	5.942e-05	754.74	1.3576e-05	6.0807e-06	1076.4	178.36	2.5954e-06	6.7536e-06	368.34	141.49	73.73	29.484	2.9337e-06	58.731	0.00030261	0.00029822	8.1309e-05	563.39	3.2338e-06	3.2154e-06	798.63	136.36	3.2295e-06	3.2234e-06	272.16	105.63	55.923	22.439	3.2421e-06	43.948	164.653	173.054	407.075	128.154	205.388	194.183	127.619	132.435	434.540	326.861	131.003	136.092	137.758	141.531	140.577	140.435	-8191	255	
2074.602	1	1	0	0	0.089026	0.17164	0.2408	0.17037	0.1983	0.19005	0.16775	0.053138	0.36462	0.32119	0.24531	0.070071	0.10461	0.13969	0.026549	0.24415	0.19167	-1.1542	-0.3125	-0.73542	-1.0708	-0.25	-1.0979	-0.91667	-0.3375	-1.0833	-0.6375	-0.60833	-1.0896	-0.25208	-0.76667	-0.91667	151.320	365.708	381.719	442.937	384.002	428.087	150.104	331.509	316.989	224.986	396.348	209.803	378.388	427.660	465.537	178.405	0.00048511	0.0014911	0.00017851	748.71	1.4197e-05	3.2342e-06	1069.5	180.09	1.0868e-05	7.4393e-06	368.98	141.46	72.92	29.085	1.1153e-05	57.45	0.00030427	0.00028979	8.17e-05	563.87	3.3007e-06	3.1243e-06	799.63	136.71	3.2208e-06	3.1014e-06	271.23	105.28	55.676	22.127	3.099e-06	42.934	171.851	419.773	359.278	128.149	270.945	402.744	127.669	132.522	456.342	211.369	130.989	136.578	138.750	142.320	334.522	140.939	-8191	255	
2074.698	1	1	0	0	0.099629	0.19457	0.078297	0.3618	0.22079	0.20869	0.11151	0.04531	0.14758	0.12289	0.22577	0.25419	0.10058	0.0018442	0.12729	0.024664	0.010417	-1.1896	-0.56875	-0.58958	-1.2812	-0.33958	-0.94792	-0.98542	-0.13958	-1.1542	-0.7625	-0.31458	-1.0896	-0.42917	-0.55	-1.1688	163.990	227.360	222.778	141.281	402.446	334.437	426.362	435.756	173.040	414.875	358.041	187.442	144.606	180.000	352.595	435.200	0.00063309	0.0012314	0.00021405	749.2	5.902e-06	1.6271e-06	1061.9	178.19	1.7845e-06	1.7982e-06	363.86	140.1	73.778	28.875	7.1588e-06	58.236	0.00029728	0.00029328	7.9862e-05	561.66	3.1319e-06	3.1551e-06	795.08	135.88	3.1183e-06	3.2596e-06	268.23	104.03	55.762	21.923	3.1867e-06	43.117	180.674	192.293	190.027	127.624	175.699	469.780	128.036	132.514	437.800	397.988	130.554	135.946	138.098	142.437	225.101	140.633	-8191	255	
2074.819	1	1	0	0	0.18055	0.14534	0.066849	0.18165	0.057165	0.056533	0.11421	0.23965	0.079244	0.14998	0.07863	0.13727	0.22405	0.23885	0.077745	0.1259	-0.025	-1.0604	-0.66458	-0.50208	-1.1083	-0.39583	-0.72292	-1.2146	-0.23542	-1.2687	-0.91875	-0.45208	-1.1125	-0.45417	-0.67708	-1.1938	463.654	180.627	173.878	349.969	406.992	125.763	462.326	312.236	170.515	298.830	339.601	348.102	165.291	440.464	464.745	450.468	0.00064478	0.0011188	0.00030017	754.16	5.1323e-06	6.1179e-06	1066.2	176.95	8.3894e-06	1.2147e-05	362.16	140.37	72.675	29.2	7.6814e-06	58.007	0.00029364	0.00029504	7.8414e-05	564.88	3.0952e-06	3.1685e-06	796.94	135.27	3.1987e-06	3.2425e-06	268.86	104.61	55.63	22.05	3.1831e-06	42.92	185.752	294.230	410.967	127.402	237.882	311.031	127.881	133.593	258.604	308.955	131.726	136.697	138.680	142.141	465.747	140.780	-8191	255	
2074.891	1	1	0	0	0.31562	0.10251	0.24773	0.31915	0.156	0.34778	0.035378	0.27951	0.12052	0.21525	0.16872	0.13538	0.28799	0.12083	0.18127	0.27211	-0.13333	-0.98542	-0.91875	-0.13125	-1.1562	-0.5625	-0.70625	-1.1792	-0.425	-1.075	-1.0854	-0.23958	-1.1125	-0.67083	-0.23958	-1.2542	125.178	290.363	234.181	473.936	362.295	338.441	132.378	114.976	433.798	117.382	457.474	404.977	426.387	154.097	162.780	461.509	0.00035343	0.00031946	0.00011795	756.14	6.9113e-06	2.8112e-06	1065.2	176.82	6.289e-06	1.3731e-05	364	139.46	74.326	28.705	1.198e-06	58.022	0.00030349	0.00029457	8.1284e-05	562.18	3.1356e-06	3.2416e-06	794.76	135.83	3.1265e-06	3.2439e-06	269.08	104.6	55.99	21.94	3.2802e-06	43.368	160.811	256.772	308.337	128.300	246.035	250.410	128.237	132.706	168.036	298.042	130.780	136.023	138.092	142.784	131.734	140.494	-8191	255	
2075.011	1	1	0	0	0.07596	0.18261	0.16831	0.084304	0.18658	0.14931	0.058525	0.17801	0.21266	0.29994	0.24285	0.12303	0.12407	0.13454	0.15207	0.27285	-0.027083	-0.925	-1.0458	-0.31458	-1.0708	-0.76875	-0.82292	-1.3312	-0.28542	-0.75208	-1.1896	-0.40417	-1.1458	-0.89583	-0.27292	-1.2729	434.593	237.625	434.793	117.709	229.052	391.414	130.986	390.500	357.630	464.300	420.476	440.334	419.009	368.286	236.832	344.096	0.0004195	0.0025251	0.0003102	752.98	9.8795e-07	5.6832e-06	1079.6	175.78	7.9286e-06	8.0751e-06	364.84	141.61	73.408	28.575	6.6041e-06	58.229	0.00030086	0.00029849	8.2228e-05	563.63	3.3013e-06	3.2341e-06	799.39	135.12	3.2771e-06	3.2506e-06	270.23	105.75	56.001	22.032	3.2672e-06	43.459	186.039	306.836	344.848	128.273	462.525	209.198	127.814	133.541	358.288	151.681	131.863	136.483	138.010	142.402	309.889	140.837	-8191	255	
2075.106	1	1	0	0	0.061225	0.26997	0.15595	0.12908	0.19899	0.23593	0.14877	0.11745	0.094437	0.11609	0.1786	0.13194	0.19032	0.34455	0.054238	0.26551	-0.24792	-0.46667	-1.3083	-0.45417	-1	-0.5625	-0.35417	-1.1625	-0.50625	-0.53958	-1.2875	-0.24583	-0.91875	-0.98125	-0.29167	-1.2563	387.690	458.687	230.556	385.646	213.836	317.994	327.218	375.783	369.278	217.651	449.591	437.577	370.985	141.349	182.648	376.105	0.000585	0.00039187	9.2759e-05	745.67	7.2066e-06	3.0365e-06	1068.5	177.31	3.0726e-06	1.0333e-05	362.78	141.42	73.377	28.732	6.3619e-06	57.79	0.00030893	0.00030504	8.5364e-05	559.36	3.3761e-06	3.3289e-06	796.85	135.19	3.3225e-06	3.312e-06	269.14	105.07	55.818	22.082	3.3979e-06	43.113	174.574	303.444	465.117	127.840	146.674	374.397	127.666	133.064	223.388	320.838	131.044	136.495	138.391	142.060	145.741	140.446	-8191	255	
2075.202	1	1	0	0	0.39987	0.24419	0.17175	0.092079	0.12966	0.29671	0.25253	0.16842	0.18826	0.081147	0.15534	0.20462	0.18455	0.16531	0.1699	0.11265	-0.23333	-0.60208	-1.0333	-0.37708	-0.91042	-1.225	-0.39792	-1.1979	-0.58958	-0.50625	-1.1521	-0.49375	-0.79167	-1.1313	-0.28542	-0.96458	381.602	286.818	327.885	156.094	345.759	152.080	409.467	411.393	168.638	456.069	312.149	116.154	259.922	268.642	225.456	281.325	0.00063305	0.0009909	0.00035586	744.25	7.561e-06	7.8143e-06	1060.8	178.49	6.0737e-06	1.5777e-05	362.87	141.19	74.198	29.459	1.0595e-05	58.486	0.00031183	0.00030806	8.3405e-05	557.8	3.4848e-06	3.444e-06	793.83	136.02	3.4055e-06	3.4724e-06	269.92	105.43	56.37	22.424	3.3908e-06	43.739	176.128	144.987	124.925	128.100	239.357	217.796	128.156	133.075	273.704	308.264	131.018	136.015	138.629	142.469	371.962	140.881	-8191	255	
2075.298	1	1	0	0	0.087325	0.17009	0.23751	0.072928	0.13406	0.15192	0.31319	0.11344	0.086179	0.087742	0.19806	0.20323	0.032365	0.54926	0.10563	0.27303	-0.53125	-0.32708	-1.0833	-0.69167	-0.83958	-0.85208	-0.45417	-1.1938	-0.825	-0.47708	-1.1354	-0.59167	-0.71667	-1.3333	-0.17708	-0.97917	320.201	237.758	433.619	464.081	387.973	462.022	468.110	207.863	325.401	472.443	422.139	372.736	403.256	392.684	300.281	352.287	0.00053126	0.00093844	0.00029266	732.7	4.8539e-06	7.3218e-06	1071.8	177.24	1.0902e-05	1.3771e-05	360.95	143.82	73.945	29.949	6.2393e-06	59.434	0.00032675	0.00031071	8.7981e-05	557	3.5282e-06	3.3849e-06	794.59	136.03	3.36e-06	3.4824e-06	271.35	106.61	56.42	22.786	3.5225e-06	44.495	183.913	142.244	253.662	127.449	184.446	339.938	127.979	132.694	439.117	233.626	131.159	136.071	138.346	142.475	254.349	140.762	-8191	255	
2075.419	1	1	0	0	0.21317	0.1583	0.026746	0.078406	0.28345	0.059917	0.082915	0.14613	0.21377	0.0095278	0.28091	0.087924	0.25467	0.26945	0.21874	0.054544	-0.5	-0.23958	-1.1979	-0.59375	-0.53125	-1.2021	-0.4375	-1.0958	-1.0688	-0.33958	-1.2583	-0.64167	-0.61875	-1.2271	-0.40833	-1.1562	155.259	321.915	204.981	193.388	410.733	242.540	379.490	402.879	436.161	206.696	272.519	127.501	114.790	454.460	295.546	399.657	0.00049691	0.0011787	0.0002401	742.28	1.3907e-05	8.2053e-06	1064.6	177.72	4.8601e-06	8.6403e-06	366.54	144.47	74.063	29.639	6.1309e-06	60.043	0.00032966	0.00032546	8.826e-05	559.11	3.462e-06	3.5132e-06	796.06	136.62	3.4858e-06	3.475e-06	272.48	107.71	56.616	22.886	3.5919e-06	44.882	172.169	215.738	201.209	127.920	405.500	266.346	128.028	132.534	297.542	170.657	131.803	136.827	139.501	142.913	317.870	141.030	-8191	255	
2075.515	1	1	0	0	0.29272	0.089171	0.17126	0.11116	0.11662	0.051789	0.11455	0.1125	0.39678	0.16597	0.22595	0.13004	0.11176	0.18228	0.2221	0.054643	-0.66042	-0.22292	-1.0812	-0.64167	-0.64792	-1.4021	-0.32292	-0.8375	-1.0771	-0.24167	-1.225	-0.83542	-0.33125	-1.0958	-0.40208	-0.7625	238.447	205.703	285.139	153.848	266.000	406.488	465.182	430.758	460.224	329.678	367.591	454.609	170.750	132.072	409.139	447.105	0.00060451	0.00047951	8.5465e-05	740.42	3.3075e-06	2.5993e-06	1055.4	178.71	1.3711e-05	7.0316e-06	366.52	143.14	74.916	29.767	8.3785e-06	59.832	0.00032875	0.0003091	8.808e-05	557.55	3.5833e-06	3.4669e-06	791.19	136.65	3.556e-06	3.3642e-06	271.65	106.8	56.521	22.61	3.4457e-06	44.541	183.620	449.903	192.963	127.755	288.601	257.637	127.621	133.366	224.796	321.507	131.248	136.118	137.833	142.039	281.189	140.643	-8191	255	
2075.586	1	1	0	0	0.15232	0.13574	0.05848	0.21136	0.28462	0.043132	0.082334	0.11673	0.22571	0.036754	0.13872	0.054208	0.29255	0.14522	0.14586	0.40318	-0.56042	-0.32708	-0.9375	-0.57708	-0.30208	-1.0229	-0.47917	-0.51458	-0.99167	-0.32708	-0.92292	-0.6625	-0.42708	-1.0312	-0.46042	-0.72292	186.873	317.268	185.371	120.606	310.343	218.731	157.316	217.447	407.534	298.583	134.703	168.310	425.770	374.854	138.670	372.724	0.00054597	0.0009608	0.00067818	740.6	8.3075e-06	4.8476e-06	1064.8	177.01	1.8206e-06	1.4625e-05	365.07	141.28	73.769	29.149	4.7476e-06	59.706	0.00031842	0.00031018	8.6338e-05	556.68	3.4405e-06	3.3783e-06	792.28	136.29	3.4575e-06	3.4291e-06	271.53	106.41	56.131	22.42	3.3783e-06	44.559	173.930	256.496	207.061	128.041	162.273	189.155	127.469	132.934	226.226	301.062	131.080	135.424	137.992	142.494	213.596	140.627	-8191	255	
2075.707	1	1	0	0	0.16992	0.067015	0.28627	0.10346	0.17168	0.35607	0.20408	0.088935	0.17334	0.14721	0.031611	0.28529	0.16743	0.21151	0.081591	0.28627	-0.93125	-0.325	-0.75833	-1.1604	-0.38125	-1.0458	-0.72708	-0.5375	-1.1417	-0.34792	-0.95417	-0.98333	-0.31875	-1.0771	-0.50833	-0.48542	222.186	158.512	329.534	415.073	181.684	378.569	120.522	311.810	400.889	226.436	160.883	150.086	420.736	115.619	448.940	464.762	0.00055104	0.00038393	0.00034618	742.9	8.1492e-06	1.0846e-05	1060.1	178.62	9.1663e-06	1.7332e-05	367.78	143.46	74.784	30.047	5.4429e-06	59.408	0.00031511	0.00030388	8.4401e-05	559.46	3.2595e-06	3.3419e-06	788.96	136.85	3.2569e-06	3.2908e-06	272.29	106.88	56.374	22.807	3.3269e-06	44.535	194.438	271.038	244.263	127.724	361.257	221.952	127.475	132.762	286.454	205.512	131.565	136.120	138.346	142.648	183.826	141.397	-8191	255	
2075.803	1	1	0	0	0.024718	0.095509	0.10557	0.077515	0.18079	0.18239	0.15749	0.020552	0.073134	0.14584	0.16838	0.24478	0.12052	0.026431	0.059345	0.2213	-0.70417	-0.275	-0.58542	-1.2146	-0.27292	-1.0604	-0.85208	-0.35625	-1.1917	-0.22083	-0.775	-0.97917	-0.25	-1.1437	-0.65417	-0.44375	409.291	288.475	289.126	139.688	377.855	328.319	418.598	154.367	179.122	291.212	352.428	235.759	472.235	465.590	434.058	367.788	0.00048354	0.00065671	0.0002434	742.14	7.4074e-07	2.816e-06	1071.2	181.11	4.5777e-06	1.4026e-05	369.74	144.74	73.946	30.5	3.6521e-06	61.273	0.0003167	0.00030027	8.3317e-05	557.76	3.4236e-06	3.3821e-06	792.83	137.74	3.3569e-06	3.4089e-06	274.26	107.94	56.535	23.065	3.4033e-06	45.328	178.858	175.745	418.732	127.672	266.250	250.720	127.654	132.758	296.346	386.197	131.701	136.430	139.227	142.403	128.991	141.146	-8191	255	
2075.899	1	1	0	0	0.22524	0.29666	0.065358	0.12176	0.091169	0.23328	0.21725	0.28827	0.16184	0.25313	0.090737	0.20307	0.28327	0.15422	0.12663	0.35547	-0.80625	-0.21875	-0.73958	-1.35	-0.091667	-0.92083	-0.79792	-0.33333	-1.0833	-0.59375	-0.50833	-1.0167	-0.3	-0.84375	-0.84792	-0.41042	443.507	460.143	196.615	425.809	233.314	362.627	455.761	423.377	258.865	120.817	185.374	150.320	422.147	128.295	416.871	458.912	0.00045074	0.00040938	6.8638e-05	746.52	5.0317e-06	7.5147e-06	1054.3	178.12	5.5239e-06	5.9233e-06	369.82	143.38	74.861	29.883	1.1654e-05	60.469	0.00031203	0.00030807	8.6638e-05	560.07	3.345e-06	3.362e-06	789.08	137.01	3.3618e-06	3.478e-06	273.13	107.75	56.689	22.757	3.3839e-06	44.856	188.271	205.809	405.847	128.473	266.867	260.151	127.854	133.153	243.606	128.267	131.330	135.983	138.371	141.893	230.001	140.471	-8191	255	
2075.994	1	1	0	0	0.2271	0.17159	0.11579	0.22985	0.23991	0.175	0.11956	0.22478	0.11673	0.10353	0.31516	0.26928	0.11243	0.25187	0.21711	0.30018	-0.86875	-0.45208	-0.42917	-1.1625	-0.28125	-0.63333	-1.0958	-0.32917	-1.0792	-0.48958	-0.3375	-1.3146	-0.46667	-0.75	-0.99792	-0.325	224.550	152.309	468.321	446.969	317.563	115.265	425.848	274.107	306.703	274.029	124.316	428.676	120.370	437.831	150.656	400.469	0.00065123	0.00096522	0.00028619	740.71	9.2417e-06	9.5319e-06	1059	178.8	4.215e-06	7.3613e-06	365.74	143.08	72.887	29.955	2.0385e-05	60.028	0.00031793	0.0003055	8.6607e-05	556.44	3.3376e-06	3.3374e-06	789.88	135.94	3.3403e-06	3.4424e-06	271.19	107.19	55.993	22.766	3.4491e-06	44.811	180.548	194.997	440.148	128.068	194.057	210.456	127.533	132.495	274.609	473.879	131.389	136.087	138.375	142.021	256.689	141.260	-8191	255	
2076.114	1	1	0	0	0.08865	0.27017	0.070963	0.24596	0.1979	0.34315	0.37869	0.15612	0.092789	0.17582	0.1552	0.099106	0.21148	0.15121	0.050714	0.063136	-0.52917	-0.78958	-0.38542	-1.2792	-0.27083	-0.44792	-1.1417	-0.30625	-1.125	-0.95208	-0.43333	-1.2167	-0.42917	-0.3	-1.3604	-0.40625	468.700	336.933	364.815	422.600	154.153	470.585	427.009	221.817	205.417	352.211	308.777	433.932	115.546	218.795	440.785	376.000	0.00062802	0.0010754	0.00016169	732.16	2.9816e-06	5.678e-06	1056.8	178.61	5.4729e-06	5.3638e-06	371.83	144.49	74.322	30.082	4.4539e-06	60.338	0.00030706	0.00030913	8.4935e-05	553.87	3.3798e-06	3.4176e-06	786.81	137.25	3.3428e-06	3.3445e-06	274.3	107.55	56.668	22.951	3.4237e-06	44.897	179.550	199.291	204.087	128.096	141.774	363.517	127.563	132.615	255.884	324.237	131.923	135.689	137.646	141.323	254.705	140.238	-8191	255	
2076.186	1	1	0	0	0.16635	0.04571	0.25918	0.1637	0.22206	0.092731	0.27072	0.21424	0.28222	0.15468	0.18376	0.39776	0.18517	0.39117	0.12506	0.074794	-0.67708	-0.82083	-0.29375	-1.0958	-0.35208	-0.57292	-1.3	-0.25417	-0.64583	-0.86458	-0.22708	-1.0875	-0.45417	-0.44375	-1.0667	-0.275	183.122	321.680	179.336	416.413	402.954	336.465	346.315	471.448	428.303	397.871	149.385	394.311	448.774	440.962	302.657	364.058	0.00061373	0.0010526	0.00023901	736.06	1.6234e-06	1.9762e-06	1064.1	180.7	5.411e-06	1.2364e-05	369.24	145.76	74.77	29.64	2.3157e-06	60.162	0.000315	0.00031268	8.6311e-05	558.08	3.3531e-06	3.3847e-06	788.83	137.38	3.5001e-06	3.4175e-06	273.02	108.11	56.421	22.912	3.2716e-06	44.99	192.525	249.083	215.093	127.460	170.347	213.281	127.873	132.338	212.956	232.639	131.519	136.013	138.178	142.097	369.395	139.956	-8191	255	
2076.282	1	1	0	0	0.14664	0.24165	0.23094	0.078149	0.25489	0.1873	0.1027	0.16246	0.13783	0.15105	0.24332	0.16395	0.085113	0.16256	0.080948	0.25651	-0.37083	-0.90625	-0.16875	-1.2125	-0.65833	-0.48958	-1.4813	-0.125	-0.71667	-1.0229	-0.40625	-1.0375	-0.82917	-0.18125	-1.2479	-0.31042	393.161	328.650	328.833	243.894	204.826	235.268	441.468	450.422	227.949	130.676	470.606	127.143	157.081	158.308	204.208	396.953	0.00055729	0.00072648	0.00038581	743.41	5.1943e-06	9.8106e-06	1060.9	178.14	6.7062e-06	1.8035e-05	365.42	144.56	73.571	30.348	8.3184e-06	59.979	0.00031697	0.00030994	8.4691e-05	556.22	3.3235e-06	3.4103e-06	788.05	136.67	3.3348e-06	3.3746e-06	272.28	107.67	56.185	22.997	3.3153e-06	44.798	198.263	165.088	457.354	127.899	265.139	306.525	127.983	132.546	253.197	217.722	131.635	135.890	138.370	141.986	237.374	140.398	-8191	255	
2076.378	1	1	0	0	0.27742	0.49003	0.28156	0.22735	0.19551	0.38313	0.053756	0.1607	0.030894	0.26395	0.013494	0.37418	0.076294	0.12235	0.26618	0.22532	-0.25625	-1.2292	-0.0875	-1.0604	-0.65208	-0.33542	-1.2958	-0.43333	-0.425	-1.0812	-0.24792	-0.90417	-0.81667	-0.17083	-1.0646	-0.46458	369.012	362.353	162.043	308.348	127.687	164.007	416.559	454.107	136.285	220.998	266.344	128.279	170.410	446.678	441.388	315.940	0.00044126	0.00038556	0.00052596	735.59	7.3687e-06	7.7012e-06	1053.9	176.6	9.9716e-06	8.0037e-06	368.7	142.42	73.794	29.565	5.0139e-06	60.082	0.00031691	0.00030219	8.5572e-05	553.33	3.3615e-06	3.3039e-06	787.62	135.48	3.38e-06	3.278e-06	272.51	106.85	55.825	22.549	3.2331e-06	44.284	189.154	369.028	216.733	127.302	161.476	176.251	127.621	132.231	241.433	256.775	131.132	136.121	139.004	141.894	268.288	140.542	-8191	255	
2076.499	1	1	0	0	0.069653	0.129	0.056029	0.14574	0.36618	0.041095	0.20363	0.087734	0.074125	0.19329	0.064335	0.17113	0.019204	0.062669	0.14934	0.41825	-0.0083333	-1.0562	-0.21042	-0.9625	-0.94167	-0.077083	-1.3042	-0.62083	-0.4875	-1.1792	-0.42292	-0.95625	-0.75417	0.066667	-0.93958	-0.68542	413.593	351.290	273.575	455.402	332.439	330.496	154.749	253.804	144.283	392.667	358.618	148.912	154.847	147.469	408.659	124.297	0.00053525	0.0016629	0.00027186	737.6	1.3032e-05	5.3176e-06	1055.2	178.65	9.8113e-06	1.4602e-05	364.35	142.29	73.282	29.592	3.0517e-06	59.556	0.00030157	0.00030422	8.1926e-05	555.36	3.2828e-06	3.1711e-06	785.62	136.2	3.3923e-06	3.3093e-06	271.26	106.4	55.931	22.73	3.4281e-06	44.559	183.235	454.264	141.903	128.249	154.707	271.361	128.234	132.206	225.727	228.307	132.031	136.152	138.488	141.566	136.307	140.424	-8191	255	
2076.595	1	1	0	0	0.15981	0.14407	0.22726	0.10445	0.14397	0.16843	0.18051	0.12156	0.25966	0.46837	0.15727	0.24764	0.12621	0.049225	0.31272	0.14205	-0.16875	-1.2188	-0.3	-0.65417	-0.81042	-0.275	-1.2479	-0.97292	-0.23958	-1.1479	-0.34792	-0.68333	-1.1167	-0.47917	-0.84583	-0.7625	187.502	227.119	191.017	120.355	217.549	370.816	426.434	418.357	355.009	387.418	158.417	121.502	263.892	322.161	359.975	145.443	0.00044873	0.00086724	0.00012182	738.47	1.2181e-05	1.0913e-05	1049.1	177.52	1.6692e-06	4.5196e-06	367.16	143.45	72.807	29.946	8.6734e-06	60.175	0.00030941	0.00030663	8.1563e-05	552.36	3.3503e-06	3.3381e-06	785.27	136.08	3.3607e-06	3.2943e-06	273.13	107.27	55.776	22.612	3.283e-06	44.645	191.167	336.856	155.392	128.087	238.664	309.210	127.754	132.888	146.430	368.912	131.556	136.492	137.944	141.905	235.210	140.771	-8191	255	
2076.691	1	1	0	0	0.11883	0.38306	0.059117	0.16085	0.091869	0.2135	0.06945	0.068514	0.080722	0.16064	0.29297	0.038414	0.20402	0.093278	0.089145	0.2238	0.033333	-0.95208	-0.4625	-0.62083	-1.1812	-0.26042	-1.025	-1.0042	-0.36458	-1.2292	-0.575	-0.78125	-1.3375	-0.0875	-0.975	-1.1604	384.755	235.848	119.176	299.460	329.092	265.183	315.105	459.707	429.143	366.966	134.942	336.872	118.575	188.663	343.281	423.541	0.00056738	0.0013925	0.00012321	732.44	6.6268e-06	3.3805e-06	1049.5	176.55	9.7803e-06	1.1175e-05	370.31	143.97	73.419	29.534	6.9987e-06	59.441	0.00031808	0.00031827	8.4721e-05	552.15	3.3763e-06	3.3409e-06	786.87	134.9	3.4001e-06	3.5014e-06	272.92	106.84	55.688	22.508	3.3643e-06	44.405	165.543	254.311	344.470	127.955	247.503	436.400	127.796	132.976	323.903	302.763	131.839	136.461	138.355	142.391	474.800	140.622	-8191	255	
2076.787	1	1	0	0	0.058012	0.26642	0.05881	0.21107	0.27363	0.14604	0.32589	0.23766	0.12605	0.2856	0.21122	0.10989	0.17936	0.37862	0.20306	0.079247	0.125	-1.025	-0.65417	-0.3625	-0.90208	-0.12917	-0.91667	-0.95625	-0.16458	-1.0646	-0.61042	-0.50417	-1.2292	-0.41042	-0.60208	-0.95	220.314	384.343	354.149	422.939	433.957	150.462	363.292	454.522	389.282	352.674	379.147	265.391	318.162	353.834	432.254	176.925	0.00061427	0.0008276	0.00018735	727.94	5.0905e-06	1.7947e-05	1043.8	179.84	8.5048e-06	1.8212e-05	365.05	141.26	73.075	29.191	8.2034e-06	58.659	0.00032247	0.0003087	8.4766e-05	550.68	3.366e-06	3.3624e-06	783.03	136.34	3.3337e-06	3.3506e-06	271.28	105.81	55.349	22.242	3.4079e-06	43.977	166.538	241.060	415.635	128.302	211.588	275.517	127.624	132.585	268.371	231.421	130.557	135.492	138.584	140.976	345.787	140.333	-8191	255	
2076.884	1	1	0	0	0.11223	0.2739	0.14683	0.1415	0.32052	0.077744	0.11321	0.16012	0.11608	0.1204	0.18886	0.17224	0.10285	0.26397	0.1552	0.37953	0.12292	-0.71667	-0.48958	-0.48125	-1.1271	-0.40208	-0.76667	-1.3333	-0.3375	-0.94583	-0.94583	-0.35833	-1.2104	-0.71042	-0.47708	-1.2854	348.771	134.986	171.588	152.576	333.620	329.543	334.434	437.916	121.341	204.412	449.187	159.166	448.457	188.632	456.172	400.003	0.00056833	0.001173	5.4796e-05	732.75	1.598e-06	1.0293e-05	1051.6	176.47	1.6211e-06	9.1393e-06	364.29	143.18	72.882	29.316	9.0746e-06	58.951	0.00031029	0.00029891	8.6222e-05	550.74	3.3924e-06	3.3236e-06	781.99	135.48	3.3453e-06	3.2694e-06	270.22	106.18	55.524	22.396	3.4616e-06	44.003	189.428	190.087	437.808	127.847	283.257	234.170	127.465	132.476	382.014	231.074	130.884	135.939	137.816	141.340	190.844	140.068	-8191	255	
2076.980	1	1	0	0	0.17234	0.11067	0.14777	0.13318	0.075114	0.16831	0.31807	0.35594	0.1647	0.15025	0.0878	0.20998	0.17035	0.26446	0.16416	0.24203	0.10833	-0.88542	-0.87708	-0.32708	-1.1479	-0.5125	-0.56667	-1.2729	-0.16667	-0.8375	-0.93542	-0.26875	-1.1437	-0.73542	-0.47292	-1.25	396.794	260.692	223.945	463.284	222.192	143.168	371.580	416.469	414.396	130.858	416.964	211.373	375.108	462.480	382.939	433.302	0.00059091	0.00047607	0.00017351	721.28	3.9541e-06	9.2483e-06	1055.5	179.25	5.7894e-07	1.253e-05	360.78	141.53	73.93	29.12	8.766e-06	59.834	0.0003198	0.00030544	8.2751e-05	548.28	3.4222e-06	3.4657e-06	786.36	136.16	3.3775e-06	3.4645e-06	271.71	106.55	56.175	22.392	3.4322e-06	44.693	175.559	194.357	200.361	127.853	234.544	262.323	127.794	132.499	242.357	218.282	130.605	135.695	138.398	141.276	367.862	140.172	-8191	255	
2077.099	1	1	0	0	0.025149	0.076978	0.18534	0.17766	0.23838	0.19744	0.13282	0.21398	0.33358	0.065512	0.10063	0.099779	0.16718	0.16365	0.087236	0.21348	0.1125	-0.68542	-0.90625	-0.31875	-1.0833	-0.56458	-0.63958	-1.2417	-0.34583	-0.73125	-1.1146	-0.49792	-1.1437	-0.75417	-0.24167	-1.2542	349.654	186.962	338.537	193.367	188.770	364.716	387.396	447.202	176.597	172.508	429.619	273.676	372.641	388.424	116.454	324.960	0.0004163	0.00078178	0.00019517	730.2	8.6492e-06	2.8597e-06	1048.1	177.38	5.2512e-06	3.261e-06	368.07	144.49	73.642	29.39	8.2186e-06	60.566	0.0003241	0.00032121	8.5176e-05	551.1	3.4146e-06	3.5393e-06	784.48	135.49	3.4143e-06	3.4957e-06	275.22	107.79	55.908	22.498	3.4164e-06	45.232	178.734	206.338	175.305	127.244	192.910	381.383	127.102	131.887	172.635	326.189	131.312	135.558	137.703	142.377	137.551	140.237	-8191	255	
2077.195	1	1	0	0	0.20083	0.12079	0.13491	0.16357	0.12533	0.1278	0.093906	0.49324	0.079039	0.098843	0.29714	0.24253	0.13595	0.050635	0.17716	0.26885	0.066667	-0.61042	-1.0438	-0.23333	-1.0063	-0.52708	-0.5625	-1.3542	-0.36875	-0.50417	-1.15	-0.28333	-1.0104	-0.95417	-0.21667	-1.1792	129.561	276.636	245.419	313.749	401.913	279.169	430.236	376.793	405.215	157.213	234.942	408.642	304.380	320.074	350.070	331.305	0.00042075	0.0012556	0.00017897	728.66	8.499e-06	6.0468e-06	1055.6	176.52	2.4617e-06	2.6434e-06	366.18	143.4	72.591	29.84	1.0975e-05	59.793	0.00033196	0.00031858	8.7376e-05	549.97	3.5729e-06	3.4878e-06	788.46	135.91	3.5251e-06	3.5651e-06	272.3	106.97	55.782	22.667	3.5563e-06	44.942	164.330	175.837	432.275	127.557	229.906	358.124	127.912	132.703	315.389	223.730	131.124	135.349	138.358	142.110	309.574	140.982	-8191	255	
2077.291	1	1	0	0	0.27388	0.12506	0.26877	0.16583	0.20956	0.069546	0.10317	0.10789	0.13477	0.083167	0.076879	0.089009	0.021436	0.30093	0.051084	0.19648	-0.058333	-0.46458	-1.35	-0.59583	-1.0521	-1.0021	-0.46458	-1.0875	-0.69792	-0.51042	-1.1896	-0.6125	-0.95208	-0.89583	-0.18333	-1.1083	405.017	446.794	471.044	168.503	236.468	472.159	138.057	292.910	384.091	243.238	382.892	461.032	302.833	405.871	456.510	421.465	0.00071075	0.00019489	0.00020478	737.91	1.5239e-05	4.4175e-06	1057.7	180.15	1.0423e-05	4.3001e-06	364.71	144.13	72.51	30.066	4.4959e-06	61.349	0.00034082	0.0003231	9.1046e-05	553.26	3.5863e-06	3.5864e-06	791.19	137.22	3.6539e-06	3.6163e-06	272.51	107.72	55.939	22.898	3.7423e-06	45.569	177.526	242.671	237.136	127.811	186.417	143.833	127.811	132.613	324.195	120.450	131.336	136.342	138.005	141.072	291.498	140.799	-8191	255	
2077.411	1	1	0	0	0.055692	0.20079	0.31552	0.1825	0.19001	0.04378	0.16171	0.239	0.11149	0.43227	0.12908	0.041387	0.141	0.54983	0.10277	0.12528	-0.38542	-0.27083	-1.0812	-0.30625	-0.70417	-0.99375	-0.29583	-1.1271	-0.71667	-0.55	-1.3625	-0.54583	-0.76458	-1.0688	-0.3	-1.0187	127.030	357.330	388.549	292.598	429.142	418.475	345.657	397.818	156.496	293.174	125.318	119.443	388.282	124.419	286.927	396.675	0.00047958	0.0015592	0.00018856	728.44	3.4294e-06	1.252e-05	1057.2	177.81	1.1446e-05	8.3147e-06	367.83	146.12	73.133	30.535	2.224e-06	62.093	0.00034928	0.00033666	9.2434e-05	548.07	3.5851e-06	3.5139e-06	789.08	137.04	3.6268e-06	3.6403e-06	273.31	109.04	56.111	23.322	3.5552e-06	46.371	184.008	190.894	259.139	128.245	194.333	286.187	127.625	132.461	304.483	251.374	131.530	136.002	138.305	142.026	142.485	140.135	-8191	255	
2077.483	1	1	0	0	0.18806	0.42179	0.30432	0.28462	0.10511	0.28692	0.16833	0.081241	0.30855	0.061485	0.26645	0.33697	0.08113	0.098673	0.031242	0.30492	-0.49375	-0.23333	-1.1521	-0.525	-0.59583	-1.0708	-0.37292	-0.90833	-0.82708	-0.175	-1.2729	-0.63542	-0.34583	-1.0938	-0.0875	-1.1187	425.721	140.132	442.677	139.830	262.696	170.203	412.351	418.123	117.238	399.545	448.210	418.827	464.329	358.479	213.312	367.200	0.00061226	0.00035616	0.00030016	732.18	1.1404e-05	1.0243e-05	1062.1	179.1	4.1924e-06	4.267e-06	371.1	146.42	74.445	30.83	3.4565e-06	62.91	0.0003466	0.00033801	9.1358e-05	550.37	3.5525e-06	3.6048e-06	793.42	136.78	3.6759e-06	3.7336e-06	276.11	109.57	56.69	23.551	3.679e-06	46.996	177.649	197.725	137.601	127.737	122.601	228.197	127.712	133.092	240.467	449.876	130.676	136.150	137.760	142.412	373.991	140.655	-8191	255	
2077.579	1	1	0	0	0.038306	0.27668	0.13537	0.095947	0.27444	0.12345	0.075747	0.15429	0.10366	0.14253	0.25197	0.19961	0.26331	0.1509	0.15324	0.19723	-0.6	-0.36042	-1.1333	-0.55417	-0.15	-1.2021	-0.35417	-0.6625	-1.0396	-0.23125	-1.1292	-0.72292	-0.39792	-1.25	-0.34583	-0.7875	467.661	229.412	127.058	262.418	219.081	229.246	124.129	458.486	357.799	316.408	445.481	369.891	420.492	385.142	351.415	184.986	0.00042223	0.0016576	0.00036237	725.17	1.0185e-06	6.6426e-06	1059.3	176.64	6.4908e-06	8.3544e-06	369.81	147.94	73.755	30.817	5.4586e-06	63.292	0.0003382	0.00033001	9.3606e-05	552.09	3.5612e-06	3.6505e-06	793.41	136.73	3.5498e-06	3.5806e-06	276.58	109.78	56.392	23.613	3.6279e-06	47.199	182.202	130.580	198.774	128.097	399.694	238.237	128.187	133.191	215.908	159.986	131.943	136.361	138.496	142.315	327.780	141.032	-8191	255	
2077.675	1	1	0	0	0.10695	0.1185	0.33094	0.15307	0.085717	0.21675	0.10165	0.21636	0.25993	0.34332	0.17856	0.1211	0.11771	0.29925	0.20083	0.1173	-0.6625	-0.15625	-0.9375	-0.95833	-0.42292	-1.3	-0.52083	-0.77917	-1.225	-0.041667	-1.0604	-0.90417	-0.32292	-1.4167	-0.54167	-0.7375	170.221	461.940	205.857	418.943	463.562	334.881	338.274	437.634	273.549	415.942	197.791	389.693	243.523	458.888	201.421	262.759	0.00057854	0.00050373	0.00035877	738.46	2.2539e-06	1.5861e-05	1055.6	177.75	6.0691e-06	8.0932e-06	369.87	145.82	74.223	30.568	8.0819e-06	63.322	0.00033321	0.00032642	9.2756e-05	554.46	3.5595e-06	3.6082e-06	790.86	136.62	3.4729e-06	3.511e-06	274.26	108.84	56.584	23.384	3.5624e-06	46.776	180.872	301.292	198.236	128.688	283.196	152.471	128.404	133.379	172.922	264.361	132.242	136.509	139.121	142.968	118.396	141.237	-8191	255	
2077.796	1	1	0	0	0.14149	0.28723	0.099353	0.17663	0.20203	0.14964	0.25444	0.34153	0.32542	0.31793	0.14529	0.013701	0.46415	0.17266	0.22999	0.27407	-0.67292	-0.29583	-0.77083	-1.0354	-0.27708	-1.25	-0.78125	-0.61667	-1.3188	-0.37708	-0.8	-1.2333	-0.34167	-1.2062	-0.59167	-0.47708	223.089	169.174	138.092	129.167	243.637	122.813	425.899	149.122	279.292	142.762	397.834	435.873	436.662	208.363	378.000	389.542	0.00056162	0.00106	0.00028995	739.18	7.4738e-06	5.3723e-06	1053.8	179.67	3.476e-06	7.4504e-06	374.91	146.68	73.831	30.927	1.4455e-05	62.691	0.00032476	0.00031539	8.8368e-05	553.2	3.4082e-06	3.4855e-06	794.06	137.45	3.436e-06	3.5065e-06	276.23	110.14	56.539	23.544	3.5566e-06	46.908	181.127	151.393	399.373	128.224	164.489	193.758	128.690	134.009	287.358	220.517	132.856	137.075	138.298	141.988	258.414	141.192	-8191	255	
2077.892	1	1	0	0	0.11251	0.038123	0.10543	0.16412	0.13145	0.18829	0.22015	0.15589	0.23521	0.08589	0.32644	0.14075	0.15775	0.37519	0.049393	0.25746	-0.66458	-0.375	-0.78125	-1.0688	-0.21458	-1.0938	-0.71458	-0.40417	-1.3375	-0.2875	-0.8	-1.1354	-0.30208	-1.0771	-0.76667	-0.42708	389.632	179.420	207.788	463.437	299.489	167.246	466.761	419.138	314.273	247.727	433.615	284.933	119.954	467.191	426.504	382.901	0.00043712	0.001021	0.00031459	740.96	1.2754e-06	1.8943e-06	1066.5	179.29	8.9934e-06	1.4863e-05	372.52	147.24	75.711	30.969	5.539e-06	63.936	0.00032254	0.00031892	8.9162e-05	555.28	3.4287e-06	3.5386e-06	794.41	137.79	3.4193e-06	3.4871e-06	277.01	110.44	57.146	23.749	3.4387e-06	47.684	176.847	200.066	163.624	128.286	154.663	367.777	128.591	132.776	193.288	326.009	131.717	135.771	137.965	142.740	215.167	140.739	-8191	255	
2077.987	1	1	0	0	0.018665	0.28035	0.20674	0.15208	0.078441	0.089941	0.25958	0.12481	0.32635	0.14887	0.15553	0.17239	0.078874	0.08277	0.14689	0.20648	-0.7375	-0.375	-0.58542	-1.2854	-0.30833	-1.2604	-0.79583	-0.24792	-1.2646	-0.59167	-0.66875	-1.0833	-0.20208	-0.8125	-0.88958	-0.15208	204.860	296.270	117.854	394.372	335.598	211.762	134.041	399.302	185.004	268.329	326.511	392.077	386.976	285.190	131.767	400.904	0.00048085	0.0010403	0.00041339	733.94	6.2924e-06	1.642e-05	1063.8	181.07	1.0409e-05	9.234e-06	376.99	148.93	74.651	31.597	7.1871e-06	63.125	0.00032371	0.00031874	9.0489e-05	553.97	3.4781e-06	3.5047e-06	793.05	137.58	3.458e-06	3.5244e-06	278.47	110.94	56.779	23.89	3.397e-06	46.974	186.345	263.472	430.427	127.757	350.663	295.312	127.599	132.733	309.809	447.568	131.250	136.874	138.270	141.859	245.298	140.250	-8191	255	
2078.060	1	1	0	0	0.13046	0.037513	0.48485	0.37853	0.019862	0.023633	0.13739	0.093434	0.28517	0.27594	0.25087	0.18639	0.19762	0.030971	0.080317	0.33438	-0.7	-0.56458	-0.36042	-1.1167	-0.24167	-0.91875	-1.05	-0.38125	-1.0375	-0.69167	-0.26875	-1.2354	-0.23542	-0.62083	-0.97708	-0.37292	333.814	165.614	184.384	450.052	218.717	375.917	465.341	224.047	247.662	250.571	433.489	417.668	416.950	394.056	146.059	440.211	0.00070404	0.00027779	7.1496e-05	733.27	4.8076e-06	3.968e-06	1057.2	180.16	1.1557e-06	7.5252e-06	372.11	146.65	74.55	30.875	6.2716e-06	63.397	0.0003213	0.00031431	8.4792e-05	552.95	3.4564e-06	3.4104e-06	790.5	137.41	3.3863e-06	3.3592e-06	277.16	109.44	56.415	23.682	3.4165e-06	46.868	168.799	294.174	238.233	127.355	362.372	125.084	127.347	132.807	338.894	151.644	131.413	135.582	137.939	142.381	197.098	140.389	-8191	255	
2078.179	1	1	0	0	0.19315	0.031863	0.19271	0.14345	0.22955	0.072255	0.072543	0.29379	0.1121	0.20125	0.26424	0.17446	0.15173	0.11179	0.27566	0.31086	-0.75833	-0.75833	-0.30208	-1.1208	-0.3	-0.575	-1.1917	-0.19583	-1.0375	-0.88125	-0.27292	-1.2313	-0.49375	-0.49375	-1.1167	-0.31458	468.922	114.873	242.809	286.075	182.192	296.914	176.797	214.276	310.648	382.714	332.301	385.553	259.367	442.347	316.595	455.940	0.00062731	0.00059715	0.00022323	732.24	7.4941e-06	2.9786e-06	1067.7	179.42	1.723e-05	9.8453e-06	365.79	147.74	74.026	31.041	1.242e-05	63.161	0.000325	0.00030349	8.566e-05	551.58	3.3782e-06	3.3748e-06	793.89	136.89	3.3988e-06	3.3892e-06	275	109.34	56.315	23.697	3.376e-06	47.04	179.005	182.284	117.102	127.875	250.967	143.298	128.004	132.844	117.931	259.456	131.197	135.409	137.668	141.557	278.324	140.191	-8191	255	
2078.275	1	1	0	0	0.072767	0.14966	0.17584	0.093618	0.15393	0.018831	0.15129	0.22696	0.37602	0.20475	0.25112	0.10268	0.18199	0.17595	0.11479	0.25038	-0.72917	-0.84583	-0.31667	-1.1104	-0.66458	-0.55833	-1.1354	-0.275	-0.88958	-0.86042	-0.26458	-1.125	-0.56042	-0.46458	-0.86875	-0.24375	259.234	316.106	141.716	413.728	470.663	182.830	202.747	470.335	427.632	291.915	434.232	176.109	373.163	123.894	200.435	437.412	0.00053168	0.0014376	0.00051766	736.95	9.565e-06	3.0768e-06	1070.6	177.19	9.1811e-07	1.236e-05	374.42	147.6	74.304	31.328	8.9634e-06	63.424	0.00031829	0.00030412	8.5565e-05	555.21	3.3809e-06	3.3138e-06	792.02	136.91	3.2594e-06	3.2083e-06	277.11	110.21	56.625	23.702	3.3461e-06	47.081	173.734	200.305	135.631	128.296	453.928	387.349	127.921	132.586	336.335	287.051	131.516	136.304	137.877	141.964	254.581	141.051	-8191	255	
2078.371	1	1	0	0	0.17435	0.11806	0.49235	0.18346	0.1435	0.23464	0.52151	0.084911	0.22292	0.14645	0.12931	0.37305	0.39978	0.084948	0.25296	0.11366	-0.5125	-0.97292	-0.32083	-0.87708	-0.475	-0.30417	-1.1292	-0.25833	-0.85	-1.1812	-0.33542	-1.0938	-0.75625	-0.5125	-1.3833	-0.3625	439.925	260.163	372.643	468.271	308.260	363.554	334.635	253.362	372.438	445.724	384.200	443.325	377.916	125.039	277.714	312.379	0.00052944	0.0014831	0.00025082	732.44	6.0553e-06	6.1322e-06	1066.9	178.7	4.8448e-06	3.6809e-06	370.83	150.79	74.168	31.216	1.3855e-05	63.307	0.00031875	0.00030798	8.3346e-05	553.72	3.387e-06	3.3856e-06	793.89	136.26	3.3305e-06	3.3425e-06	276.16	111.08	56.7	23.637	3.3854e-06	47.103	182.498	191.918	143.534	128.192	329.274	289.308	128.014	132.777	363.385	461.741	132.096	136.233	138.078	142.145	197.603	140.563	-8191	255	
2078.492	1	1	0	0	0.068528	0.27758	0.29195	0.17157	0.12404	0.12487	0.13637	0.14782	0.091422	0.18519	0.15442	0.079887	0.21679	0.36618	0.14527	0.013273	-0.29792	-0.93542	-0.16458	-1.025	-0.78333	-0.25417	-1.3708	-0.47917	-0.62917	-1.175	-0.24792	-1.0958	-0.78542	-0.32917	-1.3125	-0.3125	251.044	286.813	335.963	117.875	255.713	284.042	460.774	408.445	256.111	272.627	244.505	227.826	448.598	381.652	363.454	460.221	0.0006954	0.0013704	0.00040205	737.17	5.136e-06	6.5412e-06	1058.6	178.23	2.5065e-06	1.0146e-05	368.68	146.55	73.906	30.966	6.9746e-06	62.328	0.00031757	0.00030069	8.5456e-05	553.96	3.4271e-06	3.3905e-06	791.71	136.42	3.4312e-06	3.3781e-06	275.16	109.05	56.252	23.564	3.3242e-06	46.444	173.454	229.725	178.267	128.221	303.220	250.388	127.772	133.180	195.404	208.816	130.683	135.551	137.861	141.884	201.854	140.863	-8191	255	
2078.588	1	1	0	0	0.16735	0.10666	0.12718	0.076107	0.15751	0.076193	0.30933	0.10913	0.076738	0.077208	0.098626	0.16464	0.19461	0.12795	0.32285	0.28998	-0.12083	-1.0854	-0.25	-0.75208	-0.85208	-0.37917	-1.3458	-0.58125	-0.525	-1.1604	-0.36458	-0.96667	-0.88542	-0.21458	-0.93125	-0.80833	362.358	460.035	238.196	397.134	432.265	312.789	428.664	197.027	197.435	243.639	142.332	273.799	472.599	310.481	289.321	381.242	0.00055632	0.0011163	0.00039331	731.23	4.384e-06	6.8239e-06	1050.1	178.27	9.3969e-06	9.1638e-06	372.69	147.35	73.917	30.816	8.1994e-06	63.472	0.00032084	0.00031432	8.6369e-05	549.86	3.4049e-06	3.4399e-06	784.29	135.85	3.4035e-06	3.4207e-06	275.9	109.44	56.286	23.625	3.4024e-06	46.867	191.137	473.946	254.074	128.709	188.015	367.044	127.827	133.155	335.520	229.304	131.892	136.289	138.437	142.635	154.151	140.652	-8191	255	
2078.684	1	1	0	0	0.14417	0.20571	0.24654	0.28603	0.27283	0.17898	0.20849	0.40177	0.14216	0.054968	0.17408	0.25123	0.22364	0.15306	0.15952	0.12021	0.12917	-1.0271	-0.2	-0.71667	-0.93542	-0.24375	-1.1229	-0.63333	-0.19375	-1.0521	-0.37292	-0.81042	-1.0021	-0.091667	-0.93125	-1.0104	260.168	379.310	426.814	402.451	422.398	185.755	456.707	414.789	424.077	222.655	452.583	408.102	117.425	446.689	457.088	263.785	0.00057707	0.001355	0.00010644	733.29	2.2489e-06	1.4853e-05	1061.4	179.69	4.158e-06	6.7622e-06	367.05	146.9	74.691	31.115	6.815e-06	63.384	0.00032136	0.00032188	8.4526e-05	551.46	3.3972e-06	3.4419e-06	789.29	136.83	3.3439e-06	3.3989e-06	273.68	108.99	56.764	23.616	3.3567e-06	47.117	173.545	330.543	153.966	128.701	351.435	192.944	127.294	132.430	316.271	346.470	130.822	136.000	137.776	142.954	159.504	140.501	-8191	255	
2078.780	1	1	0	0	0.23676	0.23489	0.25947	0.25436	0.3627	0.092754	0.22065	0.22761	0.074902	0.24985	0.16124	0.21749	0.11027	0.23753	0.16699	0.086965	0.0125	-1.0104	-0.36667	-0.66875	-1.0146	-0.22708	-1.0542	-0.85625	-0.23125	-0.9875	-0.55625	-0.66667	-1.1688	-0.32083	-0.80833	-1.0458	120.372	276.661	469.446	435.573	376.792	192.653	455.828	410.095	375.824	455.401	389.074	195.296	173.983	431.083	344.339	393.303	0.00049503	0.0009169	0.00029149	735.02	9.3717e-06	5.728e-06	1057.1	177.3	1.3486e-06	8.8357e-06	372.35	146.28	73.411	31.202	1.8272e-05	63.564	0.00031511	0.00031035	8.6391e-05	552.63	3.429e-06	3.4333e-06	790.13	135.86	3.4103e-06	3.4307e-06	275.5	110.29	56.157	23.723	3.5021e-06	47.201	176.987	191.590	438.598	128.527	235.875	325.410	128.021	132.518	256.810	324.493	131.066	135.952	138.211	142.470	235.872	139.712	-8191	255	
2078.876	1	1	0	0	0.34891	0.1327	0.14629	0.25812	0.028572	0.22017	0.31496	0.10243	0.065147	0.050389	0.30592	0.3416	0.07811	0.16788	0.22746	0.13932	0.0083333	-1.0292	-0.64792	-0.47708	-1.1354	-0.29792	-0.99583	-0.92083	-0.21042	-1.1292	-0.70417	-0.31667	-1.3354	-0.34375	-0.75417	-1.0958	156.872	301.776	199.334	449.937	330.212	355.434	400.313	122.869	460.706	268.547	408.390	206.933	450.483	387.301	361.932	459.051	0.00058494	0.00055227	0.00013843	732.41	1.3605e-05	1.2537e-05	1054	176.26	7.1133e-06	1.6091e-05	366.11	146.1	74.847	31.036	1.54e-06	62.89	0.00031717	0.0003131	8.838e-05	550.51	3.4243e-06	3.4322e-06	788.77	135.39	3.5374e-06	3.3949e-06	274.94	109.5	56.536	23.706	3.5375e-06	47.141	177.975	310.656	234.162	128.203	278.155	241.863	127.551	132.364	256.703	294.754	131.483	135.809	137.088	141.153	283.849	140.206	-8191	255	
2078.973	1	1	0	0	0.47283	0.1416	0.095084	0.27445	0.25691	0.059141	0.26889	0.14693	0.18638	0.070792	0.10251	0.08649	0.12563	0.2164	0.078584	0.27761	0.19167	-0.98958	-0.70833	-0.42292	-1.1104	-0.54167	-1.1208	-1.1625	-0.175	-1.0792	-0.80208	-0.3875	-1.1229	-0.38333	-0.45625	-1.1229	234.784	165.003	219.408	123.677	159.027	342.652	347.248	195.939	398.602	206.953	159.488	412.890	303.950	258.779	291.982	205.447	0.0005004	0.00095628	0.00021221	728.12	2.302e-06	1.1669e-05	1042.1	176.47	1.009e-05	7.1308e-06	371.57	148.71	74.013	31.251	3.6288e-06	63.664	0.00032384	0.00032339	8.8584e-05	546.09	3.5101e-06	3.4386e-06	783.24	136.03	3.5246e-06	3.4904e-06	275.09	110.32	56.708	23.784	3.453e-06	47.327	170.731	203.726	434.708	127.568	126.752	251.099	127.346	132.912	148.792	156.118	131.147	135.740	138.125	142.415	180.369	140.446	-8191	255	
2079.091	1	1	0	0	0.17205	0.13812	0.14797	0.37359	0.23787	0.20847	0.28577	0.11149	0.3329	0.039232	0.14026	0.29437	0.061133	0.34251	0.29202	0.076941	0.23333	-1.0583	-1.1875	-0.37708	-1.05	-0.58542	-0.69375	-1.0271	-0.54167	-0.71667	-1.05	-0.44792	-0.99375	-0.625	-0.45625	-1.3375	417.493	239.343	338.660	442.436	264.319	161.253	399.956	458.724	272.092	375.945	245.503	454.058	121.879	442.156	127.289	400.026	0.00062891	0.00024508	0.00042087	727.95	8.0235e-06	1.2099e-05	1054.2	178.26	4.8575e-06	1.2292e-05	369.51	147.83	75.341	31.086	4.31e-06	64.346	0.00032976	0.00032584	8.8228e-05	546.15	3.5855e-06	3.5195e-06	789.3	137.2	3.5826e-06	3.6156e-06	276.57	110.6	56.904	23.783	3.5597e-06	47.798	174.059	269.206	225.448	127.861	311.493	268.134	127.898	132.391	263.597	196.865	131.524	136.259	138.548	141.445	269.637	140.337	-8191	255	
2079.188	1	1	0	0	0.20249	0.15688	0.28689	0.056639	0.27996	0.20023	0.43933	0.04594	0.28599	0.23045	0.15214	0.22492	0.19019	0.11986	0.077122	0.30536	-0.08125	-0.87708	-1.1271	-0.13542	-0.975	-0.46042	-0.62083	-1.4583	-0.31875	-0.70208	-1.0688	-0.36458	-0.98125	-0.8375	-0.22292	-1.2854	360.908	390.196	439.942	328.277	338.382	449.043	367.773	291.145	462.943	469.717	353.444	438.563	289.186	370.075	380.586	339.508	0.00060058	0.00075837	0.00033676	729.42	8.8544e-06	1.9132e-06	1060.6	179.18	6.0509e-06	5.9177e-06	367.31	150.01	75.511	31.251	8.7945e-07	64.821	0.00033958	0.00031749	8.8464e-05	548.78	3.5412e-06	3.5639e-06	789.53	136.92	3.5637e-06	3.6101e-06	276.91	111.75	57.209	24.028	3.6645e-06	48.342	181.507	183.727	455.708	127.845	233.297	359.323	127.527	132.451	272.509	142.906	130.565	135.423	137.908	141.479	288.328	140.267	-8191	255	
2079.284	1	1	0	0	0.14063	0.11298	0.15229	0.25713	0.24977	0.28008	0.14924	0.11688	0.1612	0.13486	0.11743	0.086779	0.14351	0.1058	0.085891	0.16336	-0.13958	-0.52083	-0.90833	-0.275	-1.0187	-0.85208	-0.29583	-0.99792	-0.34792	-0.64167	-1.2208	-0.34583	-0.9125	-0.85833	-0.38958	-1.1208	444.110	380.985	159.208	435.035	171.796	433.500	424.507	257.458	178.887	467.048	129.011	432.191	142.944	175.878	241.154	344.336	0.0005783	0.00076607	0.00033212	725.53	1.1153e-05	1.3031e-05	1066.7	178.56	1.1763e-05	3.7872e-06	375.78	150.04	74.962	31.506	6.242e-06	65.13	0.00034479	0.00033066	9.1181e-05	549.28	3.6744e-06	3.6558e-06	794.09	137.01	3.5778e-06	3.5676e-06	279.13	112.14	57.088	24.069	3.5883e-06	48.244	164.403	220.999	233.810	127.656	375.364	145.570	128.756	134.040	217.548	234.496	132.153	136.738	138.282	142.094	317.285	140.360	-8191	255	
2079.355	1	1	0	0	0.24142	0.24204	0.059991	0.24275	0.068125	0.20016	0.19787	0.13644	0.13335	0.14239	0.14635	0.28191	0.18015	0.10028	0.24456	0.4024	-0.0375	-0.41667	-1.0479	-0.48958	-0.90833	-0.9875	-0.34792	-1.2021	-0.53542	-0.7125	-1.3646	-0.45833	-0.92083	-0.97917	-0.47708	-1.2229	369.619	280.992	248.534	323.512	150.559	128.140	341.722	440.093	381.329	222.508	153.619	417.571	466.064	122.263	272.052	399.165	0.00056844	0.0015149	0.00045325	721.33	6.3255e-06	1.8975e-06	1054.8	180.43	1.233e-05	5.4337e-06	374.39	148.69	74.375	31.422	8.248e-06	64.333	0.00033235	0.00032685	9.0695e-05	546.83	3.617e-06	3.6317e-06	790.71	137.95	3.679e-06	3.505e-06	279.21	111.02	56.868	24.009	3.6426e-06	48.084	197.447	394.354	201.015	127.858	220.762	399.908	127.541	132.858	185.936	245.044	131.451	136.045	138.044	141.455	387.285	140.322	-8191	255	
2079.452	1	1	0	0	0.25256	0.26591	0.11913	0.21424	0.18869	0.074834	0.1523	0.094286	0.14685	0.094758	0.049143	0.29759	0.16467	0.12623	0.10005	0.14083	-0.27292	-0.375	-1.2313	-0.31042	-0.82917	-1.0104	-0.24792	-1.1292	-0.68333	-0.3	-1.1646	-0.38125	-0.6	-1.1458	-0.25208	-1.0938	400.270	431.966	399.690	407.466	465.740	135.608	450.591	143.475	453.130	471.338	417.688	461.613	391.058	237.377	251.986	322.726	0.00069989	0.0015523	8.2025e-05	724.13	2.3554e-06	1.2365e-05	1054.5	179.52	5.8783e-06	1.2717e-05	374.16	150.31	76.172	32.041	6.9569e-06	65.241	0.00033466	0.00033373	9.1807e-05	548.68	3.6414e-06	3.5816e-06	789.28	137.53	3.6265e-06	3.6824e-06	279.99	112.02	57.066	24.446	3.5354e-06	48.877	181.104	226.666	115.716	127.997	121.349	271.361	127.833	133.029	186.526	281.698	131.363	135.308	137.946	141.600	233.852	140.358	-8191	255	
2079.572	1	1	0	0	0.087703	0.15295	0.17534	0.12759	0.20101	0.10305	0.15485	0.10647	0.2614	0.18236	0.143	0.37886	0.0631	0.29157	0.21049	0.26008	-0.3625	-0.18333	-1.1812	-0.70833	-0.53542	-1.1375	-0.20208	-1.0479	-0.86042	-0.41042	-1.2146	-0.53542	-0.575	-1.3042	-0.17708	-1.0854	188.613	198.933	392.672	409.917	356.861	439.508	414.014	447.705	165.347	323.714	434.833	435.247	216.938	428.793	460.583	355.003	0.0004889	0.00069609	0.00021434	732.6	6.966e-06	7.4517e-06	1069.9	181.39	1.2983e-05	1.0748e-05	379.42	149.72	74.69	31.697	9.5547e-06	65.788	0.00033142	0.00031432	8.7007e-05	551.54	3.4539e-06	3.4775e-06	797.86	138.27	3.3806e-06	3.4067e-06	280.51	112.1	56.959	24.223	3.4648e-06	48.917	198.035	238.331	456.662	128.118	263.300	333.447	127.931	133.405	355.172	181.378	131.645	135.841	138.190	141.527	298.598	140.866	-8191	255	
2079.668	1	1	0	0	0.14413	0.14854	0.061592	0.073545	0.12798	0.21137	0.34259	0.15854	0.058416	0.092902	0.2056	0.19696	0.021149	0.16282	0.33665	0.27754	-0.65417	-0.32708	-1.0312	-0.81042	-0.51042	-0.98125	-0.6	-0.79167	-1.1854	-0.3375	-1.1542	-0.68333	-0.28125	-1.1146	-0.40208	-0.83125	382.483	200.127	349.714	435.056	376.790	142.164	435.776	128.755	122.254	217.750	443.539	333.021	288.757	420.221	357.093	420.460	0.00063278	0.00038579	0.00038191	735.32	8.233e-06	2.6442e-06	1073.5	179.03	4.0017e-06	1.6248e-05	378.74	151.23	75.071	31.786	3.1143e-06	65.517	0.00032747	0.00031058	8.8542e-05	551.68	3.4179e-06	3.4379e-06	797.21	137.54	3.3589e-06	3.4568e-06	280.73	112.53	57.131	24.25	3.5752e-06	48.785	175.471	320.581	208.273	128.471	195.779	243.591	128.105	132.729	232.116	117.898	131.340	135.896	137.708	141.442	391.356	140.822	-8191	255	
2079.765	1	1	0	0	0.30549	0.16831	0.057611	0.12851	0.29218	0.56965	0.21438	0.29823	0.22349	0.12073	0.069592	0.14408	0.26045	0.11544	0.20436	0.025187	-0.8125	-0.2625	-0.94167	-0.89583	-0.35417	-1.1667	-0.68542	-0.54792	-1.0854	-0.2125	-1.0333	-0.76667	-0.43333	-1.1208	-0.53333	-0.73542	210.816	437.265	344.373	416.130	119.875	124.455	422.823	454.500	303.147	199.676	118.903	432.683	156.588	374.442	241.499	443.399	0.0006197	0.00057621	0.00021999	730.55	6.8276e-06	4.6954e-06	1054.3	180.16	9.3177e-06	2.99e-06	375.35	149.93	75.248	32.099	2.4633e-06	64.885	0.00033208	0.00031741	9.0893e-05	551.63	3.599e-06	3.5941e-06	792.01	137.7	3.6225e-06	3.6946e-06	278.54	112.05	56.889	24.54	3.8147e-06	48.295	178.202	322.081	429.113	127.937	319.837	383.934	128.107	132.625	418.565	117.100	131.364	135.985	138.436	141.568	228.600	140.017	-8191	255	
2079.861	1	1	0	0	0.11711	0.32148	0.27605	0.17291	0.085764	0.2889	0.19012	0.069178	0.10029	0.092922	0.39835	0.16257	0.23005	0.11035	0.026537	0.32328	-0.8375	-0.097917	-0.89583	-0.87917	-0.14167	-1.1875	-0.6875	-0.325	-1.1938	-0.27292	-1.0458	-1.125	-0.29375	-1.0604	-0.6875	-0.60208	359.213	338.644	430.741	385.508	123.380	158.899	369.121	231.068	465.742	153.726	350.608	312.614	465.957	185.480	131.175	405.963	0.00078593	7.5993e-05	0.00033643	732.25	4.5538e-06	7.2168e-06	1042.1	177.36	2.7607e-06	6.6141e-06	375.03	150.78	74.264	32.173	5.7279e-06	65.258	0.00034529	0.00033535	9.5191e-05	552.95	3.7901e-06	3.725e-06	788.3	136.85	3.6904e-06	3.6971e-06	280.85	112.4	57.139	24.625	3.7805e-06	48.94	179.041	246.527	153.866	127.532	286.523	284.208	128.025	132.280	346.701	317.292	131.914	135.845	138.091	142.336	175.798	141.017	-8191	255	
2079.957	1	1	0	0	0.16437	0.35911	0.096178	0.17506	0.116	0.27222	0.039061	0.047185	0.23051	0.10918	0.26908	0.21229	0.22819	0.15447	0.29281	0.20796	-1.0021	-0.35	-0.78958	-1.0542	-0.14375	-1.2354	-0.66875	-0.32708	-1.1292	-0.3375	-0.60208	-1.1938	-0.18333	-0.93542	-0.68958	-0.50208	461.286	271.707	397.655	457.895	200.338	171.994	455.868	117.232	305.008	204.981	235.052	406.919	146.436	473.352	221.898	409.734	0.0006424	0.00068438	0.00033292	727.77	1.2854e-05	3.8671e-06	1051.3	178.7	8.5255e-06	7.1922e-06	378.34	150.02	74.091	32.544	8.4848e-06	66.119	0.00035844	0.00035149	9.4851e-05	550.67	3.7817e-06	3.8016e-06	784.75	137.58	3.7676e-06	3.7856e-06	280.85	112.85	57.146	24.676	3.7679e-06	49.384	176.975	254.273	130.470	127.906	198.150	267.463	128.199	132.757	209.418	286.681	131.495	136.725	137.602	141.818	280.358	141.355	-8191	255	
2080.053	1	1	0	0	0.2898	0.10394	0.39432	0.13934	0.12807	0.11963	0.31785	0.2084	0.03524	0.2063	0.16279	0.109	0.03871	0.48387	0.10749	0.056662	-0.75208	-0.39583	-0.71667	-1.1333	-0.45208	-1.0208	-1.0583	-0.35625	-1.1958	-0.44583	-0.64167	-1.1229	-0.17917	-1.0271	-0.90833	-0.38333	378.095	216.131	264.661	129.414	239.385	228.179	357.497	363.763	199.426	326.576	126.362	346.911	330.079	431.968	274.915	420.926	0.00066236	0.0003788	0.00022809	726.28	2.914e-06	9.376e-06	1039.1	177.99	8.7524e-07	8.2942e-06	372.19	151.63	75.359	32.192	7.8458e-06	65.612	0.00035875	0.00034859	9.7129e-05	547.78	3.9224e-06	3.9006e-06	783.66	136.7	3.857e-06	3.7883e-06	279.75	113.1	57.479	24.603	3.8394e-06	49.241	180.303	273.465	171.969	127.688	194.588	159.599	127.441	131.779	423.373	348.117	131.346	135.888	137.351	141.429	336.987	140.231	-8191	255	
2080.172	1	1	0	0	0.053747	0.059455	0.18351	0.11535	0.073338	0.18019	0.34188	0.35112	0.077211	0.045144	0.21706	0.27913	0.17873	0.3652	0.082819	0.11315	-0.75	-0.46458	-0.17292	-1.0771	-0.27917	-0.99583	-0.99375	-0.18125	-0.92708	-0.55833	-0.28333	-1.1375	-0.36458	-0.74375	-1.1729	-0.375	313.475	214.454	400.043	260.801	267.046	201.159	395.139	118.316	300.437	327.244	432.708	420.674	145.512	469.650	213.340	356.858	0.00073302	0.0013109	0.00013469	725.62	9.1961e-06	1.2134e-05	1022.6	175.19	2.1126e-06	1.5954e-05	370.38	149.73	73.348	31.964	1.2093e-05	64.519	0.00036615	0.00035506	9.9862e-05	548.59	3.9094e-06	3.939e-06	774.22	136.71	3.9808e-06	4e-06	277.46	112.53	56.961	24.472	4.0368e-06	48.474	187.939	211.863	464.144	127.679	124.355	296.701	127.481	131.546	288.204	292.768	130.504	136.038	137.401	140.783	182.600	140.237	-8191	255	
2080.268	1	1	0	0	0.11503	0.2303	0.28778	0.19555	0.17685	0.15221	0.44533	0.13954	0.057251	0.038116	0.16352	0.052667	0.11628	0.188	0.27629	0.23895	-0.64167	-0.56458	-0.275	-1.1333	-0.30625	-0.8	-0.95	-0.30625	-0.90625	-0.7625	-0.3125	-1.1479	-0.45833	-0.52083	-1.0417	-0.22917	274.872	378.102	447.249	203.250	279.722	465.085	440.797	386.634	163.623	195.698	180.378	420.153	390.828	204.560	217.268	450.684	0.00060788	0.0019474	0.00026799	709.4	1.401e-05	1.1848e-05	1021.2	177.71	9.5015e-06	5.6028e-06	371.05	151.25	73.475	31.548	5.7557e-06	65.091	0.00038654	0.00036884	0.00010389	542.91	4.1344e-06	4.1303e-06	770.32	137.7	4.1751e-06	4.1768e-06	279.26	112.91	57.186	24.572	4.241e-06	48.888	191.466	159.284	201.800	127.659	236.284	454.730	127.950	132.226	263.228	226.562	130.682	135.553	138.678	141.530	320.297	140.323	-8191	255	
2080.364	1	1	0	0	0.17529	0.21137	0.39517	0.16057	0.15394	0.12498	0.47547	0.39145	0.25493	0.12197	0.058448	0.15053	0.39746	0.28072	0.20728	0.33242	-0.70417	-0.75833	-0.23958	-1.2188	-0.45833	-0.4625	-1.3292	-0.16667	-1.0833	-0.83125	-0.35833	-0.925	-0.54583	-0.45208	-1.2146	-0.27083	322.920	376.227	340.054	426.602	137.061	257.575	440.716	371.309	165.805	186.537	133.569	117.164	216.317	197.491	276.755	385.398	0.00065989	0.0010739	0.0005162	710.95	1.4513e-05	1.0231e-05	1034.7	177.24	5.2152e-06	1.1111e-05	374.25	150.22	74.424	31.94	4.2065e-06	65.608	0.00040901	0.00040398	0.00010962	542.69	4.3493e-06	4.427e-06	777.37	138.07	4.5e-06	4.5406e-06	280.41	113.35	57.617	24.542	4.5087e-06	49.128	189.082	369.568	300.993	127.909	300.156	374.573	127.607	132.862	140.421	327.362	131.209	135.482	137.409	141.675	121.130	140.367	-8191	255	
2080.460	1	1	0	0	0.21971	0.11206	0.26898	0.12473	0.13451	0.11259	0.36959	0.34229	0.033568	0.16223	0.036534	0.096118	0.34759	0.16775	0.14101	0.19366	-0.37292	-1.05	-0.16667	-1.1583	-0.71458	-0.50417	-1.1167	-0.37292	-0.80417	-0.84375	-0.2625	-1.1646	-0.64792	-0.55417	-1.2521	-0.3625	459.954	343.993	245.106	382.534	346.638	216.354	466.572	326.307	340.428	257.311	452.194	411.648	410.732	444.919	147.140	159.242	0.00049681	0.0015969	0.00019005	706.82	8.5195e-06	1.4168e-05	1032.8	178.99	1.1506e-05	8.532e-06	368.87	150.38	73.992	32.266	9.5927e-06	66.1	0.00042023	0.00039511	0.00011475	542.12	4.3931e-06	4.3284e-06	778.88	138.3	4.2855e-06	4.1445e-06	279.45	113.99	57.178	24.713	4.1343e-06	49.602	171.244	267.300	215.793	127.821	144.725	336.111	127.649	131.552	272.106	295.457	131.141	135.256	138.260	142.261	283.634	139.565	-8191	255	
2080.581	1	1	0	0	0.070343	0.013329	0.24438	0.19193	0.15827	0.14688	0.24134	0.18361	0.0072887	0.17887	0.026702	0.094902	0.15845	0.14132	0.048068	0.091177	-0.27708	-0.93958	-0.31042	-1.1479	-0.93542	-0.44375	-1.2687	-0.58542	-0.58542	-1.2208	-0.11875	-0.96458	-0.80417	-0.37708	-1.0938	-0.46875	374.731	159.301	438.787	447.212	222.760	184.821	347.863	136.324	362.224	284.345	207.745	378.230	289.436	408.677	268.246	466.097	0.00063832	0.00040352	0.00013509	717.74	5.9996e-06	7.6896e-06	1053.8	176.88	1.4819e-05	9.3406e-06	372.67	152.59	73.884	31.703	5.0917e-06	65.804	0.00037612	0.00036189	0.00010321	544.41	4.0099e-06	3.949e-06	788.14	137.44	3.9047e-06	3.9801e-06	278.81	113.14	56.712	24.41	4.1495e-06	49.196	185.074	430.623	363.270	127.325	140.406	245.247	127.731	132.795	167.272	470.650	131.337	135.875	137.351	141.842	192.478	140.193	-8191	255	
2080.653	1	1	0	0	0.1976	0.061287	0.39921	0.072259	0.20695	0.13368	0.041984	0.14446	0.2642	0.053254	0.10785	0.1991	0.023741	0.25274	0.13596	0.20096	0.027083	-1.1375	-0.20208	-0.8	-0.90417	-0.16458	-1.2208	-0.64375	-0.44167	-1.1958	-0.36042	-0.66875	-0.93958	-0.34167	-0.91042	-0.63958	137.134	370.529	454.154	203.120	360.510	338.184	422.894	451.558	341.581	121.087	126.837	413.405	166.838	175.813	188.625	126.031	0.00064599	0.0005997	0.00028329	718.26	8.9355e-06	1.0006e-05	1051	175.09	2.8871e-06	1.21e-05	370.82	151.06	73.855	31.938	6.8967e-06	65.638	0.00037569	0.00036563	0.00010124	546.08	3.9859e-06	4.1139e-06	786.86	136.65	4.1267e-06	4.0489e-06	278.38	113.36	56.711	24.466	4.1783e-06	49	183.768	332.810	328.591	127.705	226.168	130.504	127.710	132.417	273.223	254.159	131.268	136.723	138.011	141.404	146.066	140.960	-8191	255	
2080.773	1	1	0	0	0.099497	0.16158	0.22992	0.43342	0.087533	0.14963	0.32298	0.2289	0.067564	0.34385	0.16736	0.06209	0.22319	0.16617	0.16422	0.13835	-0.13542	-1.1812	-0.38542	-0.82292	-0.9625	-0.23958	-1.1667	-0.65208	-0.33125	-1.2146	-0.31875	-0.71458	-1.0979	-0.32708	-1.0063	-0.70833	218.367	247.654	400.880	406.802	134.685	287.451	422.621	157.773	375.151	473.228	405.097	235.852	463.470	452.452	242.766	116.944	0.00050733	0.0012981	0.00014651	717.38	7.7184e-06	7.1763e-06	1050.4	177.64	5.0163e-06	7.101e-06	374.93	151.66	74.718	31.957	3.7299e-06	66.173	0.00038651	0.00037726	0.00010505	546.27	4.0385e-06	4.1384e-06	788.83	138.02	4.1511e-06	4.1804e-06	281.01	114.14	57.359	24.597	4.299e-06	49.61	188.394	419.568	157.700	128.206	411.069	216.979	127.904	132.199	244.493	463.115	131.944	136.215	137.825	141.404	237.778	140.381	-8191	255	
2080.869	1	1	0	0	0.29028	0.24738	0.24865	0.24593	0.050874	0.19778	0.15238	0.26875	0.081049	0.13506	0.40485	0.12639	0.2413	0.164	0.030821	0.16636	0.0875	-1.1875	-0.33333	-0.67708	-1.1562	-0.18333	-1.0771	-1.0312	-0.25	-1.2521	-0.62917	-0.65	-1.1104	-0.33125	-0.90625	-0.90833	218.024	315.070	333.951	114.969	282.428	423.194	424.434	333.786	280.303	393.099	409.098	465.545	385.391	466.942	447.055	393.350	0.00060025	0.0012043	0.00021859	721.28	6.262e-06	7.3124e-06	1046.2	176.69	7.6251e-06	7.9502e-06	375.07	153.04	74.049	32.174	1.2485e-05	66.649	0.00039832	0.00039329	0.00010834	545.05	4.3068e-06	4.3239e-06	787.59	137.9	4.2935e-06	4.3694e-06	282.9	115.64	57.523	24.904	4.3964e-06	50.133	171.448	179.553	245.116	127.163	147.084	268.262	127.309	132.299	408.994	132.065	130.965	136.138	137.439	141.485	298.541	140.141	-8191	255	
2080.964	1	1	0	0	0.17298	0.28485	0.20472	0.1461	0.13977	0.26004	0.15394	0.11503	0.36285	0.18629	0.070581	0.16986	0.44268	0.38389	0.15597	0.040301	0.12917	-1.2979	-0.4	-0.4375	-1.0771	-0.15833	-0.89167	-0.94583	-0.4125	-1.1812	-0.81042	-0.37083	-1.0583	-0.24792	-0.76042	-1.0792	349.561	239.117	213.181	447.040	319.052	401.470	375.286	144.886	394.106	209.407	143.051	289.203	392.138	359.267	231.987	452.511	0.00065778	0.00099104	0.00038654	718.6	6.3096e-06	2.3609e-06	1039.8	177.35	9.0191e-06	1.1402e-05	372.62	151.53	73.937	31.89	2.8308e-06	65.866	0.00039659	0.00038222	0.00010864	546.6	4.2545e-06	4.251e-06	783.8	137.92	4.2175e-06	4.2028e-06	281.06	114.54	57.054	24.604	4.179e-06	49.667	191.380	293.085	293.913	127.655	299.859	263.287	127.557	132.544	281.036	290.466	131.346	136.305	138.300	141.640	178.780	139.774	-8191	255	
2081.060	1	1	0	0	0.13644	0.066868	0.21615	0.16566	0.093309	0.21451	0.19308	0.19254	0.072192	0.44899	0.11674	0.22807	0.090917	0.19349	0.13228	0.12585	0.36875	-0.975	-0.74583	-0.27292	-1.0375	-0.43125	-0.94167	-1.125	-0.022917	-1.0917	-0.74167	-0.4625	-1.0333	-0.34375	-0.53542	-1.1771	427.996	206.875	411.091	376.247	275.952	392.412	402.468	209.533	214.960	349.771	282.907	374.820	446.406	442.062	188.367	375.160	0.00051476	0.0014932	0.00021036	714.2	7.2899e-06	3.401e-06	1040.1	177.96	8.3144e-06	1.0018e-05	371.63	150.69	73.698	31.893	1.2681e-05	65.081	0.0003818	0.00036422	0.0001016	541.44	3.9486e-06	4.0078e-06	784.27	136.96	3.8955e-06	3.9736e-06	277.46	113.1	56.695	24.323	3.8568e-06	48.966	169.400	226.349	252.017	127.245	438.911	342.975	127.824	132.026	345.737	202.165	131.240	136.004	137.836	141.821	386.393	140.348	-8191	255	
2081.181	1	1	0	0	0.042997	0.089135	0.12986	0.19803	0.1024	0.11813	0.33299	0.17535	0.27242	0.047183	0.16292	0.16837	0.15167	0.086619	0.19672	0.32477	-0.045833	-0.86042	-0.81875	-0.34167	-1.0479	-0.53125	-0.64792	-1.0792	-0.22083	-0.92708	-1.0229	-0.23333	-1.0854	-0.54583	-0.39167	-1.1229	309.441	397.852	139.497	182.927	434.078	170.618	400.612	398.946	465.077	355.968	398.914	440.896	175.285	190.042	400.700	464.354	0.00073711	0.00033831	0.00022492	717.72	9.2406e-06	1.1707e-05	1045.9	176.8	4.8676e-06	1.8546e-05	371.51	150.33	74.168	31.693	4.0346e-06	65.404	0.00036566	0.0003485	9.6688e-05	540.5	3.8344e-06	3.7577e-06	780.77	135.94	3.7454e-06	3.8146e-06	279.02	113.13	56.818	24.267	3.8053e-06	49.048	180.387	193.993	136.488	127.432	238.936	291.990	127.887	132.812	193.556	285.481	130.917	135.828	138.060	141.371	438.423	140.197	-8191	255	
2081.252	1	1	0	0	0.23736	0.25985	0.018844	0.22605	0.059115	0.091614	0.030297	0.25214	0.17451	0.033926	0.22667	0.16638	0.22479	0.14619	0.080613	0.33644	0.11667	-0.68333	-0.73958	-0.24792	-0.975	-0.70833	-0.40208	-1.2354	-0.34792	-0.80417	-0.97083	-0.22292	-0.97083	-0.88125	-0.45	-1.1083	233.189	297.555	401.645	123.217	127.737	298.353	328.927	316.847	126.529	158.211	157.737	430.415	118.621	307.924	367.371	449.875	0.00062071	0.00067234	0.00048638	716.01	2.3863e-06	1.0512e-05	1053.5	176.82	4.635e-06	4.5882e-06	374.84	153.11	74.207	31.781	1.0505e-05	66.428	0.00034677	0.00034573	9.5628e-05	540.56	3.8448e-06	3.7978e-06	784.09	136.76	3.8931e-06	3.8655e-06	279.22	114.15	56.622	24.375	4.0511e-06	49.629	192.109	354.801	153.492	127.409	351.730	287.977	127.950	132.849	301.256	204.175	131.024	135.539	138.293	141.187	402.482	140.228	-8191	255	
2081.348	1	1	0	0	0.11688	0.07129	0.16898	0.22181	0.25026	0.22188	0.37571	0.14682	0.15669	0.3042	0.17588	0.062882	0.18295	0.38341	0.17494	0.051266	0.01875	-0.6375	-1.0854	-0.33125	-0.9375	-0.725	-0.33333	-1.1938	-0.38542	-0.64167	-1.4	-0.22917	-0.71042	-0.58125	-0.1625	-1.2687	446.737	390.331	185.595	399.307	368.895	379.706	433.336	263.470	236.383	371.968	450.264	415.933	292.291	414.799	251.880	235.790	0.00081908	0.001956	0.0005077	702.08	5.09e-06	6.2652e-06	1033.4	176.27	6.0444e-06	9.4244e-06	373.74	151.53	73.556	31.831	1.6667e-05	65.557	0.00037647	0.00036451	9.9153e-05	536.92	3.9713e-06	4.0516e-06	780.45	136.44	3.9904e-06	4.047e-06	280.55	114.09	56.395	24.428	4.1435e-06	49.499	174.055	465.971	193.371	127.966	138.141	161.040	127.426	131.932	326.748	222.161	131.478	135.776	137.788	141.678	257.925	140.434	-8191	255	
2081.445	1	1	0	0	0.076204	0.098948	0.24429	0.35771	0.052329	0.020351	0.26497	0.12726	0.1392	0.30462	0.38563	0.24398	0.25598	0.08765	0.048169	0.47301	0.10208	-0.34375	-1.0312	-0.39583	-0.725	-0.94792	-0.27917	-1.2667	-0.60417	-0.5375	-1.2188	-0.32708	-1.0375	-0.90208	-0.22917	-1.1917	279.663	434.068	365.777	115.882	364.184	283.907	145.553	453.306	130.776	422.587	448.551	388.825	403.436	434.358	363.190	418.423	0.00055382	0.001211	0.00030248	709.72	2.2271e-06	1.1508e-05	1026.5	174.88	4.7588e-06	1.5082e-05	371.43	150.19	74.404	31.137	1.5083e-05	65.458	0.00040118	0.00038102	0.00010782	538.88	4.2258e-06	4.2796e-06	774.74	136.1	4.1691e-06	4.2662e-06	277.96	113	56.723	24.225	4.4542e-06	49.356	175.540	264.607	363.062	127.704	180.339	194.286	127.668	132.262	277.775	268.165	130.835	135.313	137.887	141.058	190.881	140.529	-8191	255	
2081.541	1	1	0	0	0.061092	0.13986	0.031249	0.30645	0.29834	0.034848	0.19091	0.32985	0.171	0.27095	0.31861	0.14314	0.1455	0.37957	0.21294	0.33156	-0.16458	-0.41042	-1.1125	-0.325	-0.70417	-0.99375	-0.23958	-1.0167	-0.69583	-0.47083	-1.2417	-0.45208	-0.79375	-1.0083	-0.28333	-1.0333	328.894	303.632	441.697	394.707	381.515	401.000	372.160	126.101	386.570	345.329	436.011	435.095	383.479	396.042	201.525	436.422	0.00043987	0.001886	0.00010234	695.05	8.8902e-06	4.964e-06	1010.9	175.24	1.1638e-05	2.039e-06	365.32	152.19	73.164	31.865	5.9985e-06	66.309	0.0004072	0.00040771	0.00011459	534.75	4.6305e-06	4.5549e-06	769.31	136.82	4.701e-06	4.53e-06	278.58	114.2	57.022	24.579	4.8026e-06	49.756	199.751	215.382	210.358	127.631	136.302	399.730	127.492	132.220	289.424	169.906	130.851	135.769	137.377	141.579	225.657	140.326	-8191	255	
2081.661	1	1	0	0	0.19858	0.42863	0.084409	0.33104	0.18277	0.09477	0.13689	0.34979	0.1613	0.15813	0.16485	0.25322	0.42548	0.18486	0.23828	0.041763	-0.39583	-0.28125	-1.0167	-0.64167	-0.45833	-1.0854	-0.34583	-0.90208	-0.90833	-0.33542	-1.2938	-0.78542	-0.52708	-1.1313	-0.11042	-0.82917	136.687	364.931	234.723	463.070	286.209	467.787	461.874	441.672	122.643	168.544	450.701	370.333	395.702	444.528	294.145	286.022	0.00056409	0.00097499	0.00023418	693.37	4.6626e-06	1.4417e-05	1010	171.59	5.4391e-06	1.4813e-05	365.35	151.33	71.92	31.418	3.5647e-06	65.9	0.00044795	0.00043332	0.00012207	530.84	4.8079e-06	4.5497e-06	765.64	135.84	4.7435e-06	4.8989e-06	278.47	114.23	56.734	24.528	4.7638e-06	49.691	176.376	202.324	138.844	127.666	243.431	327.042	127.315	133.251	288.705	218.856	131.642	135.458	138.012	141.656	289.731	140.776	-8191	255	
2081.757	1	1	0	0	0.27587	0.31037	0.2119	0.25251	0.1139	0.12632	0.27166	0.17692	0.14816	0.070447	0.30026	0.12342	0.13475	0.076957	0.17947	0.25564	-0.60417	-0.13125	-1.0958	-0.56458	-0.40625	-0.94375	-0.50417	-0.66875	-1.0375	-0.16458	-1.0729	-0.66458	-0.31458	-1.2417	-0.28125	-0.80208	422.568	461.805	138.574	382.363	284.191	306.799	385.617	424.016	317.676	209.831	455.703	334.818	350.882	472.037	169.126	436.945	0.00059915	0.00062767	2.3156e-05	693.29	1.1107e-05	4.6082e-06	1017.5	174.79	2.2269e-05	3.8781e-06	371.32	151.66	72.575	31.472	6.8744e-06	66.117	0.00043934	0.0004413	0.00012053	532.42	4.7385e-06	4.6069e-06	769.46	136.49	4.6734e-06	4.6688e-06	281.89	114.65	56.648	24.505	4.7087e-06	49.843	199.421	187.200	318.479	127.464	363.866	438.082	127.576	132.048	280.992	373.039	131.226	136.395	137.887	141.762	213.363	140.558	-8191	255	
2081.854	1	1	0	0	0.32242	0.039813	0.14268	0.16543	0.19735	0.14726	0.20499	0.12388	0.11985	0.20182	0.28907	0.095142	0.11171	0.21979	0.080671	0.15542	-0.70208	-0.2	-0.98333	-0.60625	-0.2875	-1.0771	-0.59583	-0.82083	-1.1313	-0.27917	-0.92292	-0.7	-0.4	-1.2979	-0.55833	-0.69792	438.321	129.906	433.025	415.656	128.394	274.397	127.478	420.643	153.919	431.340	398.332	396.194	428.609	144.239	341.737	233.801	0.00051793	0.00056835	0.00052236	683.5	1.0945e-05	8.9106e-06	1030.6	173.19	1.1476e-05	8.6622e-06	362.28	151.27	73.086	30.881	2.1634e-05	65.494	0.00043047	0.00042756	0.00011881	530.47	4.6894e-06	4.7384e-06	771.57	136.51	4.6938e-06	4.7439e-06	277.34	113.62	56.576	24.253	4.6764e-06	49.545	211.055	415.317	176.023	128.731	210.439	145.796	128.196	132.274	365.254	200.853	131.849	135.889	138.609	141.742	271.214	140.730	-8191	255	
2081.950	1	1	0	0	0.10569	0.29109	0.1166	0.19891	0.26308	0.12134	0.24675	0.21999	0.24557	0.096317	0.11226	0.26568	0.095819	0.26616	0.0043585	0.31828	-0.80417	-0.10208	-0.89375	-1.0542	-0.26667	-1.2292	-0.77292	-0.53958	-1.1896	-0.2625	-0.78333	-1.1063	-0.29167	-1.0167	-0.5875	-0.38958	312.957	419.036	306.081	416.736	261.131	213.836	341.922	442.137	204.424	317.611	455.177	462.175	407.120	392.887	255.827	375.195	0.00051279	0.0011824	7.515e-05	699.32	8.4055e-06	1.1522e-05	1018.3	172.43	1.6812e-05	6.047e-06	372.1	151.82	72.885	31.634	9.8792e-06	65.871	0.00044172	0.00043067	0.0001207	532.82	4.7901e-06	4.7626e-06	769.34	136.41	4.8211e-06	4.7601e-06	281.04	114.69	56.866	24.574	4.8942e-06	49.725	167.505	131.307	399.377	128.261	285.057	207.189	128.528	132.977	186.215	163.806	132.022	136.347	138.377	142.426	312.155	141.241	-8191	255	
2082.046	1	1	0	0	0.079296	0.1391	0.37118	0.37195	0.16074	0.20397	0.2144	0.14324	0.14414	0.13766	0.26094	0.27976	0.14453	0.2474	0.21632	0.11304	-0.84375	-0.31667	-0.63542	-0.97917	-0.0041667	-0.98125	-0.6625	-0.44167	-1.0854	-0.24167	-0.73125	-1.0854	-0.375	-1.0917	-0.725	-0.51458	379.142	389.495	204.938	142.826	333.566	230.319	406.049	392.093	165.018	364.501	130.307	160.654	253.906	386.501	259.104	336.169	0.00071034	0.0012113	0.00012029	693.11	4.0077e-06	8.6031e-06	1026.8	175.53	1.4153e-05	4.0452e-06	372.4	150.75	73.528	31.823	3.5463e-06	66.995	0.00044194	0.00045176	0.00012293	532.47	4.9764e-06	4.8453e-06	773.79	136.93	4.8684e-06	4.8964e-06	280.56	115.08	57.215	24.744	4.9802e-06	50.188	172.505	416.163	224.986	128.460	395.817	272.861	127.944	133.319	179.081	252.119	131.822	135.989	138.752	142.062	432.422	141.990	-8191	255	
2082.142	1	1	0	0	0.28503	0.18631	0.17448	0.28233	0.18491	0.18278	0.13599	0.055243	0.26281	0.17447	0.20501	0.48139	0.068691	0.16701	0.066815	0.11304	-0.92708	-0.2625	-0.69375	-1.1417	-0.16458	-0.80833	-0.66458	-0.37917	-1.1187	-0.33958	-0.74583	-1.2146	-0.35625	-1.0333	-0.8	-0.2375	408.641	383.959	310.246	124.703	242.977	167.715	259.313	203.757	248.533	291.536	331.072	458.398	394.320	363.179	310.183	299.080	0.00078024	0.00011083	0.00018603	696.33	1.0723e-05	1.0068e-05	1031.7	176.63	6.4217e-06	7.1995e-06	377.61	154.36	73.902	31.631	1.0499e-05	67.207	0.0004597	0.00045325	0.00012412	534.82	4.9401e-06	4.9171e-06	779.19	138.62	4.8234e-06	4.8644e-06	284.04	116.41	57.375	24.72	4.9027e-06	50.541	178.664	353.668	361.012	129.230	233.921	271.548	128.733	133.491	308.536	246.365	132.257	136.715	139.218	142.681	319.898	141.712	-8191	255	
2082.261	1	1	0	0	0.33379	0.22151	0.063701	0.46416	0.078379	0.13555	0.19844	0.28891	0.078377	0.14637	0.27584	0.26278	0.22771	0.10812	0.37765	0.19913	-0.71875	-0.67292	-0.575	-1.2271	-0.44583	-0.91667	-0.98542	-0.26458	-1.1417	-0.54375	-0.5375	-1.2375	-0.35833	-0.8375	-0.94792	-0.30833	345.291	347.420	361.850	449.302	412.648	153.381	196.546	359.143	249.621	146.360	474.124	144.449	421.745	405.374	261.818	151.014	0.00043662	0.00083137	0.0002868	698.3	8.4909e-06	1.0354e-05	1017.8	173.8	5.8052e-06	6.6915e-06	370.18	153.36	73.446	31.959	5.414e-06	66.359	0.000454	0.00045433	0.00012662	536.82	4.995e-06	4.9648e-06	774.39	138.04	4.9935e-06	5.1282e-06	282.79	115.51	57.03	24.844	5.1928e-06	50.111	178.662	163.873	141.723	128.616	239.482	250.644	128.692	133.758	172.838	295.371	131.966	136.862	138.232	143.172	280.874	141.328	-8191	255	
2082.357	1	1	0	0	0.16036	0.16389	0.35159	0.34605	0.084373	0.013383	0.237	0.23313	0.068152	0.16069	0.17735	0.058295	0.2449	0.15698	0.16839	0.041559	-0.85833	-0.59583	-0.43333	-1.2313	-0.38958	-0.77083	-0.98333	-0.077083	-1.2271	-0.9	-0.1375	-1.1083	-0.30625	-0.65625	-1.1292	-0.3375	201.727	197.836	352.621	417.566	144.898	249.137	381.728	400.875	396.470	164.840	383.398	292.584	417.184	411.912	125.900	208.838	0.00065659	0.00057529	0.00010822	699.59	4.7905e-06	1.0907e-05	1017.1	176.96	1.0854e-05	1.7149e-05	373.46	152.07	72.736	31.844	4.7716e-07	65.903	0.0004631	0.00045778	0.000126	533.96	4.9114e-06	5.0346e-06	769.55	138.47	5.0568e-06	5.0259e-06	281.21	115.22	57.131	24.761	5.0706e-06	50.028	173.579	198.747	259.443	129.110	350.843	304.809	128.672	132.551	212.626	251.334	132.253	136.262	137.451	141.004	200.609	140.125	-8191	255	
2082.453	1	1	0	0	0.25479	0.19925	0.17373	0.27315	0.23381	0.18407	0.17597	0.16876	0.28988	0.12387	0.20304	0.087873	0.10926	0.13602	0.25889	0.24654	-0.52292	-0.54167	-0.325	-1.05	-0.35417	-0.6125	-1.1063	-0.2625	-0.85625	-0.875	-0.14792	-1.0542	-0.60417	-0.41042	-0.94375	-0.44375	317.431	276.792	284.167	128.831	447.126	289.089	388.344	400.898	173.669	122.902	326.629	143.749	339.160	433.245	192.066	379.340	0.00057133	0.00094894	0.00019018	698.2	4.4368e-06	9.7506e-06	1019.1	173.84	1.078e-05	6.9044e-06	373.09	152.72	72.808	32.04	3.833e-06	66.84	0.00045629	0.0004535	0.00012729	533.76	5.0767e-06	4.9958e-06	769.86	138.16	4.9682e-06	5.0104e-06	281.24	116.08	57.349	25.044	5.0755e-06	50.398	178.214	145.143	344.807	127.318	142.637	312.878	126.972	132.346	210.577	224.328	130.864	135.245	137.040	141.304	343.168	140.212	-8191	255	
2082.549	1	1	0	0	0.24743	0.25541	0.1685	0.27681	0.1155	0.23318	0.30863	0.03896	0.11662	0.30921	0.22989	0.092198	0.16486	0.11907	0.20846	0.1326	-0.50833	-1.0125	-0.34583	-0.99167	-0.55625	-0.29375	-1.3125	-0.29167	-0.77917	-0.92917	-0.50208	-1.1167	-0.56875	-0.29375	-1.1729	-0.44167	331.988	463.432	180.184	464.854	445.574	155.261	451.982	206.525	315.493	453.255	149.078	460.809	425.172	292.083	292.084	157.433	0.00060885	0.0013266	0.00032018	687.74	1.1382e-05	5.5517e-06	1013.3	175.99	9.0382e-06	6.4274e-06	367.36	152.72	72.585	32.23	5.6247e-06	66.819	0.00046504	0.00046441	0.00012873	535.14	5.2277e-06	5.3054e-06	770.22	139.07	5.2471e-06	5.3884e-06	282.39	116.13	57.332	25.142	5.2759e-06	50.948	193.849	233.044	246.902	127.146	308.834	302.350	127.227	132.831	315.716	159.950	130.850	135.536	137.128	141.243	263.149	140.406	-8191	255	
#DATA ENDS
