BOXY.EXE: ISS Imagent and Oximeter Data Acquisition Program Version 0.80
Ascii Record File

#ACQ INFORMATION
2  Detector Channels 
16  External MUX Channels 
1  Auxiliary Channels 
5000  Waveform (CCF) Frequency (Hz)
1  Waveforms Skipped 
30  Waveforms Averaged 
1  Cycles Averaged 
16  Acquisitions per Waveform 
10.0806  Updata Rate (Hz) 

#FILE INFORMATION
TRUE -- External MUX Channel results are PARSED.
FALSE -- AC DC and Phase are NOT grouped.
TRUE -- Companion Program Settings File CREATED.
FALSE -- AC data not excluded
FALSE -- DC data not excluded
FALSE -- Phase data not excluded
FALSE -- Auxillary Chn. data not excluded
Tab delimiters

#CALIBRATION STATE
TRUE -- Waveform Calibration Values APPLIED.


#AUX CALIBRATION VALUES
Val Type	aux-1	

Term	1.0000e+00	
Factor	0.0000e+00	


#WF CALIBRATION VALUES
A = Detector Channel
Val Type	A-AC1	A-AC2	A-AC3	A-AC4	A-AC5	A-AC6	A-AC7	A-AC8	A-AC9	A-AC10	A-AC11	A-AC12	A-AC13	A-AC14	A-AC15	A-AC16	A-DC1	A-DC2	A-DC3	A-DC4	A-DC5	A-DC6	A-DC7	A-DC8	A-DC9	A-DC10	A-DC11	A-DC12	A-DC13	A-DC14	A-DC15	A-DC16	A-Ph1	A-Ph2	A-Ph3	A-Ph4	A-Ph5	A-Ph6	A-Ph7	A-Ph8	A-Ph9	A-Ph10	A-Ph11	A-Ph12	A-Ph13	A-Ph14	A-Ph15	A-Ph16	

Term	0.00000e+00	0.00000e+00	0.00000e+00	0.00000e+00	0.00000e+00	0.00000e+00	0.00000e+00	0.00000e+00	0.00000e+00	0.00000e+00	0.00000e+00	0.00000e+00	0.00000e+00	0.00000e+00	0.00000e+00	0.00000e+00	0.00000e+00	0.00000e+00	0.00000e+00	0.00000e+00	0.00000e+00	0.00000e+00	0.00000e+00	0.00000e+00	0.00000e+00	0.00000e+00	0.00000e+00	0.00000e+00	0.00000e+00	0.00000e+00	0.00000e+00	0.00000e+00	0.00000e+00	0.00000e+00	0.00000e+00	0.00000e+00	0.00000e+00	0.00000e+00	0.00000e+00	0.00000e+00	0.00000e+00	0.00000e+00	0.00000e+00	0.00000e+00	0.00000e+00	0.00000e+00	0.00000e+00	0.00000e+00	
Factor	1.00000e+00	1.00000e+00	1.00000e+00	1.00000e+00	1.00000e+00	1.00000e+00	1.00000e+00	1.00000e+00	1.00000e+00	1.00000e+00	1.00000e+00	1.00000e+00	1.00000e+00	1.00000e+00	1.00000e+00	1.00000e+00	1.00000e+00	1.00000e+00	1.00000e+00	1.00000e+00	1.00000e+00	1.00000e+00	1.00000e+00	1.00000e+00	1.00000e+00	1.00000e+00	1.00000e+00	1.00000e+00	1.00000e+00	1.00000e+00	1.00000e+00	1.00000e+00	X	X	X	X	X	X	X	X	X	X	X	X	X	X	X	X	

B = Detector Channel
Val Type	B-AC1	B-AC2	B-AC3	B-AC4	B-AC5	B-AC6	B-AC7	B-AC8	B-AC9	B-AC10	B-AC11	B-AC12	B-AC13	B-AC14	B-AC15	B-AC16	B-DC1	B-DC2	B-DC3	B-DC4	B-DC5	B-DC6	B-DC7	B-DC8	B-DC9	B-DC10	B-DC11	B-DC12	B-DC13	B-DC14	B-DC15	B-DC16	B-Ph1	B-Ph2	B-Ph3	B-Ph4	B-Ph5	B-Ph6	B-Ph7	B-Ph8	B-Ph9	B-Ph10	B-Ph11	B-Ph12	B-Ph13	B-Ph14	B-Ph15	B-Ph16	

Term	0.00000e+00	0.00000e+00	0.00000e+00	0.00000e+00	0.00000e+00	0.00000e+00	0.00000e+00	0.00000e+00	0.00000e+00	0.00000e+00	0.00000e+00	0.00000e+00	0.00000e+00	0.00000e+00	0.00000e+00	0.00000e+00	0.00000e+00	0.00000e+00	0.00000e+00	0.00000e+00	0.00000e+00	0.00000e+00	0.00000e+00	0.00000e+00	0.00000e+00	0.00000e+00	0.00000e+00	0.00000e+00	0.00000e+00	0.00000e+00	0.00000e+00	0.00000e+00	-5.98413e-01	-1.30042e+02	-1.38030e+02	-1.82546e+02	-4.99836e+01	-7.89732e+01	-1.57750e+02	-1.62015e+02	-5.40988e+01	-8.57005e+01	-1.71389e+02	-1.70427e+02	-1.80918e+02	-1.76347e+02	-8.43569e+01	-1.49615e+02	
Factor	3.03423e-05	9.25433e-05	3.49011e-05	1.70982e-01	1.15984e-06	1.11292e-06	1.63773e-01	4.31174e-02	1.13071e-06	1.13966e-06	7.65482e-02	2.71767e-02	2.14451e-02	7.95183e-03	1.41084e-06	1.17365e-02	9.22724e-07	9.46101e-07	2.63614e-07	8.73792e-02	1.03490e-08	1.03626e-08	7.84794e-02	2.21183e-02	1.03652e-08	1.03812e-08	3.72480e-02	1.32241e-02	1.09778e-02	4.04788e-03	1.03666e-08	5.71099e-03	X	X	X	X	X	X	X	X	X	X	X	X	X	X	X	X	



#DISTANCE SETTINGS
A = Detector Channel
A-1	A-2	A-3	A-4	A-5	A-6	A-7	A-8	A-9	A-10	A-11	A-12	A-13	A-14	A-15	A-16	

2.5000e+00	3.0000e+00	2.5000e+00	3.0000e+00	2.0000e+00	3.0000e+00	1.5000e+00	3.0000e+00	3.0000e+00	3.0000e+00	3.0000e+00	3.0000e+00	3.0000e+00	3.0000e+00	1.5000e+00	3.0000e+00	

B = Detector Channel
B-1	B-2	B-3	B-4	B-5	B-6	B-7	B-8	B-9	B-10	B-11	B-12	B-13	B-14	B-15	B-16	

1.0000e+01	1.0000e+01	1.0000e+01	1.4400e+00	1.0000e+01	1.0000e+01	1.5100e+00	1.9400e+00	1.0000e+01	1.0000e+01	1.9900e+00	2.4900e+00	2.4100e+00	2.9000e+00	1.0000e+01	2.9800e+00	




#DATA BEGINS
time	group	step	mark	flag	A-AC1	A-AC2	A-AC3	A-AC4	A-AC5	A-AC6	A-AC7	A-AC8	A-AC9	A-AC10	A-AC11	A-AC12	A-AC13	A-AC14	A-AC15	A-AC16	A-DC1	A-DC2	A-DC3	A-DC4	A-DC5	A-DC6	A-DC7	A-DC8	A-DC9	A-DC10	A-DC11	A-DC12	A-DC13	A-DC14	A-DC15	A-DC16	A-Ph1	A-Ph2	A-Ph3	A-Ph4	A-Ph5	A-Ph6	A-Ph7	A-Ph8	A-Ph9	A-Ph10	A-Ph11	A-Ph12	A-Ph13	A-Ph14	A-Ph15	A-Ph16	B-AC1	B-AC2	B-AC3	B-AC4	B-AC5	B-AC6	B-AC7	B-AC8	B-AC9	B-AC10	B-AC11	B-AC12	B-AC13	B-AC14	B-AC15	B-AC16	B-DC1	B-DC2	B-DC3	B-DC4	B-DC5	B-DC6	B-DC7	B-DC8	B-DC9	B-DC10	B-DC11	B-DC12	B-DC13	B-DC14	B-DC15	B-DC16	B-Ph1	B-Ph2	B-Ph3	B-Ph4	B-Ph5	B-Ph6	B-Ph7	B-Ph8	B-Ph9	B-Ph10	B-Ph11	B-Ph12	B-Ph13	B-Ph14	B-Ph15	B-Ph16	aux-1	digaux	

864.721	1	1	0	768	0.18961	0.19277	0.21064	0.20558	0.15529	0.097598	0.36249	0.16114	0.33906	0.13924	0.10713	0.093815	0.1026	0.10254	0.1777	0.27459	-2.0542	-1.6729	-1.5104	-2.5187	-1.3417	-1.9333	-2.1937	-1.2646	-2.2083	-1.6542	-1.5562	-2.1896	-1.3604	-1.8083	-2.0646	-1.4438	113.946	74.918	331.803	320.068	272.303	266.965	286.066	56.405	135.856	259.575	229.597	53.204	85.045	287.814	95.073	99.830	0.00076568	0.00050095	0.00010902	1359.2	5.582e-06	7.1111e-06	1361.1	367.83	9.0517e-06	7.1373e-06	419.44	140.83	122.45	41.778	4.0432e-06	51.96	0.00058906	0.00058126	0.00016083	1385.3	6.3608e-06	6.3774e-06	1384.7	375.77	6.4126e-06	6.396e-06	428.88	144.07	125.47	43.215	6.4923e-06	53.511	271.789	131.067	229.246	62.429	180.890	174.602	62.428	67.335	204.133	90.677	66.635	71.785	71.631	75.985	372.087	75.237	-8191	255	
864.817	1	1	0	0	0.10222	0.11123	0.21382	0.33664	0.30075	0.077524	0.18827	0.082138	0.079136	0.17225	0.49616	0.079983	0.24534	0.35979	0.03664	0.23322	-1.9	-1.8208	-1.4062	-2.3792	-1.3271	-1.8917	-2.475	-1.5625	-2.0729	-2.0271	-1.5938	-2.5	-1.6875	-1.8146	-2.2438	-1.625	145.915	222.134	138.749	391.360	341.536	313.778	395.482	85.861	110.330	351.688	364.873	49.826	371.182	403.781	176.884	61.593	0.00073577	0.00061829	0.00033147	1361.7	3.7206e-06	2.1021e-06	1367	368.9	9.5032e-06	4.1773e-06	419.89	141.61	123.22	42.062	9.6755e-06	51.858	0.0005962	0.0005923	0.00016332	1386.8	6.4918e-06	6.5141e-06	1384.7	376.21	6.5671e-06	6.5089e-06	430.13	144.57	125.93	43.436	6.5414e-06	53.595	281.471	152.827	127.058	62.010	240.348	193.713	62.320	67.188	281.622	95.247	66.400	71.397	71.850	76.115	129.666	75.141	-8191	255	
864.913	1	1	0	0	0.22878	0.11648	0.10035	0.26457	0.19175	0.04626	0.27499	0.33516	0.21813	0.10347	0.19926	0.039123	0.13647	0.15497	0.1988	0.3804	-1.7854	-1.9521	-1.3729	-2.4813	-1.6187	-1.6437	-2.3625	-1.4792	-2.0125	-2.0396	-1.5104	-2.4729	-2.025	-1.8479	-2.3458	-1.5979	131.091	54.386	388.247	348.447	239.458	194.344	335.673	308.179	390.086	118.416	334.792	149.860	336.609	308.787	105.459	333.551	0.00076092	0.00071001	0.00028026	1359.7	7.6181e-06	8.8981e-06	1362.4	369.31	4.1104e-06	7.4786e-06	422.55	140.73	122.36	41.974	1.278e-05	52.002	0.0006008	0.00059338	0.00016548	1386	6.4795e-06	6.5209e-06	1385.2	376.69	6.4647e-06	6.4323e-06	430.86	144.17	125.5	43.299	6.4194e-06	53.476	293.453	161.681	157.133	62.543	178.233	225.389	62.398	67.154	175.890	196.479	66.472	71.270	71.860	76.208	202.478	74.998	-8191	255	
865.009	1	1	0	0	0.23783	0.13507	0.24193	0.1559	0.13848	0.093939	0.43146	0.35039	0.095173	0.16199	0.24241	0.26106	0.22875	0.47339	0.051784	0.13008	-1.6417	-2.1396	-1.3146	-2.425	-1.7542	-1.6521	-2.4062	-1.5625	-1.7708	-2.1021	-1.5333	-2.4625	-2.0125	-1.6458	-2.2583	-1.7792	331.910	291.311	131.175	360.566	93.975	100.075	368.223	347.358	200.183	321.228	295.695	393.205	85.253	338.492	260.029	376.248	0.00082588	0.000735	0.00016144	1357.6	1.0615e-05	7.5006e-06	1366.9	368.6	8.2766e-06	5.3653e-06	420.35	141.5	122.34	41.925	8.9965e-06	52.151	0.00058971	0.00058884	0.00016503	1385.2	6.4711e-06	6.5222e-06	1385.2	376.19	6.5984e-06	6.4925e-06	430.15	144.64	125.61	43.406	6.574e-06	53.65	282.867	155.979	186.938	62.432	217.932	106.794	62.425	67.145	213.019	260.858	66.300	71.412	71.952	76.011	216.470	75.094	-8191	255	
865.104	1	1	0	0	0.16851	0.19611	0.29408	0.14393	0.17279	0.11374	0.29501	0.39297	0.11235	0.32064	0.1255	0.24517	0.11994	0.01922	0.16744	0.27698	-1.4167	-2.2979	-1.3375	-2.2667	-1.8479	-1.4562	-2.5417	-1.8292	-1.5771	-2.4625	-1.3354	-2.0875	-2.1979	-1.4979	-2.3833	-1.7271	292.463	62.579	277.240	317.777	369.163	386.929	313.152	371.154	96.592	280.592	374.111	268.896	378.637	294.377	125.423	64.530	0.00094418	0.00037411	0.00020754	1360.4	8.3263e-06	6.9579e-06	1365.6	368.85	8.896e-06	1.8263e-06	420.5	141.37	122.86	41.873	5.1792e-06	51.989	0.0005947	0.00059393	0.00016489	1385.6	6.4892e-06	6.4985e-06	1384.2	376.1	6.468e-06	6.4629e-06	430.25	144.49	125.67	43.307	6.4906e-06	53.593	273.392	140.720	168.094	62.528	247.617	217.431	62.449	67.198	215.975	52.842	66.314	71.463	71.828	76.047	169.323	75.095	-8191	255	
865.200	1	1	0	0	0.18212	0.057496	0.15772	0.11155	0.18523	0.19869	0.31969	0.086829	0.13711	0.015233	0.28833	0.23824	0.23625	0.3532	0.077762	0.036317	-1.2583	-2.1833	-1.4458	-2.1854	-2.0271	-1.3083	-2.4542	-1.9083	-1.4562	-2.175	-1.3271	-1.9896	-2.0396	-1.4125	-2.3354	-1.7042	281.364	331.262	174.530	89.014	386.327	74.978	333.770	388.813	366.133	200.916	353.678	344.320	321.351	88.924	76.444	274.323	0.00092277	0.00035061	0.00024024	1360.3	4.9745e-06	6.2807e-06	1367	368.25	1.0584e-05	8.0641e-06	419.6	141.53	122.34	41.744	5.657e-06	51.81	0.00059299	0.00058848	0.0001661	1386.9	6.5577e-06	6.5561e-06	1387.6	376.45	6.5497e-06	6.4919e-06	429.64	144.54	125.59	43.227	6.4453e-06	53.424	298.818	136.808	154.809	62.487	266.661	163.140	62.527	67.079	226.557	190.197	66.405	71.605	71.798	76.024	220.914	75.045	-8191	255	
865.321	1	1	0	0	0.10868	0.27434	0.16437	0.13226	0.36249	0.20726	0.37023	0.27244	0.19089	0.035804	0.15278	0.2026	0.16565	0.11906	0.16354	0.18304	-1.075	-2.1896	-1.3229	-2.0333	-2.1583	-1.4396	-2.3604	-1.9042	-1.3896	-2.3125	-1.6021	-1.7917	-2.3208	-1.2667	-2.1	-2	146.274	59.514	99.437	282.587	144.269	233.979	337.971	340.952	271.232	324.154	361.540	189.365	317.674	365.313	139.297	143.100	0.0010205	0.00080253	0.00019802	1360.6	6.1488e-06	6.4524e-06	1356.8	367.95	3.3544e-06	5.4302e-06	417.73	140.74	122.24	41.836	3.2286e-06	51.584	0.00058588	0.00057916	0.00016107	1384.3	6.2678e-06	6.2968e-06	1380.2	375.07	6.2991e-06	6.2969e-06	427.55	143.59	125.32	43.185	6.3794e-06	53.421	289.997	101.889	122.868	62.504	240.269	181.801	62.584	66.921	199.548	112.447	66.211	71.156	71.797	76.043	266.985	74.638	-8191	255	
865.417	1	1	0	0	0.17943	0.2142	0.14413	0.34236	0.17107	0.1898	0.33766	0.30252	0.17418	0.14024	0.2692	0.17031	0.36877	0.30876	0.037473	0.46968	-0.92708	-2.25	-1.3937	-1.9312	-2.0917	-1.3854	-2.2792	-2.1271	-1.2958	-2.4208	-1.5854	-1.8354	-2.4479	-1.5187	-1.9771	-2.1167	204.862	325.815	135.974	391.072	135.461	297.396	353.175	359.607	59.635	74.791	304.104	356.119	133.596	400.235	174.556	352.419	0.00089597	0.0004957	3.5145e-05	1353.5	1.2949e-05	1.0844e-05	1357.4	368.34	3.2954e-06	5.6336e-06	420.56	141.18	122.04	41.862	4.0177e-06	51.741	0.00059398	0.00059114	0.000164	1384.1	6.5693e-06	6.5015e-06	1383.3	376.46	6.5587e-06	6.5483e-06	430.01	144.53	125.72	43.338	6.4869e-06	53.681	275.540	103.542	280.775	62.416	249.508	200.392	62.358	67.202	163.908	134.303	66.078	71.054	71.806	75.563	256.441	74.948	-8191	255	
865.513	1	1	0	0	0.41164	0.13956	0.13918	0.38529	0.099795	0.17009	0.32702	0.2742	0.090285	0.38118	0.11117	0.026976	0.30593	0.43723	0.24516	0.27322	-0.97083	-2.1542	-1.7	-1.6646	-2.3063	-1.4479	-2.1083	-2.2167	-1.4688	-2.2146	-2.0062	-1.7396	-2.3771	-1.7146	-1.6646	-2.4208	307.142	198.035	188.186	360.410	139.875	340.660	372.665	328.582	380.640	216.109	361.941	369.905	355.598	50.891	144.792	112.477	0.00090459	0.00097533	0.00012363	1358.8	3.7815e-06	5.6656e-06	1362	368.14	4.783e-06	1.089e-05	420.1	140.46	122.03	41.61	5.9207e-06	51.707	0.00059639	0.00059493	0.00016484	1386.7	6.5267e-06	6.4995e-06	1385.4	376.75	6.5808e-06	6.5541e-06	431.06	144.49	125.89	43.365	6.5492e-06	53.641	278.462	220.540	394.610	62.532	223.982	235.953	62.381	67.073	223.729	197.969	66.214	71.448	71.644	75.677	140.657	74.589	-8191	255	
865.609	1	1	0	0	0.084821	0.23557	0.21646	0.21826	0.22539	0.11221	0.4457	0.16352	0.06632	0.17374	0.40365	0.19002	0.19979	0.11958	0.1174	0.18098	-1.0625	-2.1292	-1.8729	-1.7083	-2.2417	-1.4958	-2.0062	-2.3271	-1.3292	-2.1542	-2.2604	-1.4792	-2.3583	-1.4625	-1.8271	-2.3792	142.011	67.798	158.982	357.389	236.956	268.644	367.526	391.953	151.582	402.181	356.242	398.749	405.868	398.563	298.176	121.502	0.000752	0.00042437	5.7262e-05	1354.7	7.6804e-06	4.2813e-06	1362.2	367.28	5.6378e-06	3.0551e-06	418.18	140.93	122.22	41.685	4.6721e-06	51.701	0.00060387	0.00059753	0.00016678	1386.2	6.5148e-06	6.5031e-06	1384.9	376.66	6.5012e-06	6.5022e-06	429.81	144.51	125.64	43.326	6.5549e-06	53.6	302.905	177.973	243.091	62.195	257.276	303.828	62.249	66.803	158.522	238.518	66.242	71.271	71.914	75.710	146.548	74.925	-8191	255	
865.705	1	1	0	0	0.099868	0.26033	0.24762	0.15397	0.20805	0.10194	0.49001	0.25431	0.1545	0.1407	0.26915	0.12113	0.19954	0.18756	0.26742	0.31939	-0.76875	-2.0312	-1.975	-1.6083	-2.2313	-1.5479	-1.7708	-2.5187	-1.3875	-2.0563	-2.3187	-1.3604	-2.3563	-1.7229	-1.4042	-2.4167	55.715	59.927	89.787	358.397	127.985	311.229	330.619	318.648	54.615	364.587	304.357	333.968	100.547	345.322	309.804	337.448	0.0006346	0.00053681	7.7181e-05	1351	1.3342e-06	2.3083e-06	1360.4	368.5	4.5939e-06	8.2879e-06	419.71	140.65	122.67	41.956	7.8829e-06	52.338	0.00060328	0.00060126	0.000169	1386.6	6.6901e-06	6.7061e-06	1385.2	377.5	6.7735e-06	6.7637e-06	431.05	144.83	126.34	43.538	6.7993e-06	53.992	281.552	53.317	103.378	62.350	311.172	277.961	62.072	67.125	185.006	90.528	66.544	71.163	71.628	75.972	139.163	74.855	-8191	255	
865.801	1	1	0	0	0.17416	0.12522	0.26338	0.19118	0.14921	0.16694	0.40831	0.19446	0.029035	0.19437	0.14825	0.21176	0.23223	0.093506	0.030921	0.41398	-0.96875	-1.7854	-2.1854	-1.6063	-2.2104	-1.6896	-1.6854	-2.6	-1.3208	-1.9667	-2.2729	-1.3937	-2.3542	-1.8583	-1.1688	-2.525	279.829	389.104	115.971	322.263	307.522	339.515	306.167	406.771	123.433	181.701	187.200	321.848	369.184	124.731	338.926	318.507	0.00070732	0.00051385	0.00019044	1362.4	7.7834e-06	7.9565e-06	1359.8	368.22	8.7519e-06	5.267e-06	415.85	139.31	121.25	41.539	4.417e-06	51.675	0.0006215	0.00061568	0.00017256	1390.8	6.7543e-06	6.7031e-06	1387.1	377.67	6.6716e-06	6.6373e-06	429.88	144.32	125.74	43.318	6.4572e-06	53.523	278.948	72.557	148.773	62.415	219.549	137.970	62.112	67.119	226.566	151.741	66.333	71.206	71.686	75.955	196.745	75.038	-8191	255	
865.898	1	1	0	0	0.035117	0.25098	0.079703	0.11446	0.39493	0.19712	0.46894	0.18191	0.17007	0.25184	0.31103	0.16931	0.14151	0.1978	0.27003	0.15672	-1.1354	-1.8354	-2.2188	-1.5167	-2.0771	-1.9021	-1.6958	-2.4813	-1.6979	-1.6063	-2.2604	-1.5312	-1.9562	-2.1688	-1.3271	-2.325	397.363	307.448	102.359	72.150	320.822	156.134	333.692	393.927	390.649	400.913	380.158	131.947	387.972	360.988	110.078	332.383	0.00075867	0.00047415	0.00014003	1349.6	3.8167e-06	8.2073e-06	1353.4	366.32	1.8536e-06	3.5152e-06	415.39	140.46	121.92	41.707	3.3998e-06	51.217	0.00059353	0.00059123	0.00016428	1383.7	6.4385e-06	6.4004e-06	1384.7	376.1	6.3957e-06	6.3795e-06	429.13	143.94	125.57	43.217	6.2462e-06	53.29	288.613	131.445	140.542	62.366	125.729	196.399	62.132	66.795	266.318	150.680	66.481	71.149	71.617	75.890	69.525	74.659	-8191	255	
866.016	1	1	0	0	0.288	0.21744	0.25409	0.11094	0.21296	0.12819	0.15992	0.27537	0.095821	0.032761	0.04087	0.25523	0.22167	0.13522	0.23548	0.28567	-1.1083	-1.6354	-2.1521	-1.6292	-2.0792	-2.175	-1.8729	-2.2521	-1.7896	-1.6521	-2.3812	-1.5688	-2.0625	-2.2021	-1.3479	-2.2208	95.404	143.486	208.107	309.558	108.277	235.330	363.500	338.276	50.136	335.068	62.679	51.145	60.806	134.034	116.678	379.004	0.00084598	0.00024977	0.00022262	1352.3	9.7726e-06	8.1181e-06	1353.5	364.8	3.9732e-06	1.7673e-06	415.64	139.85	121.32	41.368	1.447e-05	51.364	0.00057008	0.00056235	0.00015775	1380.5	6.079e-06	6.1342e-06	1377.6	374.11	6.1799e-06	6.1589e-06	426.68	143.33	124.69	42.977	6.2347e-06	53.169	284.911	99.388	152.125	62.316	248.207	178.546	62.492	67.096	186.910	229.741	66.245	71.146	71.820	75.720	184.004	75.140	-8191	255	
866.113	1	1	0	0	0.18663	0.1146	0.14159	0.24596	0.35108	0.08218	0.2243	0.064673	0.13564	0.23157	0.38969	0.15427	0.036314	0.24117	0.2111	0.16224	-1.5	-1.6271	-2.1771	-1.6417	-1.8083	-1.8646	-1.3708	-2.3354	-1.6229	-1.4667	-2.4437	-1.6104	-1.6812	-2.4062	-1.3875	-2.2979	298.259	241.580	259.716	386.618	124.341	240.676	391.575	365.838	351.915	401.788	386.192	124.252	238.347	405.627	253.461	307.872	0.00087045	0.0008134	0.00036345	1345.8	8.6486e-06	8.397e-07	1343.7	363.68	3.9013e-06	7.5496e-06	412.59	139.39	120.86	41.544	1.4546e-06	51.384	0.00057624	0.00057781	0.00016077	1376.4	6.3543e-06	6.2834e-06	1372	373.2	6.3343e-06	6.3541e-06	426.02	143.27	124.59	43.04	6.2361e-06	53.191	275.609	155.953	120.281	62.588	194.930	253.098	62.286	67.022	287.620	186.389	66.389	71.104	71.703	75.621	267.434	75.159	-8191	255	
866.209	1	1	0	0	0.14683	0.17953	0.11501	0.35342	0.21662	0.072089	0.50301	0.26877	0.16385	0.032742	0.35055	0.20708	0.11266	0.21937	0.26806	0.0697	-1.475	-1.3521	-2.2375	-1.6042	-1.5167	-2.0667	-1.3813	-2.0667	-2.0667	-1.3542	-2.2479	-1.8896	-1.775	-2.2854	-1.3292	-1.9479	263.254	278.006	334.444	360.659	284.138	238.402	381.331	376.625	58.326	98.808	77.968	361.933	107.342	403.137	291.417	213.653	0.00064551	2.0028e-05	0.00019764	1337.9	4.5106e-06	2.8723e-06	1343.6	363.93	2.3638e-06	1.9898e-06	417.93	140.57	121.86	41.71	1.1473e-05	51.497	0.00056659	0.00056445	0.00015757	1370.1	6.1106e-06	6.1339e-06	1368.9	371.98	6.1412e-06	6.1606e-06	425.68	142.89	124.43	43.024	6.1583e-06	53.153	287.945	95.994	117.266	62.331	209.035	266.357	62.340	67.157	74.584	169.897	66.644	71.287	72.010	76.446	156.923	75.215	-8191	255	
866.280	1	1	0	0	0.27338	0.1838	0.15272	0.24932	0.10706	0.090143	0.31411	0.31416	0.33651	0.035294	0.1113	0.37908	0.22636	0.22216	0.11472	0.16879	-1.7042	-1.1854	-2.0917	-1.875	-1.5438	-2.1521	-1.5771	-2.0458	-2.05	-1.275	-2.4542	-1.7979	-1.5354	-2.2604	-1.3979	-1.7604	275.428	235.027	276.608	388.326	110.440	105.418	49.905	381.800	153.868	338.883	73.871	51.804	365.992	242.542	124.338	237.425	0.00096048	0.00028115	0.00023072	1348.1	6.0021e-06	5.209e-06	1341	360.28	6.6009e-06	2.9e-06	413.16	138.73	120.42	41.238	1.2528e-05	51.132	0.00056544	0.00055976	0.00015622	1372.1	6.1093e-06	6.1377e-06	1368.8	370.8	6.0727e-06	6.032e-06	424.48	142.52	123.95	42.826	5.9504e-06	52.841	276.387	176.108	200.269	62.467	170.562	228.461	62.282	67.042	234.811	122.517	66.378	71.075	71.880	75.722	209.633	74.675	-8191	255	
866.401	1	1	0	0	0.31511	0.21706	0.18068	0.26613	0.16347	0.31095	0.11865	0.31836	0.16512	0.25417	0.40447	0.061427	0.24826	0.30068	0.22813	0.18766	-1.7167	-1.1875	-2.0396	-2.0875	-1.3104	-2.1813	-1.6958	-1.8438	-2.2687	-1.4167	-2.2083	-2.1104	-1.5	-2.3563	-1.6042	-1.6604	356.023	81.098	62.559	308.459	147.251	89.428	377.918	331.072	98.814	158.533	366.273	389.483	54.958	366.248	323.841	88.699	0.00063715	0.00045555	0.0001802	1339.6	9.1042e-06	4.6601e-06	1343.7	364.36	5.7315e-06	3.4193e-06	413.83	139.35	120.89	41.566	5.399e-06	51.211	0.00054783	0.00053969	0.00015252	1372.2	5.9603e-06	6.0027e-06	1369.7	372.33	6.0471e-06	6.0622e-06	424.92	142.89	124.24	42.978	6.1005e-06	53.071	290.504	111.239	91.004	62.280	253.544	157.299	62.148	67.265	226.391	310.634	66.553	71.331	72.155	76.093	96.728	74.756	-8191	255	
866.497	1	1	0	0	0.25019	0.099133	0.17861	0.13766	0.13718	0.12219	0.35432	0.089019	0.17361	0.15009	0.28512	0.20827	0.15663	0.083354	0.12502	0.23251	-1.9125	-1.2417	-1.9188	-2.1417	-1.3083	-2.0458	-1.9125	-1.7521	-2.2646	-1.1333	-2.0021	-1.9542	-1.4917	-2.0646	-1.3687	-1.5729	364.353	193.402	130.210	358.191	322.249	162.472	340.505	338.077	261.588	364.091	332.016	403.031	395.724	158.530	116.042	334.332	0.0007789	0.00055106	7.5366e-05	1344.9	5.622e-06	1.6978e-06	1348.5	364.5	6.304e-06	1.0092e-05	419.61	140.65	121.95	41.985	6.4095e-06	51.719	0.00056179	0.00056279	0.00015526	1374.3	6.1686e-06	6.1163e-06	1374.4	373.21	6.1642e-06	6.1961e-06	427.34	143.54	124.85	43.144	6.2597e-06	53.301	288.175	118.889	260.564	62.139	228.125	103.694	62.134	67.245	137.000	203.435	66.750	71.621	72.262	76.047	147.956	75.231	-8191	255	
866.593	1	1	0	0	0.17667	0.19167	0.12096	0.25837	0.12064	0.13514	0.24755	0.42481	0.089174	0.16971	0.18159	0.086358	0.22616	0.11565	0.35356	0.40415	-1.825	-1.1333	-1.7833	-2.1979	-1.4208	-2.2958	-1.8708	-1.6583	-2.2125	-1.5167	-1.8312	-2.4167	-1.4354	-2.2917	-1.8729	-1.5021	236.863	86.859	266.852	333.590	193.179	236.474	288.688	372.367	215.803	298.102	358.165	364.208	352.537	354.864	179.261	353.047	0.00081204	0.00067963	0.00018062	1358.6	4.2885e-06	6.0039e-06	1356.2	366.55	5.8602e-06	5.272e-06	417.17	139.92	121.83	41.683	1.172e-05	51.124	0.00057389	0.00057269	0.00016024	1379.9	6.3051e-06	6.2763e-06	1376.7	374.2	6.2768e-06	6.2324e-06	427.32	143.64	124.78	43.145	6.1493e-06	53.135	287.395	137.918	134.113	62.528	190.457	192.181	62.423	67.316	176.090	178.378	66.757	71.040	72.054	76.063	203.412	74.929	-8191	255	
866.714	1	1	0	0	0.21661	0.28269	0.057737	0.12314	0.22741	0.29758	0.30393	0.12425	0.096245	0.13094	0.12869	0.073888	0.30872	0.13633	0.046748	0.32437	-1.8396	-1.5333	-1.8458	-2.2792	-1.3042	-2.15	-2.0396	-1.5521	-2.3312	-1.725	-1.7167	-2.2917	-1.525	-2.2042	-2.0687	-1.4458	241.090	81.644	116.320	351.220	368.967	176.337	344.780	381.832	149.988	192.357	393.087	153.841	351.745	50.718	308.715	322.989	0.00087069	0.00031159	0.00025906	1342.4	6.6142e-06	3.6727e-06	1351.6	363.27	6.0219e-06	4.8461e-06	415.44	139.54	122.34	41.85	5.8788e-06	51.831	0.00056747	0.00056076	0.00015622	1377.6	6.136e-06	6.1373e-06	1377.6	373.69	6.1607e-06	6.1646e-06	428.02	143.46	125.09	43.196	6.3013e-06	53.364	285.299	106.327	173.402	62.300	177.423	344.085	62.182	67.220	260.979	153.281	66.582	71.313	72.049	76.248	195.470	74.910	-8191	255	
866.808	1	1	0	0	0.14445	0.37668	0.013837	0.13311	0.16693	0.13468	0.22455	0.14015	0.044303	0.13041	0.26057	0.28329	0.2025	0.2552	0.072038	0.32312	-1.8771	-1.6542	-1.4458	-2.3792	-1.2875	-1.8833	-2.3208	-1.3854	-2.2792	-1.6104	-1.5417	-2.6167	-1.5146	-2.0479	-2.0604	-1.4562	197.422	381.862	226.763	362.308	318.350	163.627	314.469	342.947	302.108	60.917	359.347	385.982	343.052	381.218	223.005	405.456	0.00084497	0.00048037	0.00011819	1348.9	2.8006e-06	6.1976e-06	1343.7	363.44	2.0232e-06	4.2031e-06	413.75	139.25	121.19	41.465	5.7609e-06	51.403	0.00057586	0.0005735	0.00015976	1379.8	6.2367e-06	6.211e-06	1376	374.05	6.2508e-06	6.3009e-06	426.56	143.53	124.98	43.144	6.2684e-06	53.433	295.231	101.578	58.069	62.511	249.957	160.689	62.512	67.439	277.031	400.360	66.362	71.368	71.850	76.230	182.956	75.018	-8191	255	
866.882	1	1	0	0	0.10641	0.14022	0.12589	0.15133	0.084301	0.0072229	0.28334	0.037028	0.14061	0.21351	0.16149	0.23222	0.13336	0.20774	0.034114	0.088467	-1.7729	-1.9479	-1.2979	-2.5417	-1.4167	-1.9	-2.2812	-1.5979	-2.0563	-1.9646	-1.4521	-2.425	-1.8479	-1.8062	-2.1562	-1.5	262.975	59.515	344.883	303.697	300.286	100.477	359.245	131.462	343.999	402.975	369.048	324.254	205.061	356.246	138.567	304.299	0.00084392	0.00081744	4.3329e-05	1348.8	5.2383e-06	1.1328e-05	1353.5	365.12	1.1881e-05	7.0037e-06	415.81	139.45	121.32	41.672	7.5799e-06	51.763	0.00058278	0.00057364	0.00016043	1380.8	6.3298e-06	6.2953e-06	1378.3	374.26	6.2866e-06	6.289e-06	428.06	143.5	125.09	43.2	6.3276e-06	53.456	284.633	151.082	101.480	62.319	236.384	195.420	62.426	67.282	225.600	164.592	66.530	71.215	71.915	75.935	184.992	74.859	-8191	255	
867.002	1	1	0	0	0.13523	0.22803	0.1554	0.37175	0.24181	0.10097	0.26706	0.41482	0.13789	0.07225	0.078218	0.11377	0.25989	0.24041	0.18239	0.094945	-1.6833	-1.7271	-1.3625	-2.4188	-1.7583	-1.6354	-2.3896	-1.5833	-2.2625	-2.1083	-1.3792	-2.5312	-1.7167	-1.7583	-2.2708	-1.3937	352.642	390.108	218.792	371.642	142.941	272.996	271.234	307.143	84.023	205.058	344.713	367.465	52.647	321.259	200.311	217.852	0.00081942	0.00067509	0.00025629	1347.9	9.1101e-07	1.5169e-05	1353.8	365.58	9.4976e-06	8.1094e-06	416.04	139.01	120.96	41.613	1.3099e-05	51.4	0.0005785	0.00057416	0.0001613	1383.7	6.3322e-06	6.3044e-06	1381.1	374.8	6.2978e-06	6.2938e-06	427.74	143.92	124.95	43.134	6.298e-06	53.324	295.246	178.528	151.459	62.586	150.171	207.706	62.231	67.320	220.012	160.508	66.659	71.404	71.840	75.922	149.775	75.221	-8191	255	
867.097	1	1	0	0	0.1577	0.031744	0.11557	0.19578	0.12882	0.16235	0.31865	0.3091	0.28344	0.24515	0.029387	0.16251	0.21613	0.25831	0.082219	0.19859	-1.5854	-1.9562	-1.1729	-2.5938	-1.7313	-1.5438	-2.4146	-1.6833	-1.8542	-2.1375	-1.6812	-2.2104	-1.8979	-1.5063	-2.2875	-1.6625	337.825	285.943	166.862	354.088	356.033	106.473	305.937	389.164	218.839	120.135	302.244	263.453	55.538	334.724	377.518	337.464	0.00083704	0.00026958	0.00019603	1348.5	6.7293e-06	4.6499e-06	1356.1	365.44	3.3691e-06	4.4231e-06	416.89	140.06	121.41	41.769	8.0524e-06	51.483	0.00057403	0.00057483	0.00015979	1382.2	6.3015e-06	6.2993e-06	1381.2	375.14	6.3355e-06	6.335e-06	428.42	144.15	125.32	43.253	6.3126e-06	53.278	274.665	86.103	149.001	62.521	231.057	240.663	62.508	67.186	247.872	245.741	66.357	71.399	71.837	76.054	157.747	74.983	-8191	255	
867.193	1	1	0	0	0.20377	0.1721	0.09493	0.34118	0.16455	0.21502	0.1127	0.29435	0.068433	0.16773	0.16837	0.35329	0.094608	0.076166	0.057848	0.1733	-1.2208	-2.2042	-1.2104	-2.2667	-1.7417	-1.4062	-2.5062	-1.7062	-1.6667	-2.3667	-1.5917	-2.15	-2.2792	-1.3854	-2.0417	-1.9646	315.365	313.036	172.664	317.003	397.285	218.160	358.664	404.490	383.836	315.133	78.358	321.889	178.274	267.023	382.518	58.766	0.00090793	0.0010822	0.00013909	1352.1	8.8484e-06	4.5684e-06	1357.4	364.62	3.2702e-06	2.5652e-06	416.94	139.95	121.26	41.431	1.0333e-05	51.629	0.00057846	0.00057525	0.00015912	1382.3	6.2641e-06	6.2894e-06	1379.9	374.51	6.2629e-06	6.2211e-06	427.58	143.61	124.91	43.104	6.2896e-06	53.369	281.012	156.859	171.941	62.571	250.940	115.170	62.524	67.161	179.368	191.450	66.633	71.569	71.809	75.804	237.119	74.651	-8191	255	
867.314	1	1	0	0	0.23067	0.17033	0.31073	0.1597	0.13481	0.13475	0.15871	0.13886	0.21806	0.14351	0.34848	0.15306	0.10477	0.36172	0.14296	0.17622	-1.1521	-2.3729	-1.2396	-1.9688	-1.9667	-1.4333	-2.425	-1.8146	-1.3958	-2.325	-1.4438	-1.9771	-2.1521	-1.4	-2.2062	-1.6354	247.245	175.148	199.561	68.806	366.119	312.096	372.501	381.599	228.692	53.381	91.549	377.884	393.972	90.593	71.679	232.688	0.00066623	0.00038115	9.4052e-05	1351.7	3.324e-06	5.4818e-06	1353.7	365.51	6.2436e-06	4.9719e-06	417.23	139.71	121.49	41.645	1.3351e-05	51.346	0.00057871	0.00057455	0.00015971	1380.6	6.2972e-06	6.2655e-06	1381.4	375.18	6.3367e-06	6.2528e-06	428.67	143.95	125.28	43.192	6.3651e-06	53.33	272.873	120.849	203.040	62.565	216.091	175.416	62.104	66.979	306.353	143.351	66.516	71.425	71.914	75.942	213.796	74.868	-8191	255	
867.410	1	1	0	0	0.3522	0.16324	0.11281	0.31128	0.27253	0.22163	0.085348	0.12598	0.056062	0.34411	0.037922	0.26197	0.38975	0.14857	0.11859	0.034231	-0.975	-2.2146	-1.3708	-1.9542	-2.0354	-1.2271	-2.3958	-2.1083	-1.2604	-2.2729	-1.5875	-1.7729	-2.3854	-1.4771	-1.8833	-1.9458	376.120	49.619	85.341	344.986	329.371	340.223	314.813	128.829	196.162	196.605	81.544	391.460	407.201	103.534	312.326	213.025	0.00096766	0.00037928	0.00029161	1352.7	1.1455e-05	1.0712e-05	1350.7	366.17	2.509e-06	3.2509e-06	415.71	141.09	121.88	41.723	3.2383e-06	51.525	0.00057937	0.00057845	0.00016046	1383.1	6.2641e-06	6.2958e-06	1380.6	375.01	6.3035e-06	6.286e-06	427.58	144.4	125.44	43.239	6.2995e-06	53.409	287.127	205.807	165.167	62.417	226.424	215.765	62.399	67.067	210.152	168.209	66.504	71.540	71.803	75.947	181.425	74.764	-8191	255	
867.506	1	1	0	0	0.22619	0.063606	0.11878	0.31555	0.10733	0.047589	0.22933	0.23788	0.095046	0.20197	0.24051	0.17181	0.22524	0.22742	0.17133	0.45438	-1.0729	-2.2792	-1.4958	-1.9	-2.375	-1.35	-2.1521	-2.2292	-1.4042	-2.1813	-1.6667	-1.8417	-2.3812	-1.3292	-1.8646	-2.0917	392.022	266.448	151.729	377.643	268.596	304.394	61.959	323.875	126.699	264.588	379.424	348.269	363.457	404.382	354.449	300.566	0.00080654	0.00036865	0.00015681	1346.8	3.3169e-06	7.4931e-06	1349.2	363.69	7.9625e-06	2.2269e-06	418.08	140.75	121.63	41.58	2.5496e-06	51.502	0.00057787	0.00057512	0.00015871	1379.3	6.2475e-06	6.2409e-06	1379.3	373.84	6.2104e-06	6.2116e-06	427.5	143.6	125.15	43.178	6.1986e-06	53.386	280.725	126.640	101.640	62.345	227.520	174.479	62.391	67.166	223.309	395.031	66.514	71.674	71.740	75.902	140.194	74.936	-8191	255	
867.578	1	1	0	0	0.086589	0.11732	0.055071	0.19935	0.17901	0.016563	0.36048	0.035838	0.15677	0.17348	0.27739	0.31029	0.03456	0.22455	0.16509	0.23894	-0.88125	-2.0833	-1.5729	-1.5688	-2.2708	-1.3125	-1.95	-2.0646	-1.4688	-2.0771	-1.8438	-1.4146	-2.5187	-1.5083	-1.6542	-2.2917	80.029	240.856	202.978	313.204	102.176	376.900	375.327	287.550	354.430	58.585	406.229	62.213	277.010	353.452	266.242	59.648	0.00074365	0.00038423	0.0001682	1354.3	8.5937e-06	4.4362e-06	1365.8	367.79	5.6151e-06	6.0534e-06	416.35	140.11	121.56	41.491	5.3329e-06	51.657	0.00057438	0.00056842	0.00015854	1384.9	6.2647e-06	6.2775e-06	1384	375.41	6.308e-06	6.2728e-06	427.78	143.73	125.15	43.154	6.303e-06	53.524	287.618	166.634	177.037	62.457	199.901	153.001	62.357	67.270	219.846	180.610	66.583	71.487	71.697	75.771	236.512	74.961	-8191	255	
867.698	1	1	0	0	0.15128	0.088107	0.10967	0.31394	0.237	0.086896	0.24593	0.32557	0.088722	0.079539	0.14202	0.22107	0.069857	0.16793	0.15464	0.28159	-0.98542	-2.1333	-1.8125	-1.7125	-2.1771	-1.4083	-1.8062	-2.4792	-1.4542	-1.9604	-1.9083	-1.5979	-2.5479	-1.6167	-1.6958	-2.2833	49.061	258.697	214.341	377.679	351.291	316.347	309.481	60.004	117.010	124.687	230.345	359.947	58.728	398.719	67.591	313.390	0.0007733	0.00076965	0.00023197	1361.3	1.4151e-05	5.6314e-06	1365.7	369.19	7.3233e-06	5.3016e-06	421.05	141.85	122.57	41.973	7.1944e-06	51.922	0.00058422	0.00057907	0.00016184	1386.6	6.3602e-06	6.336e-06	1385.3	376.62	6.3613e-06	6.3905e-06	430.09	144.79	125.62	43.299	6.346e-06	53.517	293.175	120.034	106.021	62.359	251.560	260.393	62.347	67.023	224.887	261.329	66.688	71.277	71.882	75.811	251.273	74.824	-8191	255	
867.794	1	1	0	0	0.14373	0.22498	0.20037	0.25524	0.073908	0.13882	0.21618	0.02976	0.25175	0.17816	0.47367	0.2931	0.24094	0.25539	0.16255	0.23271	-0.97917	-2.0271	-1.8083	-1.5583	-2.3438	-1.6792	-1.7708	-2.4479	-1.3125	-1.8875	-2.0833	-1.2313	-2.1604	-2.0083	-1.3146	-2.4917	64.828	234.034	324.960	332.364	211.450	134.397	367.294	207.857	186.100	340.899	53.581	322.975	163.684	356.856	212.090	320.124	0.00081546	0.00017081	0.00025835	1360.2	6.9116e-06	6.1273e-06	1361.4	369.11	5.0947e-06	2.4877e-06	419	141.48	122.51	41.975	6.6538e-06	51.711	0.00058329	0.00057729	0.00016189	1385.7	6.3164e-06	6.3056e-06	1384.6	376.23	6.2765e-06	6.2394e-06	429.38	144.41	125.61	43.301	6.1747e-06	53.513	299.379	172.809	89.708	62.452	152.893	269.377	62.618	67.254	206.126	252.957	66.487	71.586	71.854	75.788	267.317	75.173	-8191	255	
867.889	1	1	0	0	0.14517	0.030544	0.14767	0.18581	0.29952	0.36846	0.43647	0.32347	0.29779	0.19838	0.047821	0.2396	0.26235	0.20085	0.10801	0.38186	-1.0042	-1.7896	-2.0292	-1.5479	-2.1958	-1.5625	-1.4875	-2.4896	-1.4	-1.8458	-2.1292	-1.475	-2.1521	-1.9604	-1.5333	-2.5667	337.616	405.840	241.060	349.481	171.962	137.763	330.035	381.161	70.271	324.843	288.374	299.123	312.262	334.536	347.765	358.611	0.00072962	0.00051683	0.00019328	1345.6	3.3027e-06	2.2948e-06	1355	366.54	7.4068e-06	2.3808e-06	418.67	139.98	121.4	41.516	1.2766e-05	51.673	0.00057016	0.00056796	0.00015768	1380.1	6.2024e-06	6.1809e-06	1383	375.78	6.2302e-06	6.2569e-06	429.69	144.03	125.33	43.23	6.2795e-06	53.525	287.834	177.617	408.221	62.335	200.334	140.126	62.506	66.971	274.509	82.196	66.285	71.162	71.744	75.746	178.000	74.961	-8191	255	
867.985	1	1	0	0	0.19987	0.10321	0.36634	0.20554	0.058347	0.22026	0.24726	0.36196	0.26406	0.3336	0.12167	0.18016	0.3544	0.18611	0.25977	0.15127	-1.3146	-1.6292	-2.1396	-1.3729	-2.0833	-2.0854	-1.5063	-2.5062	-1.4917	-1.6521	-2.4062	-1.3667	-2.2792	-2.3375	-1.4125	-2.2646	225.842	234.242	137.025	117.332	199.072	66.200	376.862	365.862	125.095	307.391	56.851	330.556	380.797	383.917	93.606	341.149	0.00079819	0.00038669	0.00010585	1350.8	1.7039e-06	4.0645e-06	1358.6	367.01	6.9673e-06	5.9766e-06	417.1	140.17	122.22	41.857	6.7727e-07	51.39	0.00057853	0.00057328	0.00015912	1383.8	6.2887e-06	6.2614e-06	1384.5	376.36	6.2799e-06	6.3274e-06	429.98	144.15	125.76	43.343	6.3653e-06	53.475	290.314	144.526	145.055	62.392	260.687	225.041	62.118	66.973	189.212	211.526	66.169	71.265	71.696	75.674	370.723	75.114	-8191	255	
868.106	1	1	0	0	0.071632	0.27363	0.11904	0.32009	0.19785	0.15575	0.31819	0.048298	0.13452	0.14966	0.019288	0.15854	0.22649	0.45759	0.28881	0.13798	-1.4417	-1.6417	-2.2521	-1.6187	-2.025	-2.0333	-1.6437	-2.6146	-1.5167	-1.5125	-2.5167	-1.6187	-1.8958	-2.175	-1.1979	-2.3208	180.373	315.277	91.894	327.656	244.583	308.548	392.139	194.201	159.831	322.000	405.261	128.533	387.105	396.200	203.932	380.559	0.00082076	0.00050473	0.00013811	1358.5	4.8381e-06	6.0606e-06	1361.1	366.6	9.1444e-06	7.257e-06	418.79	139.52	121.87	41.623	7.1472e-06	51.741	0.00058902	0.00058581	0.00016249	1387.4	6.4209e-06	6.3656e-06	1385.6	376.04	6.4047e-06	6.403e-06	429.19	143.74	125.26	43.195	6.3167e-06	53.327	274.052	84.226	125.583	62.325	267.219	154.358	62.275	67.115	236.862	203.356	66.521	71.259	71.914	75.863	268.109	75.076	-8191	255	
868.177	1	1	0	0	0.30902	0.18861	0.021562	0.16969	0.188	0.29562	0.39799	0.14607	0.24306	0.18576	0.27914	0.35152	0.17985	0.17089	0.24529	0.053679	-1.5833	-1.3062	-2.3063	-1.6083	-1.7979	-2.1354	-1.4062	-2.2104	-1.7979	-1.4833	-2.3833	-1.5562	-1.7417	-2.3625	-1.2	-2.1292	51.898	183.867	208.604	75.106	290.729	261.069	339.108	101.964	67.874	84.103	339.510	52.867	49.786	91.950	145.462	316.517	0.00067196	0.00012489	0.00015202	1350.7	8.2759e-06	7.0648e-06	1353.4	365.19	1.0632e-05	1.1038e-05	415.2	140.1	120.38	41.495	7.1867e-06	51.309	0.0005684	0.00056836	0.00015758	1380.3	6.191e-06	6.1664e-06	1378	373.58	6.1466e-06	6.1659e-06	426.02	143.21	124.3	42.929	6.1593e-06	53.072	279.941	107.249	126.806	62.451	174.094	166.959	62.269	67.287	216.502	201.497	66.588	71.567	71.914	76.158	190.109	75.082	-8191	255	
868.273	1	1	0	0	0.33183	0.03922	0.17607	0.27096	0.15674	0.040312	0.086486	0.47723	0.13019	0.071527	0.16858	0.086984	0.46021	0.20948	0.051793	0.14473	-1.5146	-1.5312	-2.0854	-1.6125	-1.4937	-2.2583	-1.5646	-2.2687	-1.8583	-1.3937	-2.2396	-1.75	-1.85	-2.4604	-1.2396	-2.0667	178.383	318.414	284.652	58.213	177.819	246.051	335.012	362.880	53.633	269.447	398.134	379.174	76.873	63.599	372.081	66.105	0.00057401	0.00088778	8.9009e-05	1344.2	2.9789e-06	6.1124e-06	1345.8	363.92	6.4558e-06	6.1889e-06	417.16	139.28	120.47	41.319	5.6592e-06	51.397	0.00057189	0.0005621	0.00015856	1375.4	6.2274e-06	6.2014e-06	1375	373.29	6.2327e-06	6.2348e-06	426.89	142.77	124	42.849	6.0785e-06	53.044	283.214	151.985	331.861	62.730	238.099	164.454	62.634	67.469	201.341	120.960	66.663	71.569	71.961	76.132	150.562	75.357	-8191	255	
868.394	1	1	0	0	0.2546	0.063758	0.090067	0.14086	0.19926	0.25442	0.1148	0.18813	0.20561	0.48059	0.28886	0.34643	0.10225	0.19012	0.14741	0.077631	-1.5688	-1.3708	-2.0229	-1.9042	-1.4208	-2.0646	-1.6333	-2.0875	-1.9521	-1.125	-2.3854	-1.7271	-1.5979	-2.4083	-1.4021	-1.7146	396.417	258.356	87.796	346.427	238.925	387.955	312.139	346.391	226.354	241.039	348.481	289.250	373.391	323.639	110.604	267.829	0.00083341	2.595e-05	7.221e-05	1346	4.7377e-06	3.3241e-06	1360.5	365.84	2.7737e-06	7.8902e-06	418.52	140.12	121.74	41.7	8.7129e-06	51.372	0.00055799	0.00055369	0.00015277	1373.7	5.9983e-06	5.9905e-06	1375	372.24	6.0033e-06	5.9782e-06	425.69	142.63	124.08	42.824	6.0037e-06	53.006	286.008	183.273	161.161	62.464	247.410	167.084	62.610	67.417	205.238	171.623	66.948	71.548	72.210	76.448	154.858	75.494	-8191	255	
868.490	1	1	0	0	0.28023	0.16481	0.041649	0.28906	0.090862	0.11747	0.44404	0.22969	0.27108	0.051078	0.12241	0.45545	0.12563	0.19399	0.062719	0.25991	-1.8542	-1.2583	-2.0083	-2	-1.3438	-2.2021	-1.6146	-1.8604	-2.2313	-1.4604	-2.2396	-1.9208	-1.5021	-2.4188	-1.5667	-1.4937	394.309	403.252	309.769	382.392	259.731	378.881	373.015	363.417	346.527	331.233	396.766	310.210	381.701	401.739	224.618	363.423	0.00092231	0.00082087	0.0003217	1355.6	2.5461e-06	6.4509e-06	1360.6	365.55	6.3775e-06	4.8928e-06	417.76	140.23	121.25	41.616	5.6068e-06	51.512	0.00055479	0.00055231	0.00015486	1375.6	6.0668e-06	6.0398e-06	1374.2	372.19	6.0229e-06	6.0976e-06	425.57	142.74	123.93	42.816	6.1162e-06	53.015	288.963	132.922	157.339	62.836	137.280	218.909	62.673	67.557	254.011	129.853	66.722	71.634	72.104	76.408	227.998	75.294	-8191	255	
868.586	1	1	0	0	0.20247	0.14478	0.12461	0.44104	0.10271	0.29973	0.052038	0.38425	0.21061	0.24383	0.26311	0.10992	0.16642	0.053275	0.2235	0.16711	-1.7563	-1.3104	-2.075	-1.9604	-1.4333	-2.0917	-1.7563	-1.6688	-2.2583	-1.4062	-2.2208	-2.1833	-1.3083	-2.25	-1.7563	-1.5792	301.456	389.784	213.671	373.138	70.115	141.190	180.111	342.002	352.043	312.769	355.329	244.339	303.167	201.301	121.574	322.990	0.00076029	0.00045313	6.7096e-05	1356.6	1.0118e-05	5.1459e-06	1362.9	366.36	2.3864e-06	3.3069e-06	418.63	140.51	121.6	41.631	3.9986e-06	51.643	0.00056163	0.00055495	0.00015433	1376.5	6.084e-06	6.0371e-06	1376	372.25	6.0667e-06	6.0529e-06	425.78	142.52	123.97	42.809	6.0699e-06	53.007	281.618	183.531	99.781	62.786	178.655	191.336	62.633	67.633	127.955	196.576	66.914	71.614	72.458	76.518	222.655	75.595	-8191	255	
868.682	1	1	0	0	0.24373	0.26938	0.17424	0.38363	0.20487	0.16121	0.42956	0.10488	0.13262	0.19936	0.36627	0.14134	0.05049	0.29854	0.21292	0.24956	-1.8479	-1.2604	-1.9417	-2.3042	-1.1646	-1.9708	-1.7708	-1.5646	-2.2729	-1.3979	-1.8979	-2.275	-1.4729	-2.2729	-1.825	-1.5625	189.821	352.073	222.070	51.094	353.383	215.518	314.956	339.938	166.100	121.509	404.565	388.163	308.552	326.244	133.795	384.770	0.0007803	0.00030243	0.00015052	1351.6	7.1792e-06	6.4726e-06	1355.9	363.07	6.0454e-06	4.2343e-06	413.2	138.87	120.66	41.269	2.886e-06	51.104	0.00055501	0.00055064	0.00015394	1376.5	6.0515e-06	6.0622e-06	1374.9	371.55	6.1109e-06	6.0856e-06	424.18	142.34	124.1	42.791	6.1326e-06	52.975	286.517	135.829	95.804	62.575	177.378	200.885	62.443	67.323	240.453	188.427	66.563	71.299	72.124	76.276	158.437	75.260	-8191	255	
868.779	1	1	0	0	0.21257	0.14248	0.18526	0.10395	0.13521	0.058684	0.24248	0.10218	0.28693	0.26627	0.089806	0.090765	0.14204	0.36938	0.065532	0.18088	-1.7917	-1.3687	-1.6	-2.4646	-1.2542	-1.9312	-1.9229	-1.6208	-2.1708	-1.5396	-1.7188	-2.1875	-1.5417	-2.2229	-2.0167	-1.3646	145.258	357.145	218.963	340.284	347.561	376.746	337.646	60.558	353.493	93.337	358.968	186.282	79.618	323.530	156.357	368.100	0.00073062	0.00042108	0.00031866	1343.2	3.0445e-06	5.1369e-06	1342.4	362.49	1.5229e-05	3.1339e-06	413.1	138.96	120.77	41.403	6.7497e-06	51.207	0.00057028	0.00055763	0.00015608	1376.5	6.1232e-06	6.078e-06	1372.8	371.62	6.077e-06	6.0644e-06	424.76	142.66	123.82	42.798	6.0443e-06	52.939	288.587	204.091	111.729	62.568	250.682	178.348	62.257	67.283	227.658	159.919	66.721	71.567	71.891	76.090	227.552	75.235	-8191	255	
868.875	1	1	0	0	0.12733	0.092811	0.2068	0.10237	0.16042	0.073078	0.16373	0.21222	0.052749	0.073063	0.13195	0.17412	0.096519	0.22929	0.098273	0.282	-1.9979	-1.4813	-1.4813	-2.1437	-1.2625	-1.7958	-2.2125	-1.5771	-2.1896	-1.6708	-1.5812	-2.1354	-1.5271	-1.8271	-2.0563	-1.3167	70.993	73.524	371.901	251.091	283.956	282.505	355.979	376.456	190.152	203.826	308.071	226.395	368.971	387.987	312.779	282.461	0.00084754	0.00026764	0.00022534	1342.2	1.3945e-05	5.649e-06	1347.5	364.31	4.6875e-06	6.8443e-06	414.57	139.4	120.54	41.315	2.2588e-06	51.422	0.00055784	0.00055453	0.0001545	1375.3	6.0485e-06	6.056e-06	1375.1	372.05	6.1022e-06	6.1047e-06	425.43	142.74	123.93	42.811	6.1444e-06	53.038	285.065	93.294	178.847	62.590	241.715	204.302	62.501	67.270	283.385	115.031	66.684	71.529	71.976	76.229	135.738	75.412	-8191	255	
868.994	1	1	0	0	0.16104	0.21579	0.43046	0.44256	0.11644	0.33672	0.10534	0.16275	0.14018	0.20587	0.12335	0.33039	0.18156	0.17504	0.23063	0.20236	-1.7229	-1.7979	-1.3771	-2.5479	-1.4708	-1.6771	-2.4396	-1.3687	-2.2375	-1.8146	-1.4625	-2.3875	-1.5083	-1.6271	-2.1625	-1.4333	82.227	140.075	338.762	382.105	120.281	336.097	331.902	367.821	230.604	333.874	234.844	110.816	354.158	313.791	111.511	306.146	0.00081332	0.00067439	0.00013374	1344.1	4.5324e-06	8.7017e-06	1349.8	363.48	8.0283e-06	6.9321e-06	416.6	139.86	121.02	41.46	8.9772e-06	51.307	0.00056313	0.00056341	0.00015618	1376.5	6.1685e-06	6.1791e-06	1374.8	371.97	6.1613e-06	6.1504e-06	426.31	142.99	124.08	42.9	6.1165e-06	53.033	290.349	160.305	91.530	62.581	188.898	211.370	62.529	67.252	273.051	131.176	66.503	71.372	72.127	76.481	163.196	75.124	-8191	255	
869.090	1	1	0	0	0.3054	0.12123	0.22048	0.33413	0.21814	0.091128	0.16504	0.43107	0.079793	0.13051	0.28635	0.13117	0.26511	0.086894	0.18663	0.1706	-1.675	-2.05	-1.1437	-2.1521	-1.5271	-1.6917	-2.3229	-1.5167	-1.8021	-2.025	-1.3521	-2.2104	-1.9312	-1.6125	-2.3583	-1.5688	169.150	383.276	283.800	378.286	133.794	375.138	311.769	377.556	225.863	401.275	332.322	378.579	354.023	337.295	79.940	331.903	0.00086883	0.00058672	0.0002018	1346.5	3.8121e-06	6.8888e-06	1354.5	364.59	4.1204e-06	4.0262e-06	414.01	139.31	120.42	41.289	8.9419e-06	51.096	0.00056391	0.00055668	0.00015549	1376.6	6.1813e-06	6.0873e-06	1376.6	372.62	6.1255e-06	6.1066e-06	425.09	142.62	123.94	42.845	6.1388e-06	52.871	282.113	130.289	152.056	62.742	381.715	193.467	62.794	67.491	224.344	270.596	66.962	71.732	72.026	76.221	193.322	75.398	-8191	255	
869.186	1	1	0	0	0.14334	0.17768	0.094076	0.40283	0.19444	0.035371	0.012009	0.097674	0.13366	0.11157	0.062096	0.17938	0.13029	0.19686	0.29704	0.31063	-1.4688	-2.1083	-1.15	-2.3229	-1.7125	-1.4792	-2.4333	-1.7104	-1.8104	-2.1688	-1.6229	-2.1937	-1.8104	-1.4979	-2.2479	-1.5562	386.428	336.903	255.049	365.788	219.387	126.834	404.481	144.762	82.168	270.979	273.800	85.770	84.065	53.537	262.723	376.452	0.00073398	0.00070573	0.0001035	1349.1	2.0848e-06	4.0929e-06	1346.4	362.23	4.5236e-06	2.6753e-06	413.01	139.28	120.51	41.307	7.3297e-06	51.185	0.00056233	0.00055243	0.00015529	1376.5	6.0806e-06	6.0794e-06	1373.9	371.52	6.129e-06	6.1042e-06	425.03	142.7	124.08	42.787	6.0829e-06	52.877	285.176	255.277	74.900	63.077	64.085	228.311	62.493	67.356	134.347	186.614	66.530	71.512	72.079	76.105	168.586	75.344	-8191	255	
869.282	1	1	0	0	0.21149	0.025486	0.044308	0.18583	0.18454	0.16389	0.13861	0.32246	0.25112	0.13554	0.078379	0.22016	0.2961	0.075971	0.17515	0.34151	-1.2292	-2.2458	-1.5438	-2.2021	-1.8125	-1.3375	-2.3396	-1.5146	-1.5271	-2.1917	-1.4896	-1.9146	-2.0479	-1.3167	-2.4896	-1.5604	55.417	169.914	386.964	284.878	52.479	213.202	244.983	62.356	254.251	325.788	283.691	374.165	409.284	94.757	224.144	294.172	0.0008192	0.00029193	0.00010545	1353	7.199e-06	5.2337e-06	1357	366.06	3.5654e-06	7.49e-06	419.05	140.51	121.68	41.68	8.5164e-06	51.583	0.00055571	0.00055131	0.00015317	1375.2	5.9551e-06	5.9399e-06	1374.8	371.5	5.97e-06	5.9035e-06	424.77	142.59	124.06	42.756	5.9381e-06	52.874	287.394	188.506	148.946	63.081	188.702	178.506	62.703	67.524	244.917	167.648	66.801	71.622	72.179	76.219	197.728	75.207	-8191	255	
869.403	1	1	0	0	0.22273	0.12252	0.15209	0.34771	0.27446	0.11527	0.17825	0.16663	0.30314	0.026384	0.10228	0.19413	0.26137	0.19356	0.3038	0.13239	-1.2333	-2.1188	-1.275	-2.3563	-1.9083	-1.2979	-2.4271	-1.9521	-1.3146	-2.2604	-1.2812	-2.0875	-2.1188	-1.2563	-2.1958	-1.8229	296.272	342.202	278.853	374.463	143.737	326.532	299.147	294.522	258.024	205.429	365.417	382.008	404.692	357.933	147.424	377.318	0.0006501	7.0229e-05	0.00010385	1355.9	8.16e-06	7.5382e-06	1355.3	366.83	3.0929e-06	7.6257e-06	415.8	138.96	121.1	41.383	1.5667e-05	50.932	0.00054609	0.00053869	0.00015157	1376.2	5.9665e-06	6.0286e-06	1375.8	372.82	6.0666e-06	6.0513e-06	424.53	142.59	123.94	42.821	6.0296e-06	52.771	274.703	172.354	55.435	62.999	224.005	257.411	62.728	67.354	189.857	148.160	66.736	71.579	71.782	76.186	221.715	75.285	-8191	255	
869.474	1	1	0	0	0.30323	0.15111	0.27693	0.32104	0.13362	0.11144	0.48003	0.14737	0.26401	0.26272	0.22413	0.14743	0.20902	0.36499	0.20384	0.013121	-1.2458	-2.1667	-1.25	-1.9167	-2.0646	-1.2812	-2.2854	-2.0396	-1.2729	-2.1146	-1.5542	-1.9438	-2.2417	-1.4229	-2.1437	-2.1417	395.962	78.956	64.964	355.950	186.362	57.738	378.595	343.346	111.841	233.910	407.934	205.147	384.290	76.277	350.969	240.867	0.00076793	0.00048361	0.00013977	1347.1	1.4607e-06	3.9132e-06	1347.3	363.46	4.2004e-06	6.9432e-06	413.71	139.06	120.87	41.688	1.0271e-05	51.351	0.00055476	0.00055065	0.00015378	1374.4	6.032e-06	6.0058e-06	1373.6	372.06	6.0421e-06	6.0523e-06	425.24	142.69	124.24	42.891	6.0211e-06	52.911	274.135	58.429	166.238	62.704	163.255	169.727	62.460	67.247	217.471	157.465	66.439	71.309	71.908	76.041	218.798	75.041	-8191	255	
869.570	1	1	0	0	0.10205	0.20602	0.25454	0.35906	0.11592	0.27349	0.111	0.28139	0.034397	0.1662	0.1962	0.15057	0.23982	0.25549	0.21893	0.075444	-0.97917	-2.1083	-1.425	-1.9271	-2.1	-1.2104	-2.3312	-2.0604	-1.2896	-2.3208	-1.7833	-1.8604	-2.4979	-1.5958	-1.8312	-2.1458	337.127	194.690	214.585	376.591	374.163	354.800	283.707	358.168	183.398	305.788	62.930	323.782	342.452	73.708	132.387	85.048	0.00060871	0.00053312	0.00019849	1350	4.0958e-06	4.8875e-06	1355.1	363.61	8.2496e-06	4.3452e-06	414.99	139.72	120.83	41.414	1.038e-05	51.203	0.00055441	0.00055285	0.00015438	1375.3	6.02e-06	5.9788e-06	1375.1	371.54	6.0249e-06	5.9886e-06	424.42	142.73	124.01	42.785	6.0931e-06	52.971	286.709	129.308	114.623	62.505	335.688	96.397	62.135	67.108	200.448	212.898	66.227	71.381	71.852	75.946	176.958	74.896	-8191	255	
869.667	1	1	0	0	0.24609	0.27132	0.2776	0.26373	0.032384	0.27786	0.26335	0.24692	0.26336	0.43832	0.094504	0.13168	0.14603	0.32134	0.38214	0.21666	-1.0396	-2.3375	-1.6292	-1.6146	-2.1688	-1.4229	-2.2292	-2.3521	-1.3958	-2.1479	-1.7125	-1.3708	-2.1667	-1.5021	-1.5438	-2.1188	334.347	385.494	186.774	379.414	308.606	126.346	335.254	325.911	317.767	116.225	96.693	373.120	96.061	67.186	359.363	289.361	0.0007723	0.00024072	0.00018016	1344.8	7.9455e-06	1.2688e-05	1348.5	362.81	2.9604e-06	1.9088e-06	414.27	139.15	121.17	41.497	1.7256e-05	51.207	0.00056174	0.00055351	0.000155	1374.2	6.049e-06	6.0229e-06	1373.1	371.23	6.0154e-06	6.014e-06	424.4	142.25	124.14	42.786	5.956e-06	52.854	282.093	139.976	107.016	62.406	199.531	250.520	62.285	67.107	162.135	347.701	66.243	71.295	71.877	75.965	234.218	74.833	-8191	255	
869.786	1	1	0	0	0.17811	0.30382	0.13024	0.086426	0.21798	0.09098	0.14692	0.3136	0.091293	0.095326	0.24338	0.40796	0.17237	0.38485	0.2904	0.17278	-0.90625	-2.1583	-1.85	-1.5229	-2.3312	-1.4312	-2.0146	-2.2	-1.3208	-2.0812	-2.0687	-1.3708	-2.4896	-1.6708	-1.6667	-2.2771	229.327	323.954	347.085	389.778	260.449	323.880	328.090	398.756	99.760	134.247	408.732	400.862	56.625	95.614	265.568	114.033	0.00072069	3.0567e-05	0.00018019	1343.9	7.8791e-06	6.0271e-06	1351.1	363.08	1.225e-05	7.8406e-06	413.53	139.58	120.52	41.279	4.9234e-06	51.339	0.00054775	0.00054607	0.00015173	1372.9	5.9421e-06	5.9938e-06	1371.6	371.12	5.9352e-06	5.9258e-06	423.93	142.22	123.64	42.722	5.9223e-06	52.881	278.472	364.449	73.635	62.509	226.086	218.514	62.438	67.133	182.975	182.516	66.426	71.127	71.771	76.008	136.036	74.990	-8191	255	
869.882	1	1	0	0	0.12582	0.21975	0.30445	0.27447	0.26912	0.14515	0.27846	0.29007	0.18286	0.074472	0.15271	0.13615	0.27775	0.13286	0.36671	0.18597	-0.95	-1.8833	-1.8896	-1.3958	-2.275	-1.6688	-1.5938	-2.4479	-1.275	-1.9979	-2.0625	-1.3646	-2.3625	-1.7771	-1.5104	-2.375	290.605	224.499	224.041	343.925	94.513	80.414	354.134	404.358	285.896	174.132	364.900	321.491	353.088	73.316	297.334	391.619	0.00081063	0.00041078	9.1174e-05	1346.6	1.1229e-05	5.5039e-06	1355.1	364.63	4.6005e-06	5.3897e-06	414.93	140	121.25	41.604	3.1197e-06	51.482	0.00054625	0.00054314	0.00015097	1371.4	5.9176e-06	5.9734e-06	1372	371.55	5.9806e-06	5.9947e-06	424.2	142.3	123.94	42.729	5.998e-06	52.917	279.878	52.946	253.053	62.427	238.674	201.103	62.180	67.163	247.590	105.792	66.313	71.528	71.933	75.957	117.706	75.009	-8191	255	
869.978	1	1	0	0	0.13382	0.19131	0.19592	0.29833	0.16243	0.078429	0.12145	0.40262	0.25667	0.020618	0.12358	0.3248	0.15974	0.21752	0.27167	0.41571	-0.90417	-1.8375	-1.9062	-1.4312	-2.0563	-1.7146	-1.6938	-2.3729	-1.4292	-1.8687	-2.1146	-1.3312	-2.2021	-1.9417	-1.3188	-2.2708	379.256	141.390	224.198	121.568	383.994	171.067	336.515	341.123	288.472	189.907	103.229	407.600	72.635	371.640	295.841	344.591	0.00075383	0.00045463	5.9596e-05	1349.8	7.6511e-07	3.8005e-06	1352.9	363.79	4.0207e-06	4.5648e-06	415.15	140.38	121.36	41.405	7.8997e-06	51.461	0.00054838	0.00054197	0.00015129	1371.2	5.9297e-06	5.9245e-06	1371.4	370.9	5.966e-06	5.958e-06	424.68	142.24	124.01	42.705	5.9211e-06	52.877	274.373	104.589	128.097	62.489	186.194	247.143	62.444	67.256	154.225	75.385	66.209	71.555	72.101	76.095	216.185	75.065	-8191	255	
870.076	1	1	0	0	0.27043	0.39638	0.10755	0.1618	0.2126	0.41045	0.086732	0.28718	0.11124	0.056448	0.21716	0.18285	0.14595	0.057856	0.1665	0.15627	-1.1437	-1.6604	-2.2708	-1.4104	-2.0396	-1.8917	-1.7792	-2.4	-1.5396	-1.5208	-2.3542	-1.25	-2.1479	-2.1208	-1.1583	-2.2292	335.803	253.931	382.854	351.129	279.697	101.742	333.956	390.436	111.766	278.444	360.689	357.383	390.948	114.145	75.745	388.337	0.00088163	0.00035746	8.4507e-05	1347.5	4.9817e-06	5.3173e-06	1345.8	363.03	7.9544e-07	2.9135e-06	417.12	139.64	121.28	41.655	1.0026e-05	51.462	0.00054972	0.00053686	0.00015013	1373.1	5.8778e-06	5.8029e-06	1369.3	370.34	5.8537e-06	5.796e-06	424.01	141.99	123.56	42.662	5.8148e-06	52.734	281.702	56.287	144.294	62.704	239.016	211.392	62.567	67.500	73.092	191.104	66.754	71.739	71.980	76.360	245.316	75.402	-8191	255	
870.172	1	1	0	0	0.33149	0.22721	0.074024	0.35366	0.19589	0.22844	0.32557	0.50517	0.114	0.21927	0.05907	0.16916	0.26444	0.19021	0.30502	0.18794	-1.2396	-1.4854	-2.2062	-1.6063	-1.8604	-2.1479	-1.425	-2.3125	-1.6688	-1.6042	-2.3646	-1.5917	-2.0354	-2.1521	-1.2292	-2.2333	156.878	408.159	138.689	384.202	150.086	174.173	293.091	370.587	283.438	241.982	162.768	148.099	366.451	120.382	68.437	338.078	0.00072858	0.00062777	5.7118e-05	1351.1	2.662e-06	6.3029e-06	1355.2	363.73	5.6538e-06	3.6825e-06	415.01	140.06	120.81	41.511	9.2533e-06	51.437	0.00053431	0.00052863	0.00014692	1371.1	5.8601e-06	5.805e-06	1370.2	370.84	5.8572e-06	5.8056e-06	423.25	142.38	123.75	42.655	5.8366e-06	52.753	280.954	124.131	113.076	62.614	145.020	222.400	62.490	67.449	205.862	192.553	66.645	71.679	72.226	76.288	247.042	75.455	-8191	255	
870.266	1	1	0	0	0.21298	0.01458	0.044171	0.29873	0.26451	0.084459	0.2115	0.12145	0.18036	0.14347	0.082076	0.11804	0.1225	0.22917	0.23355	0.32192	-1.3083	-1.4312	-2.2313	-1.375	-1.6604	-2.1958	-1.3854	-2.1979	-1.8	-1.3771	-2.2771	-1.6292	-1.5792	-2.4104	-1.4042	-2.3292	331.562	303.960	183.158	347.279	375.967	380.885	217.339	378.539	328.712	378.362	149.669	150.499	393.330	280.674	52.669	317.463	0.00082257	0.00061362	6.4346e-05	1345.5	5.7059e-06	4.5487e-06	1344.6	363.7	9.2704e-06	5.3414e-06	415.3	139.9	120.65	41.334	1.5287e-05	51.312	0.00053252	0.00052747	0.00014685	1368.1	5.7959e-06	5.7631e-06	1368.2	371.02	5.8134e-06	5.8148e-06	423.39	142.21	123.62	42.642	5.7894e-06	52.719	273.859	142.437	114.564	62.584	238.042	174.413	62.576	67.785	260.221	151.468	66.365	71.323	71.979	75.997	194.198	75.300	-8191	255	
870.362	1	1	0	0	0.27423	0.11399	0.14575	0.27096	0.17064	0.12109	0.3023	0.30215	0.14151	0.12899	0.2461	0.1149	0.13387	0.074759	0.16546	0.27618	-1.6271	-1.3708	-2.0979	-1.8292	-1.4479	-2.2125	-1.5979	-2.2042	-2.1208	-1.4042	-2.275	-1.7604	-1.6	-2.2646	-1.2958	-2.0438	188.908	96.022	148.128	391.936	274.260	128.077	353.787	381.987	279.325	167.922	399.416	80.851	166.605	179.672	227.188	354.346	0.00098157	0.00051273	0.00020622	1343.6	2.7592e-06	4.5751e-06	1352.5	364.65	8.4375e-06	7.1688e-06	414.53	139.98	121.55	41.529	1.2219e-05	51.626	0.00053747	0.00053058	0.00014831	1369	5.8459e-06	5.826e-06	1370.7	370.61	5.8419e-06	5.8313e-06	423.79	142.25	123.82	42.704	5.8366e-06	52.928	282.512	132.273	101.481	62.341	195.481	351.531	62.197	67.071	208.989	169.492	66.612	71.398	72.014	76.137	212.587	75.226	-8191	255	
870.483	1	1	0	0	0.096077	0.083092	0.34519	0.039105	0.2205	0.22898	0.20034	0.11854	0.16141	0.32655	0.2029	0.402	0.055525	0.26329	0.11474	0.20286	-1.5625	-1.475	-2.1458	-1.8542	-1.5146	-2.2687	-1.5604	-1.925	-2.2792	-1.4292	-2.3646	-1.9312	-1.6583	-2.55	-1.4854	-1.9083	255.475	374.916	157.497	86.697	392.292	99.704	401.618	128.530	405.873	300.100	373.894	357.093	338.368	384.332	226.505	405.806	0.00091773	0.00028242	0.00027473	1345.1	5.2387e-06	4.6086e-06	1346.6	363.2	1.9515e-06	5.6333e-06	413.07	139.05	120.93	41.388	8.9165e-06	51.614	0.00053564	0.0005375	0.00015018	1367.6	5.8765e-06	5.9224e-06	1368.3	370.99	5.9505e-06	5.9745e-06	422.93	142.32	123.85	42.782	6.0616e-06	52.936	281.476	146.030	197.462	62.577	209.568	143.657	62.601	67.466	215.135	173.512	66.699	71.429	71.933	76.114	212.301	75.032	-8191	255	
870.579	1	1	0	0	0.10453	0.070917	0.20661	0.19109	0.1261	0.26952	0.11585	0.15835	0.1608	0.098387	0.21025	0.5552	0.39136	0.24069	0.086675	0.21217	-1.6979	-1.3208	-2.0208	-1.8896	-1.2667	-2.4521	-1.7437	-1.9208	-2.35	-1.4062	-2.05	-2.0812	-1.4854	-2.3875	-1.5729	-1.7625	405.490	228.804	201.457	50.190	335.173	238.043	240.177	357.849	253.468	359.648	346.985	365.639	361.661	383.576	51.744	297.847	0.00080547	7.2999e-05	0.00012198	1337.9	5.0568e-06	1.1566e-05	1347	364.59	4.8912e-06	1.0261e-05	418.08	139.85	120.74	41.403	4.6636e-06	51.212	0.00055821	0.00055554	0.0001538	1366.6	6.054e-06	5.9818e-06	1369.1	370.71	5.9906e-06	6.0467e-06	424.74	142.48	123.79	42.742	5.9389e-06	52.889	282.554	286.672	78.381	62.783	195.793	179.158	62.648	67.526	191.224	224.090	67.282	71.807	72.584	76.563	258.806	75.734	-8191	255	
870.675	1	1	0	0	0.052692	0.20336	0.14273	0.39944	0.094182	0.14264	0.28347	0.44058	0.08779	0.21445	0.30853	0.14961	0.24713	0.24415	0.14045	0.24207	-1.8188	-1.2979	-1.9604	-2.0792	-1.1958	-2.225	-1.6479	-1.7812	-2.1292	-1.3375	-1.9146	-2.2792	-1.4354	-2.1688	-1.6833	-1.5604	127.159	334.874	284.071	402.820	267.420	139.213	57.887	337.310	203.072	143.112	99.659	323.019	355.780	88.810	85.978	54.423	0.00077586	0.00018908	3.3082e-05	1340.7	1.1066e-05	8.1338e-06	1348	362.59	8.3257e-06	4.5115e-06	414.35	139.46	121.25	41.418	1.1566e-05	51.482	0.00054356	0.000537	0.00014908	1364.6	5.8622e-06	5.836e-06	1367.5	369.95	5.8408e-06	5.8128e-06	423.13	141.94	123.73	42.711	5.7848e-06	52.769	282.693	172.366	253.324	62.707	234.512	168.824	62.823	67.997	165.631	177.944	67.481	72.406	73.483	76.824	218.125	75.681	-8191	255	
870.771	1	1	0	0	0.27923	0.08093	0.17141	0.20414	0.12639	0.2095	0.1886	0.45742	0.17505	0.14235	0.093964	0.20953	0.37291	0.22877	0.11587	0.15325	-1.8167	-1.3917	-1.7958	-2.3333	-1.4042	-2.2208	-2.05	-1.5708	-2.2896	-1.5	-1.8646	-2.3271	-1.3	-2.325	-1.7646	-1.5896	288.572	329.247	196.058	365.207	155.846	279.239	363.100	397.303	404.452	108.016	391.662	369.015	395.755	395.017	380.137	352.119	0.00083616	0.00085228	0.00021736	1347.6	4.6648e-06	4.9569e-06	1350.4	363.48	3.7199e-06	6.6247e-06	415.21	139.04	120.88	41.511	3.8542e-06	51.496	0.00053204	0.00052835	0.00014951	1365.8	5.7661e-06	5.7418e-06	1368.1	369.93	5.7813e-06	5.7971e-06	422.52	141.78	123.43	42.681	5.7863e-06	52.669	284.309	138.501	127.752	64.396	249.183	226.883	62.873	67.481	220.892	214.359	67.227	71.995	72.698	76.742	113.348	76.431	-8191	255	
870.866	1	1	0	0	0.26285	0.1933	0.37138	0.10359	0.23168	0.17566	0.18829	0.25483	0.2867	0.083197	0.10575	0.27763	0.18588	0.29163	0.31802	0.16141	-1.9854	-1.3687	-1.6771	-2.3333	-1.2875	-2.1479	-2.0875	-1.5833	-2.1125	-1.4458	-1.6313	-2.2792	-1.4625	-2.0667	-2.1312	-1.475	221.298	221.227	159.105	377.207	316.431	234.760	293.322	368.802	297.889	300.444	396.916	365.177	377.643	386.890	54.910	352.802	0.00088073	0.00021555	0.00038598	1344.4	8.2953e-06	5.6213e-06	1353.3	363.96	9.1477e-06	7.9704e-06	416.58	139.93	120.79	41.45	6.7533e-06	51.442	0.00052632	0.00052533	0.0001464	1368	5.7362e-06	5.7506e-06	1369.5	370.26	5.8418e-06	5.7413e-06	423.34	142.27	123.56	42.711	5.7518e-06	52.725	281.155	114.600	126.397	63.890	217.170	192.843	63.592	68.212	212.245	178.149	67.808	72.567	73.268	77.328	241.528	76.179	-8191	255	
870.962	1	1	0	0	0.042807	0.36811	0.12101	0.28156	0.20325	0.24972	0.3253	0.17322	0.24992	0.20781	0.16307	0.19525	0.15952	0.33061	0.10719	0.16695	-1.9	-1.4062	-1.4479	-2.3812	-1.3917	-2	-2.2375	-1.4771	-2.2562	-1.7854	-1.6688	-2.1917	-1.7625	-1.8125	-2.1792	-1.3146	338.885	157.930	292.468	60.778	310.302	241.938	360.554	362.729	124.280	195.604	68.514	404.021	336.266	338.286	323.305	282.593	0.00085377	0.0010881	0.0001058	1344.3	1.2792e-05	3.4309e-06	1351.3	362.92	3.3898e-06	6.21e-06	414.72	139.25	120.9	41.46	8.4257e-06	51.295	0.00052327	0.00051615	0.00014375	1365.4	5.5599e-06	5.56e-06	1365.2	368.55	5.4742e-06	5.4454e-06	420.69	141.31	122.64	42.391	5.3717e-06	52.331	293.350	123.047	143.274	62.893	199.526	222.415	62.763	67.735	166.017	264.997	67.428	72.438	72.688	77.101	185.455	75.525	-8191	255	
871.060	1	1	0	0	0.23009	0.31914	0.016663	0.14593	0.33089	0.099236	0.20277	0.45459	0.051976	0.25562	0.28419	0.19986	0.16388	0.057644	0.23892	0.13474	-1.7292	-1.7521	-1.3937	-2.3812	-1.3125	-1.7833	-2.4938	-1.4813	-2.0438	-1.8312	-1.5958	-2.3187	-1.6688	-1.8104	-2.2687	-1.1917	310.219	108.692	201.601	311.661	316.697	193.406	324.512	395.183	93.192	54.246	69.785	355.360	79.840	269.459	314.194	191.154	0.00065962	0.00031203	8.6739e-05	1348.2	6.5939e-06	4.3504e-06	1353.9	363.22	3.1216e-06	2.3658e-06	416.56	139.58	121.12	41.524	1.205e-05	51.403	0.00049779	0.00048996	0.00013673	1361.8	5.3726e-06	5.3242e-06	1362	367.58	5.3364e-06	5.3189e-06	420.42	141.02	122.47	42.35	5.2837e-06	52.243	282.060	71.601	66.567	62.805	216.263	80.166	62.988	67.786	217.934	244.009	67.307	72.300	72.667	76.535	153.162	75.737	-8191	255	
871.179	1	1	0	0	0.17801	0.038427	0.13607	0.2428	0.059094	0.066253	0.25562	0.33657	0.095155	0.068728	0.34322	0.37139	0.2742	0.20014	0.23515	0.19001	-1.6208	-2.1	-1.4438	-2.4688	-1.6542	-1.6125	-2.5312	-1.55	-1.925	-2.0375	-1.525	-2.2854	-1.9438	-1.8	-2.2604	-1.4354	360.959	267.380	74.815	74.357	124.354	304.877	71.842	321.128	93.132	304.368	395.269	377.816	379.227	359.388	313.613	376.224	0.00069846	0.00040617	0.00012372	1353.3	7.3535e-06	5.7527e-06	1360.2	364.82	7.0747e-06	9.6938e-06	416.68	140.24	121.23	41.547	6.7293e-06	51.465	0.00048974	0.0004822	0.00013447	1362	5.3142e-06	5.3217e-06	1362.1	367.7	5.3732e-06	5.3395e-06	419.87	141.19	122.59	42.383	5.4286e-06	52.382	277.209	100.320	56.462	63.338	254.703	174.624	62.699	67.504	195.593	166.210	66.809	71.885	72.236	76.482	147.096	75.686	-8191	255	
871.275	1	1	0	0	0.18734	0.15896	0.13669	0.32211	0.17588	0.20115	0.39295	0.16701	0.35907	0.015192	0.27206	0.12959	0.27521	0.25848	0.022537	0.15316	-1.3917	-1.9958	-1.3813	-2.375	-1.625	-1.3833	-2.4375	-1.5583	-1.7104	-2.2125	-1.35	-2.1646	-1.8583	-1.7313	-2.3021	-1.7083	173.565	55.659	88.779	334.483	140.583	338.256	349.230	377.682	300.312	371.619	51.187	330.942	365.335	105.525	242.351	333.028	0.00052419	0.00019753	0.00011927	1355.8	8.2143e-06	6.4422e-06	1359.9	364.92	6.5574e-06	7.435e-06	414.65	139.75	121.05	41.813	5.481e-06	51.553	0.00050368	0.00049321	0.00013855	1364.4	5.4635e-06	5.4628e-06	1362.2	367.84	5.4869e-06	5.4359e-06	419.26	141.01	122.47	42.403	5.4933e-06	52.36	279.469	163.440	67.020	63.117	261.405	230.888	63.033	67.829	188.775	149.916	67.508	72.509	72.499	76.666	180.096	75.875	-8191	255	
871.347	1	1	0	0	0.16334	0.12566	0.25535	0.16104	0.28688	0.14319	0.47969	0.066238	0.10889	0.10139	0.095502	0.28942	0.16882	0.23302	0.2827	0.18096	-1.2979	-2.0125	-1.2542	-2.1562	-1.7896	-1.4021	-2.5687	-1.6854	-1.5396	-2.1583	-1.4625	-2.0938	-2.1562	-1.5604	-2.2	-1.6167	119.023	372.859	271.919	307.823	372.950	296.991	365.823	388.997	124.510	181.877	58.465	71.916	152.559	406.704	383.423	406.158	0.00086303	0.00016986	0.00020862	1352.2	2.0823e-06	5.5975e-06	1356.8	362.99	5.5776e-06	4.1539e-06	414.24	139.47	120.81	41.525	2.975e-06	51.354	0.00050569	0.00050189	0.0001397	1360.2	5.4579e-06	5.435e-06	1359.1	367.31	5.4615e-06	5.5109e-06	418.57	140.77	122.34	42.375	5.5821e-06	52.459	289.042	195.859	160.843	63.355	64.122	314.605	63.137	68.128	221.688	228.076	67.017	71.883	72.045	76.739	244.012	76.066	-8191	255	
871.443	1	1	0	0	0.20607	0.0061874	0.23268	0.22684	0.053736	0.18821	0.16206	0.24272	0.19554	0.052558	0.12533	0.1065	0.51594	0.28357	0.13714	0.3838	-1.2146	-2.0979	-1.3208	-1.825	-1.95	-1.1313	-2.3667	-1.6812	-1.4167	-2.2979	-1.4604	-1.8708	-1.975	-1.3813	-2.2583	-1.6938	343.098	84.304	210.556	58.940	319.304	73.538	263.673	394.164	151.695	231.560	115.437	274.584	355.810	348.252	232.844	366.259	0.00076054	0.00016239	0.00015447	1348.7	5.0988e-06	7.2728e-06	1351.4	364.95	4.0053e-06	6.0594e-06	414	139.62	120.82	41.529	9.4807e-06	51.453	0.0005214	0.00052219	0.00014519	1361.9	5.7116e-06	5.731e-06	1360.7	368.32	5.7665e-06	5.7489e-06	420.11	141.1	122.66	42.445	5.7937e-06	52.619	288.510	277.106	169.338	63.289	294.156	188.819	63.359	67.795	219.786	191.884	66.542	71.487	72.141	76.198	237.733	75.259	-8191	255	
871.563	1	1	0	0	0.28693	0.1499	0.14753	0.13944	0.032748	0.14073	0.34299	0.22077	0.15073	0.024508	0.27334	0.17668	0.28327	0.24352	0.096697	0.24338	-0.94792	-1.9875	-1.3958	-1.875	-2.1125	-1.2854	-2.3208	-1.9062	-1.4146	-2.1875	-1.775	-1.5479	-2.3021	-1.4667	-1.8271	-1.75	358.651	234.826	307.191	331.977	196.844	289.430	352.984	355.839	57.520	301.819	92.376	353.865	241.058	343.463	354.918	390.169	0.00067736	0.00049815	0.00012835	1344.1	6.6018e-06	2.7055e-06	1354.6	362.79	3.3197e-06	6.6961e-06	414.46	139.49	120.87	41.364	8.7098e-06	51.464	0.00053878	0.00053374	0.00014926	1362.1	5.7962e-06	5.8833e-06	1363.3	367.81	5.8499e-06	5.8532e-06	420.02	141.26	122.66	42.373	5.7136e-06	52.422	284.415	105.705	110.695	62.605	260.040	171.491	62.354	67.182	202.171	182.498	66.377	71.454	71.682	75.868	202.364	74.918	-8191	255	
871.660	1	1	0	0	0.10532	0.04751	0.094941	0.32444	0.19404	0.073093	0.20184	0.21622	0.016926	0.13842	0.16159	0.25773	0.08821	0.35603	0.068393	0.10343	-0.81042	-2.0812	-1.4396	-1.7792	-2.2104	-1.3646	-2.1375	-2.0563	-1.0021	-2.125	-1.5167	-1.6833	-2.1813	-1.4146	-1.7854	-2.0417	267.389	93.179	385.259	333.343	262.573	134.438	293.792	399.620	405.110	259.583	397.746	327.614	292.759	385.316	213.285	139.050	0.00082937	0.00045851	0.00018801	1344.5	1.1457e-05	3.8221e-06	1353.6	362.22	9.8788e-06	7.3938e-06	412.74	138.97	120.49	41.315	9.648e-06	51.554	0.00052352	0.00052021	0.00014396	1360.1	5.6213e-06	5.589e-06	1360.7	366.23	5.5608e-06	5.5459e-06	418.1	140.53	122.18	42.112	5.4637e-06	52.353	289.868	159.376	64.431	62.232	234.684	242.114	62.121	67.144	239.908	188.430	66.326	71.439	71.677	75.838	210.303	74.765	-8191	255	
871.756	1	1	0	0	0.38831	0.13409	0.085564	0.086882	0.078845	0.17095	0.3469	0.068727	0.22937	0.12411	0.10207	0.16777	0.11233	0.11198	0.17521	0.08206	-0.8125	-2.0938	-1.6083	-1.6	-2.2708	-1.3563	-1.9021	-2.2083	-1.2771	-2.2438	-1.8708	-1.5583	-2.2687	-1.4833	-1.5917	-2.2896	208.854	326.999	240.928	196.613	275.822	293.525	337.761	346.277	156.991	335.097	407.005	370.415	94.670	188.611	184.485	367.129	0.00085289	0.00025187	4.4063e-05	1344.8	9.2178e-06	8.5265e-06	1350.2	361.16	3.6212e-06	2.4993e-06	413.32	139.57	121.1	41.566	1.1187e-05	51.435	0.00050202	0.00049366	0.00013716	1353.5	5.3851e-06	5.3903e-06	1355	365.34	5.3984e-06	5.3598e-06	417.14	140.38	121.92	42.187	5.2993e-06	52.129	279.194	85.154	91.631	62.353	214.997	194.769	62.242	67.161	225.103	174.461	66.244	71.384	71.483	75.629	185.364	74.900	-8191	255	
871.875	1	1	0	0	0.053144	0.21445	0.2548	0.15472	0.16436	0.052834	0.28754	0.43242	0.19172	0.12611	0.20769	0.15566	0.30793	0.25478	0.43323	0.28626	-0.64167	-1.8292	-1.5854	-1.4937	-2.2896	-1.4771	-1.7812	-2.4417	-1.275	-2.0375	-1.9896	-1.5896	-2.4146	-1.6771	-1.6604	-2.4188	236.767	195.147	121.170	365.479	125.223	213.968	328.844	59.825	137.947	265.776	384.632	81.829	390.135	407.163	203.453	367.838	0.0007639	0.00044663	0.00033844	1347.3	3.5201e-06	7.9806e-06	1352.6	361.82	6.885e-06	3.3315e-06	412.66	139.19	120.74	41.414	1.0584e-05	51.369	0.00049025	0.00047982	0.00013454	1355.3	5.2764e-06	5.2759e-06	1355.1	365.14	5.3275e-06	5.3219e-06	415.97	140.2	121.87	42.058	5.3071e-06	52.164	285.981	160.522	90.922	62.123	134.007	203.551	62.036	66.898	229.332	198.788	66.251	71.071	71.744	75.811	210.825	74.792	-8191	255	
871.948	1	1	0	0	0.37789	0.11158	0.066799	0.25145	0.10728	0.064381	0.48961	0.35532	0.26711	0.25325	0.14679	0.27151	0.080578	0.19924	0.28187	0.14385	-0.93333	-2.0417	-1.8208	-1.5125	-2.1979	-1.6437	-1.7917	-2.3	-1.1833	-1.8354	-2.225	-1.3	-2.3917	-1.9167	-1.5167	-2.3688	175.405	69.310	271.902	384.450	217.535	280.678	350.385	372.170	368.419	244.911	79.877	365.689	56.282	57.907	132.800	54.909	0.00075126	0.00053027	0.00012979	1342.9	8.7073e-06	2.4911e-06	1349.3	362.34	9.1681e-06	3.5431e-06	412.65	138.37	120.55	41.398	8.4799e-06	51.253	0.00049277	0.00048872	0.00013549	1354.4	5.3412e-06	5.3473e-06	1357	365.57	5.4132e-06	5.345e-06	417.08	140.25	121.97	42.15	5.3788e-06	52.095	285.884	105.626	148.658	62.100	246.370	175.794	62.045	66.928	252.052	150.193	65.910	70.994	71.802	75.558	158.057	74.690	-8191	255	
872.044	1	1	0	0	0.21119	0.066538	0.18802	0.042247	0.31531	0.11051	0.30412	0.4758	0.17731	0.073875	0.54267	0.18558	0.34509	0.16187	0.095001	0.15188	-0.875	-1.7875	-2.2562	-1.4896	-2.1708	-1.6063	-1.4958	-2.2771	-1.4438	-1.625	-2.1354	-1.4333	-2.1083	-1.8062	-1.3229	-2.275	276.337	241.826	276.898	260.691	128.438	376.708	333.323	361.502	305.805	235.086	377.568	307.311	123.537	400.081	147.016	405.417	0.00081092	0.00040026	0.00013912	1340.3	9.5122e-06	2.4473e-06	1353.2	360.97	5.5836e-06	6.2607e-06	412.81	138.49	120.39	41.349	8.8147e-06	51.413	0.00050058	0.00049757	0.00013813	1354.6	5.4385e-06	5.4636e-06	1357	365.44	5.3955e-06	5.3839e-06	416.89	140.28	122.09	42.239	5.4559e-06	52.258	296.093	103.615	190.551	62.059	215.688	189.620	61.961	66.962	165.265	172.004	66.077	71.007	71.756	75.613	182.707	74.569	-8191	255	
872.163	1	1	0	0	0.11789	0.1111	0.24215	0.33473	0.14269	0.070971	0.26369	0.10904	0.19477	0.12115	0.4502	0.40537	0.33825	0.070149	0.24945	0.10165	-1.1063	-1.5833	-1.9146	-1.4062	-2.0583	-1.6229	-1.4292	-2.3167	-1.5125	-1.7125	-2.3333	-1.1417	-1.9875	-1.9	-1.1396	-2.3479	381.099	83.482	116.940	331.972	377.295	278.001	360.712	52.642	128.987	408.115	349.457	356.629	370.578	287.087	282.089	288.287	0.00074163	0.00047621	0.00014429	1345.9	9.6345e-06	2.0381e-06	1352.9	362.57	1.085e-05	4.8695e-06	414.1	139.3	121.34	41.384	8.4739e-06	51.312	0.00050422	0.00050006	0.0001384	1357.5	5.5094e-06	5.4585e-06	1357.9	365.96	5.5424e-06	5.5326e-06	418.8	140.71	122.45	42.297	5.5969e-06	52.318	280.003	119.333	113.723	61.954	263.982	77.587	61.857	66.862	185.669	190.943	65.777	70.918	71.620	75.544	243.965	74.593	-8191	255	
872.259	1	1	0	0	0.15195	0.062773	0.14256	0.14539	0.1233	0.36859	0.35944	0.42057	0.12547	0.37003	0.43203	0.0087571	0.19926	0.29771	0.1135	0.085469	-1.2104	-1.5	-2.275	-1.4208	-1.8104	-1.9292	-1.3792	-2.2708	-1.4625	-1.5458	-2.275	-1.5917	-1.7229	-2.1625	-1.1646	-2.1708	123.732	172.845	65.133	379.430	380.984	403.643	391.085	353.677	126.122	132.413	311.775	265.276	172.589	140.217	114.152	106.423	0.00073646	0.00055182	0.0001262	1349.4	9.0098e-06	2.162e-06	1352.3	364.27	4.5083e-06	3.7939e-06	415.29	139.88	120.64	41.433	9.6439e-06	51.256	0.00051106	0.00050601	0.00014173	1360.6	5.5835e-06	5.5624e-06	1359.4	366.84	5.5895e-06	5.5989e-06	418.82	141.08	122.41	42.281	5.5922e-06	52.366	294.520	181.025	232.489	61.805	224.713	243.841	61.941	66.903	232.196	194.344	66.262	70.854	71.390	75.593	179.340	74.739	-8191	255	
872.355	1	1	0	0	0.14466	0.20121	0.1422	0.29117	0.16703	0.049557	0.31708	0.37362	0.48977	0.070591	0.20647	0.057804	0.34892	0.30651	0.22849	0.11203	-1.1562	-1.0667	-2.1979	-1.6313	-1.6542	-1.9708	-1.5938	-2.1813	-1.7396	-1.2938	-2.4604	-1.5896	-1.8687	-2.3479	-1.1979	-1.9937	228.828	109.397	269.615	372.027	181.660	341.483	342.339	349.476	49.792	171.650	346.378	272.641	388.260	324.208	161.172	300.449	0.00081571	0.00018297	0.00017431	1347.2	5.6945e-06	5.0938e-06	1350.7	363	6.5631e-06	5.4657e-06	412.53	139.26	121.19	41.292	5.8193e-06	51.239	0.00051373	0.00051307	0.00014328	1360.1	5.6061e-06	5.5613e-06	1358.5	366.21	5.5846e-06	5.5916e-06	417.86	140.58	122.57	42.298	5.5985e-06	52.318	284.234	287.554	170.680	61.867	192.543	165.993	62.015	66.979	143.200	178.885	66.186	70.808	71.634	75.424	139.190	74.838	-8191	255	
872.476	1	1	0	0	0.16807	0.21791	0.19604	0.29231	0.077926	0.033244	0.23544	0.16116	0.23391	0.16785	0.25396	0.30091	0.25162	0.30633	0.066833	0.17787	-1.4896	-1.2271	-2.0583	-1.5542	-1.575	-2.1479	-1.3125	-2.0583	-1.8083	-1.1104	-2.2854	-1.7146	-1.6896	-2.4833	-1.1354	-1.8833	151.011	392.412	261.479	344.108	307.726	117.001	107.179	390.036	260.353	279.690	265.463	353.178	373.241	69.872	167.012	361.619	0.0006623	0.00024843	7.647e-05	1350.2	7.0129e-06	2.6374e-06	1348	361.96	4.4425e-06	5.2485e-06	412.24	139.13	120.46	41.291	1.3051e-05	51.527	0.00051442	0.0005122	0.00014014	1359.6	5.5517e-06	5.5531e-06	1357.3	366.18	5.562e-06	5.5773e-06	417.87	140.67	122.22	42.218	5.6217e-06	52.49	279.551	183.544	103.002	62.113	217.857	204.264	61.812	66.832	202.327	240.530	66.038	70.997	71.829	75.772	133.812	74.636	-8191	255	
872.572	1	1	0	0	0.21177	0.26072	0.16776	0.30226	0.30177	0.21388	0.094677	0.4172	0.053616	0.089528	0.11228	0.073298	0.16179	0.30064	0.12319	0.30519	-1.4688	-1.2458	-2.175	-1.8563	-1.3667	-2.1375	-1.7146	-1.8917	-2.1521	-1.4083	-2.2042	-1.8625	-1.4292	-2.2396	-1.3896	-1.8396	95.694	217.683	374.154	361.667	316.507	318.144	254.580	369.452	86.640	109.309	258.589	128.139	375.291	314.484	253.746	335.736	0.00072247	0.00049657	0.00014445	1346.7	5.4331e-06	5.8599e-06	1348.1	360.95	8.2931e-06	3.7494e-06	412.42	139.43	120.53	41.413	9.5756e-06	51.506	0.00051905	0.00051835	0.00014371	1361.3	5.6977e-06	5.7179e-06	1359.8	366.6	5.7551e-06	5.7861e-06	418.84	141.06	122.58	42.399	5.7132e-06	52.475	289.648	217.647	140.155	61.930	203.271	166.559	61.956	66.818	210.951	193.985	66.182	70.783	71.652	75.677	195.786	74.697	-8191	255	
872.644	1	1	0	0	0.22248	0.11557	0.12339	0.20137	0.15919	0.17004	0.31814	0.094147	0.31444	0.078564	0.15123	0.18685	0.2413	0.22082	0.213	0.10159	-1.7167	-1.1771	-2.0854	-1.9167	-1.2667	-1.9333	-1.7917	-1.8333	-1.8917	-1.0771	-2.1917	-1.9625	-1.4062	-2.3271	-1.4917	-1.625	56.287	97.492	228.050	248.782	216.405	369.417	408.930	391.103	260.598	245.254	212.076	142.962	390.792	337.382	166.930	363.531	0.00071474	6.8848e-05	0.00019271	1348	7.2174e-06	3.7539e-06	1351.9	361.63	8.1932e-06	6.6444e-06	412.34	139.38	120.85	41.446	6.871e-06	51.366	0.00052476	0.00052315	0.00014476	1361.8	5.666e-06	5.6916e-06	1361.5	366.64	5.7095e-06	5.7196e-06	419.04	141.08	122.72	42.372	5.7876e-06	52.432	271.015	236.996	105.110	61.985	269.186	77.055	61.939	67.023	244.842	184.901	65.972	70.915	71.535	75.779	190.668	74.763	-8191	255	
872.740	1	1	0	0	0.10783	0.12871	0.35441	0.33446	0.14075	0.091052	0.35604	0.1763	0.13007	0.13688	0.18053	0.075669	0.17112	0.20831	0.1125	0.36576	-1.7729	-1.1271	-2.0375	-2.1854	-1.2604	-2.3708	-1.9229	-1.725	-2.0271	-1.3687	-1.8813	-2.15	-1.4792	-2.6083	-1.6688	-1.5583	252.877	99.444	270.857	338.292	285.006	379.605	367.767	341.699	230.869	234.335	338.898	339.103	315.078	351.015	215.118	342.117	0.00081257	0.00065497	0.00019161	1349.3	2.7976e-06	3.7e-06	1348.7	363.33	6.5762e-06	3.1559e-06	413.87	139.39	120.42	41.579	1.9023e-07	51.234	0.00053138	0.00052601	0.00014706	1363.8	5.7906e-06	5.836e-06	1362.9	367.98	5.8591e-06	5.8928e-06	421	141.49	122.92	42.579	5.8618e-06	52.584	277.160	129.910	171.432	62.052	356.662	116.259	61.834	67.064	201.908	202.208	65.951	71.114	71.523	75.453	86.858	74.652	-8191	255	
872.859	1	1	0	0	0.15679	0.077042	0.11576	0.24512	0.047698	0.14858	0.23185	0.038671	0.13385	0.094136	0.29421	0.22259	0.11753	0.44658	0.18457	0.13322	-1.8479	-1.2979	-1.7396	-2.0479	-1.2854	-2.0979	-1.8958	-1.45	-2.2167	-1.225	-1.6708	-2.3583	-1.2646	-2.1604	-1.7208	-1.3354	121.367	379.216	123.717	331.513	372.251	403.267	95.083	320.768	198.050	65.760	91.894	407.173	181.521	405.210	128.457	152.615	0.00072994	0.0005239	0.00019773	1347.4	8.6185e-06	2.6644e-06	1351.6	362.81	5.0608e-06	4.8313e-06	413.91	139.67	120.57	41.569	4.3834e-06	51.39	0.00054797	0.00054268	0.00015143	1365.4	5.9975e-06	5.9669e-06	1364.8	368.34	5.973e-06	5.9333e-06	420.64	141.55	122.98	42.591	5.9637e-06	52.686	276.958	188.740	182.378	61.878	188.689	219.687	62.027	66.816	215.284	158.048	66.167	70.679	71.432	75.644	305.579	74.776	-8191	255	
872.955	1	1	0	0	0.14595	0.082232	0.13528	0.19028	0.23522	0.099586	0.26929	0.21538	0.39636	0.10076	0.28125	0.15445	0.15677	0.37059	0.11469	0.10957	-1.8312	-1.4333	-1.5479	-2.1917	-1.1729	-1.975	-1.9146	-1.5375	-2.1583	-1.5583	-1.6833	-2.3417	-1.5354	-1.8521	-2.0917	-1.3188	150.869	76.909	62.103	371.102	127.679	331.743	402.702	398.147	95.845	59.239	349.584	245.280	401.841	387.017	94.087	377.827	0.00074185	0.0001759	0.0001757	1347.6	5.0326e-06	1.7526e-06	1349	363.74	8.5126e-06	6.3953e-06	413.58	139.59	121.21	41.458	6.308e-06	51.457	0.00055021	0.00054496	0.00015229	1366.4	5.9632e-06	5.9664e-06	1364	368.42	5.9675e-06	5.9853e-06	421.37	141.83	123.22	42.504	5.9373e-06	52.685	290.610	116.883	110.161	62.085	283.665	197.712	61.859	66.657	212.525	217.210	66.102	71.087	71.462	75.504	165.685	74.660	-8191	255	
873.051	1	1	0	0	0.13687	0.2499	0.10334	0.25494	0.1858	0.20959	0.094322	0.0045306	0.10591	0.28122	0.13535	0.1672	0.17673	0.13216	0.39459	0.066575	-1.7687	-1.4042	-1.3375	-2.2979	-1.2354	-1.6479	-2.2146	-1.2354	-2.0125	-1.8417	-1.4396	-2.1875	-1.4042	-1.5896	-2.0021	-1.0792	243.643	394.947	209.062	336.822	137.217	305.276	402.909	296.141	201.476	294.378	130.391	271.283	205.843	359.526	302.871	182.667	0.00081483	0.00027362	0.00022429	1341.7	4.7322e-06	8.2982e-06	1357.1	362.55	3.3041e-06	1.0209e-06	415.49	139.7	120.59	41.349	1.0855e-05	51.086	0.00054614	0.00054499	0.00015118	1364.4	5.9519e-06	5.9403e-06	1364.8	368.29	5.9586e-06	5.9647e-06	421.88	141.66	123.02	42.59	5.9731e-06	52.654	270.349	126.849	149.449	61.952	163.089	199.045	61.844	66.584	313.158	198.077	65.928	70.810	71.388	75.846	176.285	74.606	-8191	255	
873.147	1	1	0	0	0.22941	0.2572	0.091997	0.37249	0.13325	0.02845	0.22131	0.10673	0.074995	0.11592	0.043206	0.4107	0.10411	0.2055	0.17163	0.3942	-1.6271	-1.5854	-1.1875	-2.3042	-1.525	-1.4833	-2.1604	-1.5167	-2.0292	-1.6354	-1.4646	-2.3542	-1.5083	-1.6729	-2.0542	-1.3521	227.807	108.723	276.874	391.109	281.542	63.975	385.727	367.343	163.972	94.636	374.585	87.496	85.914	57.669	333.953	326.320	0.00077448	0.00062341	7.2148e-05	1347.1	4.9414e-06	5.3825e-06	1350.1	362.3	4.2259e-06	4.9498e-06	414.74	139.74	120.7	41.53	5.8892e-06	51.327	0.00054818	0.00054312	0.00015067	1364.3	5.869e-06	5.8932e-06	1363.9	367.78	5.848e-06	5.8725e-06	420.69	141.63	122.79	42.474	5.8907e-06	52.56	279.055	140.974	59.666	61.854	273.844	137.099	62.102	66.832	278.871	271.050	66.182	70.986	71.403	75.522	136.812	74.633	-8191	255	
873.243	1	1	0	0	0.10156	0.33084	0.21296	0.22298	0.085434	0.13598	0.36568	0.12187	0.11276	0.16831	0.25553	0.38961	0.24199	0.33651	0.20092	0.22465	-1.4167	-1.8	-1.4542	-2.2958	-1.5083	-1.4229	-2.3667	-1.325	-2.0646	-2.0354	-1.3292	-2.2812	-1.6854	-1.4354	-2.2438	-1.5021	92.640	320.581	103.723	347.854	76.247	71.687	358.207	315.201	364.163	315.524	364.370	389.290	397.587	134.982	177.867	365.614	0.00081043	0.00018029	0.00030588	1346.4	1.4408e-05	5.368e-06	1353.2	362.56	6.7695e-06	1.0805e-05	414.75	140.18	120.5	41.631	4.937e-06	51.461	0.00053656	0.00053726	0.00014974	1363.8	5.8916e-06	5.9185e-06	1363.8	368.05	5.9845e-06	5.9342e-06	420.57	142.12	122.96	42.609	6.049e-06	52.741	280.279	189.909	120.845	62.024	207.215	191.408	62.047	66.878	242.003	181.379	66.036	71.259	71.512	75.624	155.245	74.712	-8191	255	
873.340	1	1	0	0	0.086533	0.071329	0.17173	0.37126	0.084581	0.15221	0.27635	0.16051	0.057719	0.081539	0.14735	0.19013	0.15297	0.29113	0.27424	0.26639	-1.3542	-2.0479	-1.2146	-2.3771	-1.7396	-1.0917	-2.4813	-1.3646	-1.5438	-2.0271	-1.1875	-2.0125	-1.9125	-1.4896	-2.2375	-1.5417	381.465	236.268	258.531	278.989	126.850	202.267	342.253	344.951	177.047	274.835	370.445	339.860	138.428	385.148	169.328	68.336	0.00069146	0.0006841	0.00017185	1351	3.7252e-06	6.1666e-06	1348.7	361.77	8.0085e-06	4.3577e-06	415.05	140	121.03	41.41	6.3675e-06	51.358	0.00055967	0.00055053	0.00015485	1366.5	6.1133e-06	6.0729e-06	1364.3	368.51	6.075e-06	6.0779e-06	422.22	142.09	123.34	42.637	6.0925e-06	52.806	284.677	195.776	139.932	62.270	310.001	135.511	61.930	66.908	185.196	213.632	66.162	70.965	71.532	75.583	170.267	74.600	-8191	255	
873.436	1	1	0	0	0.20302	0.15116	0.12609	0.30705	0.10086	0.12517	0.20025	0.24581	0.058732	0.1256	0.17827	0.031481	0.35576	0.1438	0.18802	0.19768	-1.3042	-2.1208	-1.1708	-2.2396	-1.7146	-1.2604	-2.3063	-1.6229	-1.7812	-2.1896	-1.4771	-2.1479	-1.9125	-1.3979	-2.1792	-1.6375	323.430	297.211	117.691	79.702	196.505	348.915	349.943	360.603	312.849	317.286	71.516	139.278	399.872	371.813	74.197	304.638	0.00075508	0.00082014	0.00010084	1349	7.7808e-06	1.6887e-06	1351.7	362.54	6.0679e-06	5.4212e-06	414.79	139.63	120.78	41.435	4.2734e-06	51.549	0.00055763	0.00055241	0.00015361	1367.7	6.0138e-06	6.0433e-06	1365.4	368.54	6.0125e-06	6.0572e-06	421.32	141.85	123.18	42.62	6.0779e-06	52.666	285.169	132.676	120.476	62.131	183.808	135.228	61.951	66.810	266.749	240.603	66.110	71.134	71.612	75.890	185.360	74.341	-8191	255	
873.556	1	1	0	0	0.32952	0.11093	0.29877	0.1418	0.22369	0.10249	0.50995	0.078377	0.05724	0.21867	0.12111	0.02996	0.15901	0.28752	0.099679	0.20758	-1.125	-2.2292	-1.3958	-1.8833	-1.8417	-1.1979	-2.55	-1.825	-1.4417	-2.1521	-1.3188	-1.9125	-2.1792	-1.3271	-2.0979	-1.6896	149.094	118.597	174.162	354.738	90.353	59.054	362.713	407.622	64.218	146.714	308.294	182.411	396.280	52.196	351.478	360.775	0.00077508	5.2456e-05	0.00018387	1345.6	4.0838e-06	7.2644e-06	1351.5	362.33	3.9816e-06	9.044e-06	412.77	139.58	120.52	41.358	1.205e-05	51.449	0.00055661	0.00055135	0.00015484	1365.7	6.0358e-06	6.0673e-06	1365.6	368.53	6.0788e-06	6.0953e-06	421.74	142.03	123.28	42.604	6.0339e-06	52.75	281.438	340.256	161.358	61.987	241.145	161.861	62.161	66.775	220.877	116.917	66.196	71.265	71.631	75.631	197.926	74.520	-8191	255	
873.652	1	1	0	0	0.24324	0.25266	0.17717	0.31924	0.068675	0.26825	0.069897	0.33915	0.18979	0.28067	0.28131	0.2652	0.19221	0.47894	0.28248	0.085369	-0.93333	-2.1083	-1.2771	-1.7687	-2.1104	-1.1958	-2.2125	-1.8625	-1.2479	-2.1188	-1.6479	-1.6583	-2.1417	-1.2062	-2.1188	-1.825	373.830	361.827	294.211	55.520	175.734	307.394	351.161	354.003	344.457	385.699	320.931	351.686	285.805	381.325	140.195	168.834	0.00089255	0.00031852	7.9305e-05	1348	1.2506e-05	5.3611e-06	1351	361.69	9.7028e-06	1.5836e-06	414.27	139.39	120.68	41.503	5.3221e-06	51.226	0.00055538	0.00054937	0.0001525	1366.1	5.9849e-06	5.9563e-06	1364.5	368.28	5.9318e-06	5.9353e-06	421.56	141.72	123.22	42.533	5.9478e-06	52.589	287.793	107.969	83.864	62.265	245.805	121.848	62.047	66.783	214.343	308.193	65.898	71.183	71.537	75.356	264.687	74.568	-8191	255	
873.749	1	1	0	0	0.07061	0.13304	0.15852	0.2419	0.38583	0.29941	0.23911	0.52466	0.16845	0.37544	0.098071	0.17425	0.25551	0.11612	0.086501	0.091321	-0.99167	-2.0979	-1.5167	-1.6917	-2.1042	-1.3021	-2.0917	-2.0187	-1.2479	-2.1312	-1.6083	-1.6583	-2.3333	-1.3542	-1.9438	-2.1521	378.637	333.654	320.178	316.666	176.470	211.663	384.823	353.501	326.727	300.026	400.338	173.280	89.412	105.052	55.699	66.446	0.00084355	0.00028849	7.7494e-05	1349.5	9.7569e-06	6.8831e-08	1345.4	360.93	6.7868e-06	3.5907e-06	411.39	139.09	119.86	41.066	1.1897e-05	50.793	0.00054138	0.00053991	0.00015087	1365.5	5.9257e-06	5.9045e-06	1362.5	367.74	5.9237e-06	5.9115e-06	420.93	141.6	122.88	42.482	5.8636e-06	52.503	276.937	151.663	82.777	62.108	218.326	152.732	62.122	66.790	268.776	258.528	66.013	71.062	71.433	75.915	199.833	74.426	-8191	255	
873.845	1	1	0	0	0.1246	0.08143	0.16588	0.42064	0.23953	0.27006	0.44935	0.35078	0.11141	0.064312	0.53042	0.41238	0.14561	0.36241	0.10855	0.21741	-0.87083	-2.0917	-1.4875	-1.6792	-2.3625	-1.3312	-1.9625	-2.2875	-1.2354	-1.9729	-1.8875	-1.3708	-2.2167	-1.4958	-1.7771	-2.1104	376.835	401.612	384.539	353.595	393.817	56.998	331.491	347.374	84.123	301.515	50.589	353.001	366.133	348.088	56.946	283.209	0.00080825	0.00060379	0.00012157	1324.4	4.3258e-06	6.9945e-06	1333.5	357.42	6.0913e-06	5.6571e-06	409.14	137.25	119.23	40.672	1.9444e-06	50.611	0.00054399	0.00053711	0.00015049	1358.7	5.8815e-06	5.8558e-06	1360.5	366.63	5.8291e-06	5.8127e-06	419.57	140.89	122.58	42.287	5.8377e-06	52.367	276.354	159.687	114.643	61.941	216.784	165.325	62.021	66.830	231.645	254.887	66.225	71.239	71.641	75.688	161.359	74.654	-8191	255	
873.939	1	1	0	0	0.040787	0.084549	0.16787	0.25128	0.40191	0.14475	0.14402	0.4085	0.33118	0.15132	0.2065	0.1554	0.10188	0.17662	0.23415	0.053763	-0.875	-2.0167	-1.6583	-1.3271	-2.1	-1.425	-1.8083	-2.1667	-1.1875	-2.0021	-1.9396	-1.3438	-2.2896	-1.6812	-1.4729	-2.1688	139.401	164.129	322.648	347.042	291.162	160.530	387.020	361.460	269.502	94.005	190.982	351.152	310.493	144.285	383.971	381.274	0.00069243	0.00048764	0.00015795	1328.6	3.6883e-06	7.2102e-06	1332.8	356.45	4.6291e-06	3.9405e-06	408.21	136.82	119.16	40.858	2.624e-06	50.684	0.0005344	0.00053008	0.00014813	1359.2	5.8344e-06	5.782e-06	1358.3	366.61	5.8491e-06	5.8227e-06	418.96	140.74	122.46	42.32	5.801e-06	52.388	290.719	155.930	99.073	62.133	297.494	190.757	62.068	66.667	170.829	302.488	66.187	71.028	71.501	75.738	286.279	74.679	-8191	255	
874.037	1	1	0	0	0.070196	0.10483	0.14858	0.31237	0.1329	0.15955	0.21443	0.20511	0.28347	0.14786	0.17117	0.36962	0.22864	0.067747	0.29018	0.10463	-0.99167	-1.825	-1.7708	-1.3792	-2.0292	-1.5625	-1.8583	-2.2875	-1.3479	-1.875	-2.05	-1.4937	-2.4167	-1.8687	-1.5458	-2.3937	138.726	131.513	339.814	370.839	222.027	81.883	399.708	321.299	406.752	64.616	359.110	376.367	70.600	292.095	257.131	83.721	0.00068614	0.0010806	8.0812e-05	1329.5	6.4154e-06	6.3399e-06	1329.1	359.6	5.0284e-06	5.9011e-06	410.2	137.4	119.38	40.848	1.2474e-05	50.621	0.00053064	0.00053168	0.00014631	1359.3	5.7587e-06	5.8039e-06	1357.5	367.11	5.759e-06	5.7281e-06	418.82	140.93	122.62	42.278	5.8318e-06	52.37	283.642	149.446	395.203	62.098	297.266	225.020	62.068	66.712	230.074	137.793	65.959	71.202	71.755	75.852	213.356	74.746	-8191	255	
874.156	1	1	0	0	0.42873	0.19837	0.12814	0.27958	0.2489	0.11923	0.16659	0.35404	0.088118	0.23718	0.29114	0.26768	0.15221	0.13119	0.11193	0.26941	-0.99583	-1.7542	-1.9458	-1.4896	-2.1333	-1.8042	-1.6292	-2.4521	-1.4708	-1.6625	-2.3146	-1.4562	-2.1646	-2.1146	-1.6	-2.3208	65.261	115.489	211.893	346.785	167.663	118.927	393.001	313.579	96.707	154.733	316.031	81.520	318.682	373.357	170.386	348.979	0.00062889	0.00052479	1.8906e-05	1327.6	1.0828e-06	7.5439e-06	1341.5	358.26	7.1794e-06	7.0751e-06	409.45	138.17	119.76	40.945	9.9646e-06	50.79	0.00053028	0.00052912	0.00014622	1358.8	5.741e-06	5.7538e-06	1360.8	366.8	5.8094e-06	5.7956e-06	419.63	141.42	122.86	42.326	5.8361e-06	52.418	280.971	65.747	190.682	62.141	199.909	203.600	62.175	67.018	270.271	227.527	66.223	71.400	71.785	75.595	257.922	74.697	-8191	255	
874.252	1	1	0	0	0.13992	0.11156	0.10391	0.1254	0.17476	0.07613	0.3597	0.099504	0.24332	0.10455	0.048574	0.28332	0.20166	0.090382	0.18513	0.22316	-1.0479	-1.6125	-2.1396	-1.3687	-2.0458	-1.7333	-1.3417	-2.4333	-1.3208	-1.5833	-2.3833	-1.3542	-2.1833	-2.0417	-1.2938	-2.325	401.365	290.396	404.130	86.484	217.431	375.966	305.857	91.492	388.512	261.305	122.614	288.990	339.196	248.593	73.456	69.725	0.0008505	0.00056286	8.8048e-05	1330	1.1923e-05	3.6007e-06	1330.9	358.43	9.3032e-06	8.194e-06	407.72	137.59	119.85	40.882	1.2901e-05	50.836	0.00053642	0.00053359	0.00014814	1358.3	5.7942e-06	5.8146e-06	1358.6	367.03	5.8263e-06	5.7974e-06	419.11	141.11	122.64	42.345	5.7478e-06	52.467	278.678	124.365	87.153	62.178	255.337	148.817	62.208	66.997	262.955	160.858	66.204	71.086	71.761	75.696	186.454	74.884	-8191	255	
874.348	1	1	0	0	0.094609	0.13631	0.04076	0.44212	0.13472	0.11755	0.23409	0.18023	0.046537	0.13529	0.22426	0.45048	0.12081	0.38195	0.13344	0.29426	-1.1417	-1.4229	-2.1854	-1.5771	-2.025	-2.075	-1.4937	-2.2792	-1.7958	-1.4583	-2.325	-1.6667	-2.0292	-2.0396	-1.1146	-2.0854	191.767	383.714	202.615	362.591	81.282	301.402	342.862	386.910	259.690	110.301	334.418	359.981	366.718	386.415	101.643	343.048	0.00071444	0.0003673	0.00016896	1328.9	8.9348e-06	3.2881e-06	1334.9	357.76	3.5955e-06	1.074e-05	408.32	137.71	119.37	41.043	2.9629e-06	51.273	0.00052983	0.00052461	0.00014604	1355.4	5.7084e-06	5.6678e-06	1357	365.98	5.6211e-06	5.6394e-06	418.22	140.57	122.31	42.2	5.5441e-06	52.347	287.640	129.199	159.280	62.117	223.867	182.733	62.220	67.187	186.652	174.568	66.366	70.863	71.741	75.794	172.662	75.025	-8191	255	
874.444	1	1	0	0	0.16948	0.17968	0.1759	0.2243	0.20014	0.057663	0.3829	0.12288	0.083007	0.16385	0.10141	0.19355	0.046529	0.094725	0.2772	0.27491	-1.3188	-1.2771	-2.2125	-1.7188	-1.5688	-2.0604	-1.5021	-2.1021	-1.7667	-1.3542	-2.25	-1.3375	-1.5938	-2.2917	-1.3062	-2.1771	108.602	118.483	397.566	325.323	298.805	126.423	248.302	305.867	212.671	272.717	402.774	50.288	275.576	238.010	81.248	286.742	0.00091565	0.00074602	7.9455e-05	1326.7	3.3817e-06	1.0056e-06	1337	357.44	7.9016e-06	3.7061e-06	408.86	137.46	120.09	41.03	9.0557e-06	50.898	0.00050872	0.00049945	0.00013876	1354	5.4309e-06	5.4726e-06	1354.2	365.39	5.4588e-06	5.3532e-06	417.69	140.1	122.25	42.179	5.3087e-06	52.165	282.289	145.961	95.152	62.314	236.592	210.592	62.283	67.048	230.547	150.058	66.256	71.163	71.730	75.738	202.165	74.843	-8191	255	
874.541	1	1	0	0	0.16588	0.2182	0.15263	0.17436	0.080128	0.15575	0.068606	0.049419	0.076935	0.14338	0.23528	0.24417	0.20224	0.14828	0.077879	0.16078	-1.625	-1.3354	-2.1917	-1.5167	-1.5042	-2.1542	-1.4646	-2.1542	-1.8979	-1.2167	-2.2938	-1.7979	-1.4479	-2.2687	-1.2458	-1.9729	83.734	255.454	146.710	403.086	369.828	226.205	334.739	142.513	207.835	394.591	334.169	327.954	394.199	175.318	352.401	327.464	0.00072893	0.00017331	9.9149e-05	1329.7	4.104e-06	4.9026e-06	1329	357.08	1.1307e-05	2.7926e-06	410.13	137.23	119.52	40.754	1.3031e-05	50.853	0.00048102	0.00047223	0.00012965	1352.1	5.0325e-06	5.0152e-06	1348.8	364.45	4.9319e-06	4.8693e-06	415.67	139.46	121.31	41.808	4.701e-06	51.757	268.413	365.558	59.954	62.321	274.180	204.408	62.022	67.104	214.537	168.346	66.174	71.162	71.735	75.924	177.785	75.012	-8191	255	
#DATA ENDS
