BOXY.EXE: ISS Imagent and Oximeter Data Acquisition Program Version 0.80
Ascii Record File

#ACQ INFORMATION
2  Detector Channels 
16  External MUX Channels 
1  Auxiliary Channels 
5000  Waveform (CCF) Frequency (Hz)
1  Waveforms Skipped 
30  Waveforms Averaged 
1  Cycles Averaged 
16  Acquisitions per Waveform 
10.0806  Updata Rate (Hz) 

#FILE INFORMATION
TRUE -- External MUX Channel results are PARSED.
FALSE -- AC DC and Phase are NOT grouped.
TRUE -- Companion Program Settings File CREATED.
FALSE -- AC data not excluded
FALSE -- DC data not excluded
FALSE -- Phase data not excluded
FALSE -- Auxillary Chn. data not excluded
Tab delimiters

#CALIBRATION STATE
TRUE -- Waveform Calibration Values APPLIED.


#AUX CALIBRATION VALUES
Val Type	aux-1	

Term	1.0000e+00	
Factor	0.0000e+00	


#WF CALIBRATION VALUES
A = Detector Channel
Val Type	A-AC1	A-AC2	A-AC3	A-AC4	A-AC5	A-AC6	A-AC7	A-AC8	A-AC9	A-AC10	A-AC11	A-AC12	A-AC13	A-AC14	A-AC15	A-AC16	A-DC1	A-DC2	A-DC3	A-DC4	A-DC5	A-DC6	A-DC7	A-DC8	A-DC9	A-DC10	A-DC11	A-DC12	A-DC13	A-DC14	A-DC15	A-DC16	A-Ph1	A-Ph2	A-Ph3	A-Ph4	A-Ph5	A-Ph6	A-Ph7	A-Ph8	A-Ph9	A-Ph10	A-Ph11	A-Ph12	A-Ph13	A-Ph14	A-Ph15	A-Ph16	

Term	0.00000e+00	0.00000e+00	0.00000e+00	0.00000e+00	0.00000e+00	0.00000e+00	0.00000e+00	0.00000e+00	0.00000e+00	0.00000e+00	0.00000e+00	0.00000e+00	0.00000e+00	0.00000e+00	0.00000e+00	0.00000e+00	0.00000e+00	0.00000e+00	0.00000e+00	0.00000e+00	0.00000e+00	0.00000e+00	0.00000e+00	0.00000e+00	0.00000e+00	0.00000e+00	0.00000e+00	0.00000e+00	0.00000e+00	0.00000e+00	0.00000e+00	0.00000e+00	0.00000e+00	0.00000e+00	0.00000e+00	0.00000e+00	0.00000e+00	0.00000e+00	0.00000e+00	0.00000e+00	0.00000e+00	0.00000e+00	0.00000e+00	0.00000e+00	0.00000e+00	0.00000e+00	0.00000e+00	0.00000e+00	
Factor	1.00000e+00	1.00000e+00	1.00000e+00	1.00000e+00	1.00000e+00	1.00000e+00	1.00000e+00	1.00000e+00	1.00000e+00	1.00000e+00	1.00000e+00	1.00000e+00	1.00000e+00	1.00000e+00	1.00000e+00	1.00000e+00	1.00000e+00	1.00000e+00	1.00000e+00	1.00000e+00	1.00000e+00	1.00000e+00	1.00000e+00	1.00000e+00	1.00000e+00	1.00000e+00	1.00000e+00	1.00000e+00	1.00000e+00	1.00000e+00	1.00000e+00	1.00000e+00	X	X	X	X	X	X	X	X	X	X	X	X	X	X	X	X	

B = Detector Channel
Val Type	B-AC1	B-AC2	B-AC3	B-AC4	B-AC5	B-AC6	B-AC7	B-AC8	B-AC9	B-AC10	B-AC11	B-AC12	B-AC13	B-AC14	B-AC15	B-AC16	B-DC1	B-DC2	B-DC3	B-DC4	B-DC5	B-DC6	B-DC7	B-DC8	B-DC9	B-DC10	B-DC11	B-DC12	B-DC13	B-DC14	B-DC15	B-DC16	B-Ph1	B-Ph2	B-Ph3	B-Ph4	B-Ph5	B-Ph6	B-Ph7	B-Ph8	B-Ph9	B-Ph10	B-Ph11	B-Ph12	B-Ph13	B-Ph14	B-Ph15	B-Ph16	

Term	0.00000e+00	0.00000e+00	0.00000e+00	0.00000e+00	0.00000e+00	0.00000e+00	0.00000e+00	0.00000e+00	0.00000e+00	0.00000e+00	0.00000e+00	0.00000e+00	0.00000e+00	0.00000e+00	0.00000e+00	0.00000e+00	0.00000e+00	0.00000e+00	0.00000e+00	0.00000e+00	0.00000e+00	0.00000e+00	0.00000e+00	0.00000e+00	0.00000e+00	0.00000e+00	0.00000e+00	0.00000e+00	0.00000e+00	0.00000e+00	0.00000e+00	0.00000e+00	-1.50286e+02	-1.28179e+02	-1.21349e+02	-1.82838e+02	-7.38202e+01	-6.86517e+01	-1.55822e+02	-1.62015e+02	-7.29113e+01	-6.79823e+01	-1.70826e+02	-1.70724e+02	-1.80370e+02	-1.76266e+02	-6.49426e+01	-1.48473e+02	
Factor	2.23038e-05	1.70172e-04	3.80664e-05	2.18512e-01	1.33480e-06	1.47544e-06	1.70849e-01	6.06101e-02	1.17230e-06	1.44139e-06	8.98913e-02	2.97864e-02	2.76328e-02	9.32721e-03	1.30128e-06	1.34466e-02	3.00195e-06	3.32187e-06	9.25624e-07	1.11221e-01	3.61816e-08	3.65802e-08	8.21001e-02	3.10359e-02	3.62532e-08	3.66873e-08	4.44963e-02	1.48016e-02	1.42663e-02	4.80361e-03	3.65987e-08	6.70235e-03	X	X	X	X	X	X	X	X	X	X	X	X	X	X	X	X	



#DISTANCE SETTINGS
A = Detector Channel
A-1	A-2	A-3	A-4	A-5	A-6	A-7	A-8	A-9	A-10	A-11	A-12	A-13	A-14	A-15	A-16	

2.5000e+00	3.0000e+00	2.5000e+00	3.0000e+00	2.0000e+00	3.0000e+00	1.5000e+00	3.0000e+00	3.0000e+00	3.0000e+00	3.0000e+00	3.0000e+00	3.0000e+00	3.0000e+00	1.5000e+00	3.0000e+00	

B = Detector Channel
B-1	B-2	B-3	B-4	B-5	B-6	B-7	B-8	B-9	B-10	B-11	B-12	B-13	B-14	B-15	B-16	

1.0000e+01	1.0000e+01	1.0000e+01	1.4400e+00	1.0000e+01	1.0000e+01	1.5100e+00	1.9400e+00	1.0000e+01	1.0000e+01	1.9900e+00	2.4900e+00	2.4100e+00	2.9000e+00	1.0000e+01	2.9800e+00	




#DATA BEGINS
time	group	step	mark	flag	A-AC1	A-AC2	A-AC3	A-AC4	A-AC5	A-AC6	A-AC7	A-AC8	A-AC9	A-AC10	A-AC11	A-AC12	A-AC13	A-AC14	A-AC15	A-AC16	A-DC1	A-DC2	A-DC3	A-DC4	A-DC5	A-DC6	A-DC7	A-DC8	A-DC9	A-DC10	A-DC11	A-DC12	A-DC13	A-DC14	A-DC15	A-DC16	A-Ph1	A-Ph2	A-Ph3	A-Ph4	A-Ph5	A-Ph6	A-Ph7	A-Ph8	A-Ph9	A-Ph10	A-Ph11	A-Ph12	A-Ph13	A-Ph14	A-Ph15	A-Ph16	B-AC1	B-AC2	B-AC3	B-AC4	B-AC5	B-AC6	B-AC7	B-AC8	B-AC9	B-AC10	B-AC11	B-AC12	B-AC13	B-AC14	B-AC15	B-AC16	B-DC1	B-DC2	B-DC3	B-DC4	B-DC5	B-DC6	B-DC7	B-DC8	B-DC9	B-DC10	B-DC11	B-DC12	B-DC13	B-DC14	B-DC15	B-DC16	B-Ph1	B-Ph2	B-Ph3	B-Ph4	B-Ph5	B-Ph6	B-Ph7	B-Ph8	B-Ph9	B-Ph10	B-Ph11	B-Ph12	B-Ph13	B-Ph14	B-Ph15	B-Ph16	aux-1	digaux	

1358.870	1	1	0	768	0.13918	0.0588	0.09159	0.048471	0.08257	0.21954	0.2471	0.051329	0.1941	0.26874	0.14215	0.22243	0.18322	0.22257	0.03551	0.24926	-3.6729	-4.7188	-4.55	-4.1583	-4.9479	-4.1958	-4.3146	-4.9542	-4.025	-4.5583	-4.6792	-4.1375	-4.9542	-4.5208	-4.225	-4.9354	330.200	294.895	428.932	436.911	137.691	250.313	361.153	128.874	169.574	478.377	156.985	409.256	415.952	444.942	151.721	285.133	0.0011887	0.0008222	0.00010164	870.18	6.236e-06	7.242e-06	896.82	331.01	8.9171e-06	7.8036e-06	408.13	171.76	138.97	68.979	7.4912e-06	90.408	0.00086278	0.00082354	0.00022843	879.82	8.9649e-06	8.9157e-06	900.76	336.15	8.9644e-06	8.8869e-06	412.07	173.35	140.37	70.384	8.8916e-06	91.554	162.126	220.383	200.864	132.354	238.575	264.834	131.171	137.809	256.392	216.809	135.905	140.128	142.288	148.138	325.961	144.419	-8191	255	
1358.966	1	1	0	0	0.16694	0.24762	0.18941	0.086894	0.071568	0.15092	0.29197	0.090403	0.13872	0.21165	0.30854	0.11989	0.056827	0.2375	0.21246	0.21539	-3.9	-4.5208	-4.7333	-4.05	-4.7188	-4.4896	-4.3083	-5.0521	-4.2417	-4.5604	-4.8812	-4.1438	-4.9396	-4.8313	-4.1667	-5.0813	381.530	188.546	292.730	216.635	383.827	154.872	391.817	433.935	236.351	143.257	398.033	424.005	395.209	427.214	355.030	429.586	0.0010665	0.0007745	0.00024078	867.56	4.8567e-06	5.0609e-06	888.67	331.41	4.8436e-06	7.3682e-06	410.19	172.6	138.55	69.666	4.2973e-06	91.293	0.00083255	0.00079586	0.0002234	878.51	8.6986e-06	8.8022e-06	899.68	336.45	8.8975e-06	9.1972e-06	413.65	174.39	140.63	70.761	8.9428e-06	92.163	161.489	226.222	253.031	132.327	287.890	250.881	131.205	137.691	332.402	248.640	135.767	140.305	142.202	147.790	237.032	144.626	-8191	255	
1359.063	1	1	0	0	0.080737	0.2298	0.12484	0.076671	0.15054	0.11632	0.12705	0.094175	0.26461	0.16616	0.11156	0.028729	0.30031	0.12436	0.093376	0.16274	-3.9896	-4.4146	-4.9229	-4.0396	-4.8313	-4.5667	-4.0938	-5.0708	-4.3167	-4.3958	-4.9958	-4.1021	-4.7	-4.9083	-4.1375	-5.1062	191.957	141.370	319.192	394.519	224.328	442.803	143.529	132.815	151.618	349.168	310.979	340.206	370.474	165.451	190.743	397.902	0.0011758	0.00077161	0.00016728	870.51	5.4479e-06	1.0517e-05	894.6	333.37	6.6655e-06	9.3018e-06	409.21	172.69	138.65	69.458	4.6588e-06	91.145	0.00083482	0.00080965	0.00022476	878.9	8.6304e-06	8.8516e-06	901.28	337.03	8.7442e-06	8.8189e-06	414.24	174.79	140.69	70.586	8.9163e-06	92.263	159.522	265.819	256.375	132.483	251.409	294.144	131.442	137.951	238.856	269.412	136.145	140.145	142.053	147.842	279.300	144.766	-8191	255	
1359.159	1	1	0	0	0.12098	0.076916	0.070999	0.18214	0.1348	0.18158	0.20331	0.20522	0.029416	0.13988	0.10911	0.071157	0.17657	0.18261	0.13792	0.21727	-4.0312	-4.2292	-4.9646	-4.2063	-4.5312	-4.8042	-4.275	-4.8875	-4.4729	-4.2271	-5.1167	-4.2063	-4.6979	-4.8792	-3.9562	-4.8958	141.479	417.994	193.098	399.759	473.600	418.846	462.774	418.998	199.738	208.018	121.426	324.456	184.838	455.410	291.880	381.385	0.0011003	0.00094862	0.00013231	866.26	6.1299e-06	5.724e-06	892.86	332.73	8.2201e-06	6.609e-06	408.56	172.86	138.68	69.316	8.2836e-06	90.288	0.00083098	0.00081717	0.00022318	878.79	8.7865e-06	8.8232e-06	900.88	336.87	8.9186e-06	9.0599e-06	413	173.96	140.47	70.409	9.1242e-06	91.324	163.638	192.972	244.027	132.336	223.309	255.282	131.288	137.827	251.203	317.588	135.760	140.159	142.194	148.011	311.403	144.464	-8191	255	
1359.253	1	1	0	0	0.13019	0.1246	0.11957	0.12202	0.12928	0.072584	0.27601	0.26084	0.15409	0.10985	0.078338	0.11866	0.2008	0.12529	0.17866	0.15944	-4.0437	-4.2167	-5.0167	-4.2729	-4.425	-4.775	-4.0417	-4.9313	-4.6292	-4.2021	-5.0542	-4.2417	-4.3187	-5.1438	-4.075	-4.9521	471.932	146.922	316.201	157.426	135.448	438.614	124.038	401.784	217.023	430.508	353.749	414.269	453.553	134.317	140.317	449.432	0.0011343	0.0004848	0.00019212	868.64	1.1074e-05	5.5321e-06	890.16	333.7	4.4174e-06	2.4424e-06	406.91	172.13	138.91	69.017	6.2711e-06	90.433	0.00085415	0.00083062	0.00022856	881.12	8.9154e-06	8.8726e-06	899.43	336.66	8.8328e-06	8.8556e-06	412.28	173.84	140.51	70.298	8.8537e-06	91.368	162.323	190.917	222.649	132.567	269.764	259.884	131.352	138.045	242.670	259.893	135.666	140.464	142.426	148.080	243.286	144.273	-8191	255	
1359.351	1	1	0	0	0.21348	0.12826	0.036753	0.097511	0.1803	0.22137	0.31548	0.082721	0.23156	0.13468	0.22334	0.14517	0.42782	0.023592	0.07488	0.13682	-4.2083	-4.0479	-4.9812	-4.3958	-4.2354	-4.7417	-4.2	-4.8521	-4.6583	-4.2021	-4.8917	-4.4104	-4.3333	-4.9104	-4.2167	-4.7479	443.516	267.571	306.711	434.334	335.858	283.319	466.512	418.632	152.352	457.228	421.001	436.657	466.602	307.187	390.859	400.667	0.0012665	0.00068273	0.00015134	867.89	2.1959e-06	5.8635e-06	897.9	329.59	5.4079e-06	3.5801e-06	407.64	172.5	138.07	68.903	1.0827e-05	90.36	0.00082951	0.00079652	0.00022065	878.6	8.7065e-06	8.5659e-06	899.6	335.07	8.4718e-06	8.5818e-06	412.07	173.85	140.05	70.206	8.6263e-06	91.536	158.459	239.620	200.262	132.195	271.039	288.444	131.171	137.753	269.686	176.211	135.766	140.342	142.293	148.137	293.116	144.227	-8191	255	
1359.470	1	1	0	0	0.14848	0.18901	0.1515	0.018202	0.1685	0.15957	0.34199	0.22836	0.15197	0.26337	0.23534	0.087782	0.45185	0.1229	0.16676	0.25726	-4.4354	-3.9875	-5.0146	-4.5396	-4.0646	-4.8521	-4.3583	-4.6729	-4.7708	-3.7917	-5.0042	-4.7229	-4.3229	-5.1562	-4.2542	-4.5687	478.298	343.725	348.326	473.092	249.368	127.621	380.525	382.803	231.403	153.390	469.765	426.115	433.767	400.350	287.767	413.824	0.0011572	0.00091823	0.00019859	862.89	7.6216e-06	1.0311e-05	896.24	332.09	5.2777e-06	6.1004e-06	408.75	172.42	137.68	68.898	1.5914e-06	90.289	0.0008125	0.00078017	0.00021776	876.98	8.6435e-06	8.581e-06	900.6	335.51	8.468e-06	8.6189e-06	412.08	174.27	139.5	70.045	8.6329e-06	91.619	159.756	189.475	206.932	132.467	255.020	275.676	131.486	137.907	260.159	269.714	135.872	140.148	142.337	148.333	283.598	144.468	-8191	255	
1359.566	1	1	0	0	0.20021	0.18109	0.093221	0.32305	0.048031	0.13991	0.16954	0.2577	0.18173	0.14134	0.22451	0.24477	0.055457	0.14901	0.17145	0.081603	-4.4729	-3.8583	-4.6417	-4.6729	-4.2854	-5.025	-4.3021	-4.5	-4.8562	-3.9917	-4.7292	-4.7792	-4.2625	-5.2792	-4.3604	-4.5208	227.150	288.079	278.264	456.221	155.773	143.883	228.943	377.198	370.724	156.569	132.366	128.271	462.391	474.670	331.575	469.974	0.0011478	0.00040653	0.00020816	867.81	4.0876e-06	8.1656e-06	897.89	330.73	7.6428e-06	5.5468e-06	405.52	171.87	137.95	68.785	1.0459e-05	89.792	0.00080794	0.00077674	0.00021737	877.4	8.5225e-06	8.5277e-06	899.57	334.17	8.5057e-06	8.6516e-06	410.02	173	139.27	69.814	8.7353e-06	90.795	160.629	203.625	194.638	132.637	263.718	254.960	131.502	138.117	296.798	297.563	136.019	140.665	141.986	148.009	311.984	144.500	-8191	255	
1359.662	1	1	0	0	0.0778	0.097221	0.046155	0.13165	0.063265	0.25105	0.11773	0.15463	0.063587	0.22183	0.17313	0.10745	0.33211	0.23979	0.11457	0.1806	-4.5417	-3.9667	-4.5333	-4.6792	-3.9542	-4.9917	-4.3542	-4.4313	-4.9375	-4.0146	-4.775	-4.9271	-4.4271	-5.025	-4.4479	-4.3125	123.312	344.627	258.650	150.684	131.407	134.660	365.757	390.944	396.556	190.057	120.209	414.342	410.078	433.924	448.131	406.272	0.0011419	0.00082836	0.00015815	867.9	7.5559e-06	1.0658e-05	892.32	329.76	6.7782e-06	1.106e-05	406.38	170.61	137.31	68.179	3.1655e-06	89.399	0.00082075	0.00078782	0.00022042	878.24	8.5946e-06	8.5296e-06	898.12	333.55	8.4615e-06	8.6656e-06	409.38	172.18	138.83	69.532	8.78e-06	90.594	162.940	202.086	205.119	132.804	227.228	257.110	131.627	138.114	267.756	272.676	136.119	140.674	142.475	148.268	242.680	144.624	-8191	255	
1359.758	1	1	0	0	0.30013	0.17799	0.03076	0.30205	0.42003	0.11925	0.027849	0.2499	0.14364	0.19405	0.030184	0.12502	0.079239	0.10973	0.09574	0.055135	-4.6125	-4	-4.4167	-5.1417	-4.1562	-4.9313	-4.75	-4.2375	-4.9125	-4.0792	-4.6792	-4.9458	-4.1146	-4.75	-4.5354	-4.4292	463.437	204.456	430.938	425.764	223.462	169.003	440.148	429.281	169.122	214.510	280.822	410.414	268.922	186.387	399.444	159.847	0.0011364	0.00052679	0.00010566	861.82	2.5694e-07	7.1339e-06	889.92	328.69	1.081e-05	9.6126e-06	404.5	171.43	137.14	68.585	4.8735e-06	89.987	0.00082519	0.00080614	0.00022518	875.92	8.7126e-06	8.6832e-06	897.54	333.09	8.3908e-06	8.5082e-06	409.14	172.84	138.76	69.692	8.6348e-06	91.039	161.405	200.437	194.494	132.667	327.130	269.234	131.811	138.152	224.548	261.349	136.036	140.766	142.546	148.243	262.504	144.518	-8191	255	
1359.855	1	1	0	0	0.021412	0.24098	0.10652	0.074304	0.22672	0.14444	0.16407	0.16094	0.12785	0.14016	0.19381	0.073079	0.21809	0.1419	0.26373	0.2194	-4.7979	-4.2937	-4.2937	-4.8542	-3.925	-4.5938	-4.825	-4.2042	-5.0417	-4.3271	-4.4042	-5.0479	-4.0687	-4.7812	-4.75	-4.2396	213.642	250.987	452.907	451.163	313.886	412.630	399.911	437.921	357.947	417.034	229.074	475.273	471.958	351.855	283.087	435.647	0.001166	0.0005817	9.8365e-05	861.18	9.5505e-06	3.7562e-06	896.43	329.41	6.1028e-06	6.9758e-06	405.61	171.45	136.85	68.521	9.1847e-06	90.351	0.00082185	0.0007823	0.00022395	875.82	8.6452e-06	8.6386e-06	900.42	333.44	8.5642e-06	8.6218e-06	410.21	173.06	138.82	69.752	8.7047e-06	91.285	158.786	260.182	418.889	132.766	257.286	295.491	131.790	138.351	256.910	258.015	136.142	140.625	142.656	148.332	278.464	144.679	-8191	255	
1359.951	1	1	0	0	0.14818	0.013096	0.23722	0.20612	0.24259	0.17195	0.30318	0.15993	0.085674	0.050206	0.1095	0.25449	0.10192	0.06728	0.017497	0.13867	-4.5146	-4.3042	-4.2979	-5.1417	-4.1354	-4.7125	-4.9583	-4.0375	-4.95	-4.5396	-4.3417	-5.175	-4.425	-4.7167	-4.7562	-4.1562	457.760	380.915	422.640	271.616	301.733	130.599	451.472	419.293	141.344	466.040	397.436	121.628	128.911	468.356	313.319	435.051	0.0011566	0.00077566	0.00013485	864.64	9.8342e-06	5.8642e-06	893.95	330.36	9.9505e-06	2.5429e-06	403.62	170.29	136.49	68.264	7.2047e-06	89.021	0.00081589	0.00079351	0.00022428	877.55	8.6895e-06	8.8876e-06	899.24	333.3	8.869e-06	8.7852e-06	408.31	171.62	138.46	69.549	8.911e-06	90.274	161.945	203.624	160.003	132.842	275.356	236.186	131.645	138.328	242.584	301.123	136.020	140.477	142.768	148.339	259.389	144.432	-8191	255	
1360.071	1	1	0	0	0.12245	0.22674	0.12279	0.073954	0.095776	0.13238	0.276	0.11553	0.041992	0.13258	0.090546	0.13088	0.17369	0.12743	0.2494	0.15766	-4.6438	-4.55	-4.1521	-5.1771	-4.1354	-4.2854	-5.025	-4.2042	-4.8396	-4.6875	-4.1	-4.8583	-4.175	-4.5437	-4.8604	-4.2542	180.422	131.238	134.427	175.975	232.577	211.991	394.423	184.991	179.762	390.994	322.847	450.673	416.283	182.269	241.048	467.399	0.001169	0.00088022	7.0095e-05	863.41	2.5301e-06	7.1021e-06	888.88	328.97	2.9273e-06	1.0706e-05	399.84	170	136.51	68.057	6.4011e-06	89.169	0.00084136	0.00080391	0.00022631	874.87	8.7949e-06	8.8668e-06	896.11	332.52	8.7835e-06	8.7659e-06	406.46	171.3	138.28	69.366	8.8278e-06	90.184	160.282	204.229	165.682	133.075	239.826	288.576	131.491	138.221	249.440	281.816	135.960	140.523	142.439	148.232	287.056	144.893	-8191	255	
1360.166	1	1	0	0	0.077191	0.19111	0.17671	0.053175	0.13324	0.072096	0.22384	0.17714	0.063917	0.11824	0.32548	0.024697	0.11922	0.32596	0.066837	0.23831	-4.5021	-4.5563	-3.95	-5.0188	-4.3688	-4.2562	-4.8917	-4.1312	-4.5333	-4.7604	-4.1021	-5.0271	-4.5333	-4.3875	-5.1479	-4.1833	352.945	389.537	389.757	452.318	389.347	380.378	423.509	453.476	239.981	364.541	430.608	262.270	427.853	461.446	222.054	455.940	0.0011625	5.4131e-05	0.00022423	861.67	5.2764e-06	1.5353e-06	891.27	327.82	8.103e-06	1.3106e-05	403.96	170.11	136.44	68.383	4.9406e-06	89.465	0.00083121	0.00078892	0.00022343	873.62	8.6702e-06	8.7525e-06	896.88	332.12	8.7246e-06	8.734e-06	408.44	171.84	138.21	69.557	8.9327e-06	90.695	159.678	300.255	271.848	132.855	268.057	387.906	131.961	138.211	228.408	256.505	136.441	140.760	142.849	148.376	265.989	144.944	-8191	255	
1360.262	1	1	0	0	0.26533	0.22297	0.12527	0.16904	0.099302	0.12457	0.063645	0.086438	0.071908	0.31548	0.05186	0.12983	0.027468	0.22984	0.13797	0.27651	-4.1417	-4.7542	-4.0021	-4.9333	-4.5417	-4.2354	-4.975	-4.2833	-4.4271	-4.6937	-4.2521	-4.9812	-4.6583	-4.1333	-4.7937	-4.3354	342.917	288.586	374.746	407.655	130.599	232.312	436.433	221.869	335.742	254.488	130.283	143.192	174.249	403.426	452.006	374.826	0.0010985	0.00029818	0.00011356	862.42	6.9372e-06	8.3314e-06	894.16	328.02	7.0319e-06	6.549e-06	403.8	170.66	137.46	68.458	1.5887e-06	90.235	0.00084452	0.00079849	0.00022848	875.97	8.8102e-06	8.9688e-06	899.91	332.56	8.945e-06	8.896e-06	409.11	172.45	138.76	69.762	8.908e-06	91.192	160.116	262.103	127.136	132.653	260.657	259.541	131.660	138.354	278.031	232.145	136.244	141.012	142.977	148.575	355.107	145.324	-8191	255	
1360.358	1	1	0	0	0.12396	0.15476	0.2601	0.036122	0.11746	0.134	0.15761	0.14082	0.18988	0.30051	0.17909	0.19708	0.12967	0.0725	0.14242	0.091989	-4.075	-5	-3.9208	-4.6646	-4.7396	-4.1	-4.875	-4.2521	-4.2667	-4.9229	-4.1104	-4.6771	-4.6771	-4.2854	-4.8833	-4.5854	237.020	141.613	126.988	295.120	150.970	437.462	439.861	456.635	204.144	407.504	417.113	475.062	370.744	160.725	153.354	176.198	0.0011475	0.001185	9.8842e-05	864.75	6.454e-06	5.5852e-06	894.7	330.67	9.1756e-06	1.3278e-06	403.87	170.96	136.61	68.356	4.3774e-06	89.058	0.00084823	0.0008068	0.00022851	876.87	8.8837e-06	9.0176e-06	899.26	334.02	9.012e-06	8.9224e-06	409.12	172.53	138.68	69.645	9.1729e-06	90.447	160.247	185.854	188.503	133.239	269.674	273.112	132.012	138.742	299.878	273.864	136.673	140.947	142.923	148.606	232.226	145.287	-8191	255	
1360.431	1	1	0	0	0.1782	0.10528	0.058847	0.12773	0.28114	0.097193	0.094525	0.099098	0.045984	0.17997	0.19001	0.21579	0.21617	0.076122	0.17696	0.040789	-3.7208	-4.8333	-4.0667	-4.7667	-4.7833	-4.1917	-4.8667	-4.5437	-4.0479	-4.9062	-4.1896	-4.6208	-4.8521	-4.175	-4.5875	-4.6083	410.083	205.884	282.293	160.500	203.802	219.231	467.710	441.589	293.708	410.116	409.012	134.197	438.714	437.465	436.200	394.379	0.0011504	0.00058043	0.00022768	866.24	7.2126e-06	5.9443e-06	891.23	329.86	3.5216e-06	8.1348e-06	405.59	170.45	137.19	68.671	6.5624e-06	89.546	0.00086089	0.00083028	0.00023295	877.98	9.0987e-06	9.247e-06	898.45	333.51	9.1623e-06	9.0647e-06	408.52	171.95	138.91	69.844	9.0263e-06	90.614	160.335	207.875	234.988	133.591	225.626	305.026	132.051	138.726	265.765	263.349	136.914	141.415	143.362	148.856	257.576	145.642	-8191	255	
1360.550	1	1	0	0	0.18834	0.17629	0.069205	0.11204	0.058506	0.2362	0.054793	0.072819	0.10832	0.11092	0.052179	0.033472	0.029431	0.42612	0.1481	0.16116	-3.7833	-5.1771	-4.1229	-4.5521	-4.8042	-3.9562	-4.8708	-4.6729	-4.1	-4.9729	-4.4479	-4.4563	-4.9313	-4.2792	-4.6813	-4.8479	270.065	452.431	196.070	133.207	436.445	252.783	324.725	389.595	375.805	149.724	372.431	208.470	275.916	402.866	277.216	410.888	0.0011801	0.00073489	0.00017675	864.1	1.754e-06	8.0217e-06	888.28	330.82	3.1627e-06	8.7115e-06	405.36	171.1	137.87	68.989	8.6552e-06	90.479	0.00085651	0.00080632	0.00022657	876.97	8.8767e-06	8.9729e-06	897.46	334.32	8.9649e-06	8.9621e-06	409.53	172.68	139.46	70.061	8.9745e-06	91.395	160.590	210.354	191.249	133.671	263.847	274.205	132.396	138.933	244.384	242.191	137.093	141.246	143.396	149.163	256.382	146.032	-8191	255	
1360.646	1	1	0	0	0.022399	0.085121	0.21756	0.071916	0.16259	0.16093	0.13733	0.12919	0.10646	0.079435	0.18637	0.22197	0.11056	0.23242	0.17964	0.20461	-3.8042	-4.875	-4.2812	-4.2021	-4.8854	-4.0104	-4.8146	-4.9812	-4.0687	-4.9208	-4.4	-4.3438	-4.9917	-4.2083	-4.5375	-4.9542	174.442	305.984	377.572	232.564	218.597	354.094	384.575	436.512	402.613	223.030	420.372	360.386	473.417	426.976	319.188	478.858	0.0010952	0.00023447	0.00022864	862.46	6.6175e-06	3.7831e-06	888.35	331.73	1.074e-05	1.1024e-05	404.24	172.82	138.76	69.368	1.0299e-05	91.009	0.00084183	0.00080993	0.00022356	876.29	8.6659e-06	8.8985e-06	899.54	334.91	8.9425e-06	8.9503e-06	410.9	173.82	139.96	70.456	9.0643e-06	92.088	161.575	212.153	242.243	133.709	260.780	186.572	133.079	139.620	269.546	276.279	137.475	141.891	144.083	149.591	251.130	146.017	-8191	255	
1360.743	1	1	0	0	0.092598	0.35793	0.16697	0.24142	0.14945	0.13425	0.095123	0.091321	0.034359	0.20116	0.082357	0.12871	0.040691	0.22022	0.12617	0.23374	-3.75	-4.8104	-4.3229	-4.1354	-4.9292	-4.2208	-4.6312	-4.9708	-3.8896	-4.8979	-4.6562	-4.1333	-4.9917	-4.2917	-4.3292	-5.1438	186.637	175.270	135.940	266.464	476.632	323.066	358.781	292.841	140.391	391.718	407.660	382.080	348.641	459.817	367.565	139.575	0.0012295	0.00096869	0.00021969	865.73	2.8199e-06	4.6154e-06	889.84	330.4	7.9817e-06	4.7324e-06	407.81	171.24	137.84	69.178	6.9413e-06	89.937	0.00085321	0.00081456	0.00022606	877.45	8.8849e-06	8.9717e-06	897.49	334.38	9.0517e-06	8.9991e-06	411.14	173.3	139.8	70.249	9.0756e-06	91.209	158.662	204.778	236.057	134.008	253.948	261.073	132.842	139.454	254.861	269.790	137.524	141.741	143.947	149.672	303.681	146.028	-8191	255	
1360.863	1	1	0	0	0.098919	0.16188	0.17074	0.013239	0.17273	0.073592	0.16207	0.14477	0.16585	0.25471	0.10598	0.2686	0.10173	0.13641	0.09903	0.19749	-3.7167	-4.9104	-4.5667	-4.2458	-5.0646	-4.2438	-4.4042	-4.9229	-4.0229	-4.6687	-4.9396	-4.3104	-5.1438	-4.4208	-4.3208	-5.1354	276.616	236.010	359.713	368.919	426.982	424.843	450.301	452.631	328.342	458.521	125.809	216.230	466.046	420.002	141.953	434.503	0.0011034	0.00093036	0.00018181	867.29	7.0582e-06	6.0452e-06	896.26	329.91	4.7521e-06	4.6478e-06	407	171.42	137.59	69.567	5.3103e-06	90.529	0.00084754	0.00080669	0.00022409	878.85	8.8129e-06	8.7917e-06	899.86	334.55	8.7153e-06	8.8828e-06	410.32	172.76	139.7	70.458	8.9656e-06	91.405	161.014	198.215	201.785	134.167	287.206	254.508	132.747	139.242	298.424	336.300	137.308	142.149	143.942	149.570	249.063	146.164	-8191	255	
1360.959	1	1	0	0	0.082133	0.027374	0.11998	0.066938	0.20331	0.21297	0.15702	0.056091	0.21795	0.071384	0.024408	0.092567	0.2569	0.1362	0.098548	0.14676	-3.6521	-4.5979	-4.6937	-4.1896	-4.9917	-4.2708	-4.2	-5.0375	-4.1229	-4.5833	-4.9229	-4.0375	-4.8812	-4.4792	-4.1813	-5.0875	467.062	382.991	389.641	448.836	405.983	389.072	384.123	444.978	383.102	450.226	471.873	369.893	467.374	142.811	174.140	203.164	0.0011022	0.00062207	0.00024208	864.18	5.0121e-06	6.1552e-06	892.51	331.83	6.0419e-06	4.1473e-06	405.69	171.83	138.75	69.698	8.0595e-06	91.203	0.00083093	0.0008029	0.00022021	874.92	8.6038e-06	8.6466e-06	900.41	335.88	8.6677e-06	8.6697e-06	411.93	173.63	140.47	70.803	8.9197e-06	92.065	158.092	215.058	225.417	134.218	242.670	288.172	133.450	139.994	276.430	316.208	137.892	142.238	144.357	150.109	258.323	146.769	-8191	255	
1361.031	1	1	0	0	0.10873	0.17391	0.15034	0.22679	0.21429	0.1778	0.32927	0.093197	0.01497	0.15224	0.23179	0.26979	0.076011	0.24302	0.16325	0.05793	-3.9875	-4.2292	-4.7083	-4.1312	-4.8708	-4.5312	-4.0687	-5.0667	-4.0292	-4.4	-4.9167	-4.2729	-4.85	-4.6875	-3.9583	-4.9333	175.221	357.614	179.730	141.801	321.163	281.152	421.182	465.909	320.611	276.163	387.817	128.339	148.849	446.788	377.661	338.428	0.001192	0.00061395	0.00022233	860.66	5.639e-06	7.627e-06	898.86	333.84	6.5303e-06	1.7295e-06	409.32	173.28	139.38	70.119	4.8719e-06	91.757	0.00082851	0.00080739	0.00022103	875.86	8.6614e-06	8.752e-06	902.59	336.87	8.7175e-06	8.8761e-06	413.89	174.49	140.66	71.066	8.8396e-06	92.667	156.350	167.907	225.303	135.606	211.999	206.323	132.935	139.227	258.886	182.971	137.334	141.632	143.495	149.433	302.452	145.946	-8191	255	
1361.152	1	1	0	0	0.0561	0.043426	0.17209	0.066847	0.06994	0.11816	0.1584	0.24811	0.11429	0.34636	0.26877	0.20478	0.17065	0.13652	0.1571	0.16888	-4.0042	-4.3521	-4.8417	-4.0958	-4.6917	-4.7792	-4.1792	-5.0708	-4.3708	-4.3875	-5.1687	-4.2083	-4.6479	-5.025	-4.0917	-5.0583	389.826	344.548	194.786	259.417	251.158	296.351	473.295	402.791	352.159	226.452	430.333	129.590	130.452	423.746	198.314	408.504	0.0012518	0.00056167	8.4247e-05	866.42	8.8938e-06	9.1858e-06	894.32	334.24	7.497e-06	8.5852e-06	410.26	172.42	138.77	70.303	7.7783e-06	90.893	0.00082797	0.00079772	0.00022088	877.72	8.8172e-06	8.7459e-06	901.04	337.21	8.8797e-06	8.9838e-06	413.19	174.02	141	71.155	9.0015e-06	92.074	159.206	234.372	261.395	134.424	250.575	255.391	133.337	139.792	230.422	255.337	138.532	142.605	144.705	150.189	280.050	146.300	-8191	255	
1361.246	1	1	0	0	0.14532	0.26184	0.098115	0.18123	0.1144	0.027012	0.078295	0.025336	0.10041	0.077355	0.16485	0.29616	0.24339	0.18369	0.10208	0.41008	-3.9604	-4.1271	-4.8	-4.2479	-4.5583	-4.8771	-4.1833	-4.8583	-4.4354	-4.175	-5.1229	-4.4542	-4.6062	-4.9771	-3.975	-5.2271	392.340	173.176	302.311	147.667	325.822	370.419	456.790	151.344	286.089	247.142	147.541	161.128	378.169	405.896	164.596	152.693	0.0011998	0.00097616	0.00026661	868.67	9.364e-06	6.7966e-06	895.94	335.06	5.2407e-06	4.2644e-06	410.67	172.35	139.99	70.33	5.4847e-06	91.347	0.00084691	0.00080656	0.00022583	880.02	8.8745e-06	8.7482e-06	902.01	338.32	8.8688e-06	8.8598e-06	414.15	173.92	141.35	71.392	8.994e-06	92.116	157.247	190.253	251.698	134.873	299.138	282.159	132.997	139.926	295.714	236.939	137.473	142.009	143.452	149.207	227.739	145.503	-8191	255	
1361.342	1	1	0	0	0.051094	0.20633	0.07029	0.21765	0.056805	0.18653	0.53646	0.22638	0.13233	0.090808	0.32734	0.31086	0.15297	0.14254	0.26246	0.1261	-4.5312	-4.025	-4.9104	-4.2875	-4.55	-4.9583	-4.3	-4.7917	-4.6167	-4.0625	-4.9708	-4.2625	-4.3854	-4.9854	-4.0813	-4.85	255.158	359.698	198.021	461.023	211.993	440.824	415.764	325.011	306.024	344.291	469.307	121.551	468.783	470.784	336.794	300.578	0.0011706	0.00062389	0.00017934	871.25	4.0669e-06	5.3314e-06	889.73	334.88	5.2045e-06	6.1643e-06	406.69	173.15	139.92	70.575	7.3703e-06	91.748	0.00084591	0.00080802	0.00022538	878.87	8.6678e-06	8.5896e-06	898.5	338.11	8.502e-06	8.6464e-06	412.94	174.48	141.45	71.632	8.7365e-06	92.757	159.057	193.165	264.099	133.468	247.408	272.960	132.309	138.679	255.666	297.677	136.910	141.341	143.266	149.144	284.638	145.334	-8191	255	
1361.463	1	1	0	0	0.097866	0.076487	0.11979	0.31538	0.27814	0.16364	0.24631	0.23392	0.084488	0.33276	0.11923	0.12016	0.084425	0.37615	0.17124	0.15042	-4.45	-3.975	-4.9	-4.2958	-4.1312	-4.9271	-4.0938	-4.7771	-4.8812	-3.9771	-4.9125	-4.425	-4.2937	-5.0104	-3.9708	-4.7917	169.775	173.082	430.046	127.098	359.984	165.069	161.390	421.296	213.228	275.992	459.796	321.123	474.342	421.244	158.337	127.481	0.0012844	0.00062429	0.0001703	869.19	9.3485e-06	1.2846e-05	896.24	337.37	7.9518e-06	8.521e-06	413.71	175.11	140.14	71.256	5.4704e-06	92.831	0.00082531	0.00080798	0.00022144	879.57	8.6925e-06	8.5708e-06	901.33	339.9	8.5436e-06	8.5878e-06	416.59	175.93	142.13	72.106	8.586e-06	93.651	161.403	218.013	204.583	133.267	271.804	274.926	132.192	138.707	254.563	261.206	136.769	141.089	143.253	148.930	301.563	145.281	-8191	255	
1361.559	1	1	0	0	0.13469	0.03124	0.06055	0.15674	0.060647	0.24369	0.16855	0.20536	0.11361	0.028209	0.098369	0.11109	0.11498	0.20404	0.19648	0.22788	-4.6021	-4.1229	-4.7042	-4.5667	-4.0354	-5.0583	-4.1521	-4.4958	-4.9563	-3.9604	-5.0083	-4.6208	-4.0667	-5.0917	-4.1729	-4.5563	418.256	428.929	122.839	130.378	343.179	302.653	129.233	419.562	216.494	213.004	453.730	435.477	422.711	466.282	206.303	367.767	0.0012375	0.00071182	0.00013067	869.66	5.072e-06	9.0129e-06	900.15	337.74	5.3054e-06	8.8999e-06	410.98	174.24	140.02	70.34	2.875e-06	91.308	0.00081794	0.00078553	0.00021574	880.95	8.6208e-06	8.6455e-06	903.62	340.59	8.805e-06	8.9721e-06	415.64	175.49	142.3	71.612	8.9617e-06	92.415	160.579	256.487	206.026	133.541	225.978	243.416	132.571	139.265	243.175	268.612	137.263	141.808	143.298	149.353	232.238	145.369	-8191	255	
1361.655	1	1	0	0	0.074615	0.14898	0.23249	0.054456	0.1164	0.057689	0.071609	0.13532	0.093371	0.072572	0.29124	0.29833	0.11153	0.11807	0.26908	0.090826	-4.4437	-3.9583	-4.6896	-4.6917	-3.8604	-5.0437	-4.4396	-4.3771	-4.9729	-4.1396	-4.5542	-4.7979	-4.1146	-5.1083	-4.2042	-4.3063	158.461	455.959	442.178	143.594	224.011	442.601	193.840	468.031	216.900	185.402	149.450	380.189	295.097	415.898	344.923	441.217	0.0011978	0.00055225	0.00019522	867.14	7.7727e-06	6.1312e-06	898.34	334.65	9.5795e-06	2.9446e-06	410.79	173.68	140.26	70.621	5.4172e-06	91.596	0.00082596	0.00079602	0.00021563	878.45	8.5172e-06	8.5235e-06	900.97	338.24	8.4981e-06	8.6237e-06	413.34	174.74	141.74	71.649	8.7777e-06	92.614	159.945	192.642	236.395	134.140	209.355	251.249	133.446	140.035	270.505	266.752	137.726	142.194	143.972	149.757	242.720	146.238	-8191	255	
1361.727	1	1	0	0	0.29184	0.14158	0.13117	0.08932	0.16425	0.13897	0.29613	0.023464	0.11515	0.12274	0.068749	0.098442	0.20098	0.11992	0.33844	0.19341	-4.6417	-3.9583	-4.7042	-4.8542	-3.9	-4.7792	-4.4292	-4.3958	-5.1146	-4.2146	-4.6333	-4.8375	-4.2458	-4.8958	-4.3917	-4.3313	229.111	294.903	393.116	416.934	140.305	389.895	427.533	149.105	469.800	387.448	226.834	318.973	150.895	139.041	266.194	441.183	0.0013149	0.00074266	9.5034e-05	865.47	1.1609e-05	9.4083e-06	894.1	334.86	4.5746e-06	5.9907e-06	411.18	174.66	139.64	71.01	5.5088e-06	92.246	0.00083601	0.00080076	0.00022773	878.24	8.9329e-06	8.7998e-06	900.55	339.05	8.7391e-06	8.8041e-06	415.07	175.55	142.16	72.04	8.5921e-06	93.243	158.179	236.580	202.633	134.048	248.710	277.334	133.081	139.567	257.151	281.442	136.977	141.690	143.319	149.140	302.253	145.330	-8191	255	
1361.847	1	1	0	0	0.10838	0.11465	0.14122	0.073624	0.14403	0.073148	0.067227	0.070471	0.12166	0.1526	0.19311	0.057663	0.31582	0.029908	0.30726	0.22262	-4.7771	-4.1438	-4.2375	-4.7812	-3.9813	-4.6271	-4.4729	-4.05	-5.0021	-4.2167	-4.375	-5.1292	-3.9458	-4.7229	-4.725	-4.125	307.184	334.299	128.329	320.720	477.392	476.203	379.896	448.212	226.542	409.332	423.917	375.481	456.234	130.173	308.024	430.722	0.0011901	0.0010832	9.4204e-05	872.23	7.3579e-06	3.6511e-06	898	336.49	7.4464e-06	3.971e-06	412.14	174.85	141	71.019	5.5887e-06	92.544	0.00081916	0.00078009	0.00021798	879.74	8.444e-06	8.4917e-06	901.77	339.25	8.3839e-06	8.3796e-06	415.27	176.16	142.19	72.114	8.5872e-06	93.599	156.969	227.533	213.186	133.385	260.010	290.133	132.389	138.684	260.583	265.629	136.528	141.131	142.967	149.037	255.617	145.213	-8191	255	
1361.944	1	1	0	0	0.18987	0.15916	0.13	0.1665	0.11876	0.20406	0.16731	0.33758	0.10042	0.12646	0.2426	0.10961	0.094592	0.16445	0.041149	0.14412	-4.5188	-4.2833	-4.2688	-5.0771	-3.9562	-4.5958	-4.8396	-4.2	-4.875	-4.5583	-4.4333	-4.9479	-4.2562	-4.7708	-4.7312	-4.1438	336.838	162.747	402.343	464.956	363.003	225.808	163.976	377.716	164.284	226.382	439.764	455.590	213.290	450.122	308.423	434.813	0.0012314	0.0010242	0.00011861	869.38	4.7679e-06	4.4659e-06	897.29	333.19	8.8062e-06	8.2571e-06	409.37	173.51	139.81	70.187	3.7568e-06	91.287	0.00082553	0.00079473	0.00022027	880.87	8.7339e-06	8.8424e-06	902.19	338.5	8.965e-06	8.8754e-06	413.78	174.96	141.7	71.477	9.021e-06	92.325	161.356	225.492	285.859	133.322	234.131	296.715	132.181	138.731	251.793	267.029	136.517	140.935	143.165	148.559	258.769	145.161	-8191	255	
1362.040	1	1	0	0	0.036746	0.26986	0.15176	0.20293	0.064709	0.18916	0.087249	0.20208	0.096372	0.17566	0.14854	0.15138	0.16942	0.30709	0.055108	0.13466	-4.6542	-4.6021	-4.2812	-4.9917	-4.1271	-4.3333	-5.0979	-4.2188	-4.8042	-4.4854	-4.1833	-5.0875	-4.2604	-4.5687	-4.9479	-4.1604	137.626	232.217	147.235	162.719	128.575	414.716	130.830	134.010	130.731	469.837	477.088	281.555	476.704	472.600	456.441	399.630	0.0011509	0.0013915	8.7729e-05	865.73	5.9819e-06	3.5342e-06	894.24	334.42	5.7376e-06	7.8978e-06	407.87	173.02	139.34	69.942	1.8246e-06	90.651	0.00084449	0.00080653	0.0002266	879.33	8.7679e-06	8.8969e-06	900.82	337.73	8.8207e-06	8.7242e-06	412.13	174.16	141.03	71.028	8.6454e-06	91.746	158.348	188.955	209.438	133.280	272.062	244.632	132.211	138.699	246.810	259.421	136.358	140.755	142.817	148.567	315.124	145.000	-8191	255	
1362.136	1	1	0	0	0.094604	0.050198	0.083473	0.11735	0.27037	0.086453	0.076998	0.045128	0.23935	0.19107	0.14377	0.10084	0.054669	0.47625	0.2924	0.21641	-4.5375	-4.6625	-3.9813	-4.975	-4.1604	-4.3958	-5.2208	-4.2208	-4.5167	-4.6896	-4.3542	-5.2146	-4.4958	-4.4042	-5.0583	-4.0854	296.600	151.638	175.523	356.367	199.057	121.604	385.945	153.858	211.040	275.531	368.340	148.435	315.960	448.193	336.022	454.816	0.0011488	0.00089679	8.6805e-05	866.73	2.1637e-06	6.9658e-06	900.06	332.54	6.9836e-06	6.4872e-06	406.94	172.93	139.03	70.181	1.0139e-05	91.04	0.00081621	0.00077153	0.0002178	876.25	8.3852e-06	8.4583e-06	900.58	335.86	8.5243e-06	8.3565e-06	410.56	173.95	140.61	71.09	8.5825e-06	92.21	156.069	216.616	196.711	133.363	263.693	265.494	132.520	138.808	233.796	269.787	136.589	140.873	143.236	148.542	268.861	145.077	-8191	255	
1362.255	1	1	0	0	0.24037	0.22036	0.13629	0.18996	0.073655	0.17282	0.18499	0.40468	0.16768	0.13514	0.099167	0.22398	0.22231	0.099201	0.17856	0.21182	-4.0563	-4.7417	-4.0396	-4.825	-4.4688	-4.1125	-5.1458	-4.2896	-4.6667	-4.8271	-4.2604	-4.9021	-4.6417	-4.4062	-4.8708	-4.1687	187.164	248.550	247.521	420.649	303.432	316.117	432.783	420.864	459.332	170.580	333.933	430.010	403.371	373.634	240.975	476.916	0.0011757	0.0013053	0.00023469	866.38	9.2696e-06	7.2259e-06	894.07	333.49	8.1079e-06	2.5088e-06	406.99	173.39	139.81	70.678	5.5752e-06	92.141	0.00082418	0.000774	0.00021792	877.27	8.4624e-06	8.5209e-06	899.12	337.09	8.4524e-06	8.367e-06	412.61	174.74	141.39	71.585	8.4769e-06	93.182	157.761	248.346	235.427	133.214	298.129	249.785	132.283	138.750	259.296	364.413	136.538	141.181	143.142	148.727	264.862	145.241	-8191	255	
1362.326	1	1	0	0	0.067038	0.19624	0.18262	0.036776	0.072531	0.057597	0.19233	0.142	0.12997	0.19361	0.15512	0.19948	0.32525	0.055108	0.043964	0.10072	-4.1937	-5.0146	-3.9729	-4.8646	-4.7583	-4.1562	-5.0625	-4.2583	-4.4771	-4.9667	-4.1	-4.7688	-4.925	-4.2562	-4.9125	-4.575	179.132	237.939	263.695	426.176	227.570	343.961	380.971	137.911	444.085	447.899	468.192	239.312	450.739	274.074	298.649	281.936	0.0011762	0.00093509	0.00014648	864.66	4.6981e-06	7.8876e-06	899.36	334.07	8.055e-06	3.146e-06	409.58	173.78	139.59	70.293	8.9258e-06	91.113	0.00080293	0.00076777	0.00020919	878.22	8.2646e-06	8.4143e-06	901.23	337.77	8.4843e-06	8.5035e-06	413.1	174.98	141.2	71.454	8.6448e-06	92.305	161.613	229.016	215.251	132.980	262.687	274.988	132.118	138.786	271.316	265.739	136.570	140.984	142.963	148.590	262.378	145.032	-8191	255	
1362.423	1	1	0	0	0.11833	0.083094	0.14564	0.065259	0.21781	0.11153	0.047474	0.23806	0.07668	0.2682	0.14085	0.15613	0.093693	0.12189	0.29479	0.32307	-4.0417	-4.7812	-3.9792	-4.8771	-4.6417	-3.9667	-5.025	-4.4833	-3.9646	-4.6729	-4.1375	-4.5917	-4.8583	-4.1667	-4.4833	-4.5333	370.757	384.829	127.542	429.388	441.880	275.271	338.926	441.837	226.558	159.170	428.625	312.189	437.075	430.350	221.271	419.159	0.0011567	0.00040754	0.00011753	871.25	6.0359e-06	8.3891e-06	893.46	334.81	8.8922e-06	7.4932e-06	409.3	173.22	140.2	70.4	5.4083e-06	90.955	0.00080892	0.00075737	0.00021102	878.27	8.1864e-06	8.436e-06	898.43	337.91	8.3484e-06	8.3385e-06	412.85	174.51	141.57	71.481	8.4701e-06	92.124	162.940	192.380	205.991	133.267	265.467	245.077	132.173	138.558	283.261	246.555	136.578	140.886	142.911	148.704	259.124	145.336	-8191	255	
1362.543	1	1	0	0	0.098446	0.086352	0.069025	0.18408	0.11068	0.08105	0.34591	0.074606	0.15013	0.11368	0.26008	0.094294	0.13972	0.17013	0.14848	0.20632	-3.8333	-5.0104	-3.9021	-4.5042	-4.7875	-4.0521	-4.9563	-4.5938	-4.0979	-4.9896	-4.1521	-4.6792	-4.7479	-4.1458	-4.6917	-4.7146	385.925	227.807	474.099	150.021	475.766	178.865	403.773	153.853	391.882	220.753	126.156	292.905	419.000	141.930	147.626	443.560	0.0011865	0.00054048	0.00013725	866.71	4.7686e-06	9.8299e-06	895.73	335.92	7.5327e-06	8.1305e-06	409.31	174.24	141.03	70.577	5.5157e-06	91.785	0.00080017	0.00076782	0.00021339	878.32	8.2726e-06	8.3693e-06	901.45	339.07	8.409e-06	8.2317e-06	413.06	175.02	142.32	71.54	8.3097e-06	92.57	156.318	231.985	236.265	133.183	239.611	250.979	132.095	138.674	213.000	262.350	136.349	140.769	142.939	148.525	231.007	145.082	-8191	255	
1362.639	1	1	0	0	0.033413	0.19469	0.23754	0.1297	0.16751	0.17298	0.2352	0.10159	0.064151	0.16477	0.14963	0.15567	0.02832	0.22949	0.17454	0.046647	-3.5896	-4.7479	-4.025	-4.3292	-4.9125	-3.8479	-4.8063	-4.7438	-4.0188	-4.7958	-4.4229	-4.5	-4.9437	-3.9979	-4.7396	-4.7979	324.455	224.144	326.123	439.068	279.159	229.567	456.724	374.054	193.026	143.948	447.179	402.636	143.270	391.081	368.809	231.125	0.0011587	0.00085469	0.00019881	871.6	6.038e-06	5.9422e-06	895.43	335.18	7.8991e-06	4.9595e-06	410.23	175.29	140.94	70.664	9.3271e-06	91.779	0.00079355	0.00075978	0.00020896	878.29	8.214e-06	8.2871e-06	902.53	339.14	8.4119e-06	8.3185e-06	414.5	176.08	142.42	71.803	8.528e-06	93.114	159.855	170.966	158.240	132.855	269.748	236.179	131.960	138.614	238.788	249.071	136.487	140.900	143.132	148.593	264.983	145.265	-8191	255	
1362.736	1	1	0	0	0.17278	0.23312	0.14999	0.031576	0.049325	0.043787	0.20292	0.046982	0.12955	0.10293	0.20636	0.23976	0.14797	0.10455	0.26863	0.21283	-3.7854	-4.8562	-4.2479	-4.2562	-4.9229	-4.1	-4.5917	-4.9625	-3.9604	-4.7188	-4.3979	-4.1646	-5.1042	-4.2229	-4.3938	-4.9062	461.543	365.543	330.316	172.482	180.586	182.161	440.519	462.601	338.721	353.377	141.540	424.605	172.894	443.512	312.086	478.452	0.0011921	0.00043686	0.00013952	865.54	6.3717e-06	7.8927e-06	897.45	334.93	3.707e-06	4.0928e-06	410.35	173.9	140.1	70.322	2.0208e-06	91.392	0.00080913	0.00077308	0.00021421	880.16	8.4384e-06	8.6255e-06	901.16	338.24	8.6709e-06	8.6334e-06	413.67	174.88	142.11	71.442	8.6084e-06	92.313	161.372	240.550	205.372	133.106	285.155	354.003	132.120	138.633	250.961	250.311	136.480	141.002	143.168	148.604	300.910	145.205	-8191	255	
1362.832	1	1	0	0	0.13222	0.2749	0.13422	0.094555	0.20613	0.12674	0.12031	0.3601	0.10672	0.21554	0.11921	0.09025	0.13469	0.10291	0.16051	0.13053	-3.7146	-5.0062	-4.5333	-4.1042	-4.9812	-4.2396	-4.3271	-4.95	-4.0542	-4.9062	-4.7417	-4.1312	-4.9437	-4.3063	-4.1771	-5.0437	159.318	199.415	305.411	441.819	291.105	416.242	467.772	359.531	223.460	313.642	290.226	188.410	430.847	458.829	326.312	442.186	0.0011404	0.0013544	0.00017602	868.26	4.9204e-06	5.3321e-06	893.39	336.16	5.2458e-06	1.0163e-05	409.77	173.99	141.2	70.597	6.3274e-06	91.571	0.00081539	0.00078144	0.00021516	880.94	8.6323e-06	8.7292e-06	901.8	339.12	8.7209e-06	8.8215e-06	413.04	175.09	142.68	71.766	8.6648e-06	92.562	159.081	240.235	211.333	132.888	238.084	264.934	131.950	138.755	261.577	301.310	136.399	140.830	143.065	148.753	246.767	145.195	-8191	255	
1362.928	1	1	0	0	0.30803	0.14761	0.091545	0.19295	0.16192	0.27384	0.32171	0.074154	0.047274	0.2536	0.12358	0.17155	0.36942	0.2504	0.1946	0.14069	-3.7125	-4.5125	-4.5938	-4.1979	-4.8542	-4.1958	-4.2521	-5.1354	-4.1667	-4.4812	-4.6542	-4.1542	-5.0312	-4.6521	-4.1979	-5.0458	453.962	411.553	278.046	121.723	391.193	347.259	431.591	430.635	474.330	160.845	441.757	438.873	472.215	479.205	234.045	470.535	0.0011203	0.00046987	0.00024581	869.12	8.9185e-06	4.2435e-06	899.5	336.31	4.0653e-06	9.4251e-06	409.02	174.46	141.08	70.609	2.3857e-06	91.809	0.00082622	0.00079557	0.00021979	881.89	8.7788e-06	8.8587e-06	903.62	340.73	9.1678e-06	9.2132e-06	415.54	176.15	143.32	71.866	9.4515e-06	92.945	159.760	176.713	233.109	133.000	251.000	274.289	131.937	138.807	235.460	265.688	136.176	140.907	142.934	148.464	296.129	144.846	-8191	255	
1363.024	1	1	0	0	0.30565	0.17516	0.19084	0.17788	0.071691	0.27591	0.035156	0.021387	0.20976	0.17502	0.27048	0.071338	0.16396	0.12916	0.096804	0.16716	-3.7438	-4.3604	-4.7896	-4.0542	-4.9812	-4.3708	-4.1333	-4.9979	-3.975	-4.2583	-4.9146	-4.0687	-5.0229	-4.6062	-4.0437	-5.025	245.591	229.216	385.761	400.804	242.320	450.264	127.321	197.006	184.857	225.484	401.126	270.595	350.865	201.556	335.013	437.636	0.0010954	0.0011017	0.00022845	872.22	4.074e-06	4.9233e-06	893.44	336.62	9.916e-06	6.1634e-06	411.31	174.54	140.45	70.807	8.5516e-06	91.795	0.00086668	0.00084306	0.00023414	883.4	9.2008e-06	9.2478e-06	903.34	340.87	9.415e-06	9.5217e-06	416.23	176.31	142.93	71.849	9.8554e-06	93.116	160.852	206.041	235.542	132.874	276.715	302.899	131.864	138.157	264.237	298.320	136.472	140.770	142.885	148.597	294.537	145.039	-8191	255	
1363.145	1	1	0	0	0.18834	0.088431	0.035388	0.17832	0.25701	0.1294	0.034704	0.26778	0.11255	0.10307	0.090041	0.068288	0.11001	0.089274	0.10484	0.074847	-3.7125	-4.0333	-4.8958	-4.0604	-4.9479	-4.6	-4.1354	-4.9667	-4.4021	-4.4	-4.9729	-4.0792	-4.7854	-4.8542	-3.9938	-5.0875	465.640	344.044	267.326	177.228	279.982	205.792	288.218	430.506	373.891	277.240	205.761	282.234	406.899	429.719	294.757	346.886	0.0011779	0.00068887	0.00018406	871.18	8.0122e-06	5.7603e-06	893.48	334.42	8.129e-06	1.72e-06	406	172.53	140.06	70.135	6.7313e-06	90.952	0.00089707	0.00088189	0.00024197	883.82	9.4185e-06	9.5321e-06	900.86	339.33	9.4838e-06	9.4686e-06	412.63	174.94	142.34	71.43	9.4583e-06	92.289	160.936	198.136	199.259	132.962	266.355	255.287	132.036	138.797	278.582	254.448	136.639	140.670	142.824	148.658	267.023	145.063	-8191	255	
1363.239	1	1	0	0	0.10221	0.12915	0.30247	0.041363	0.17047	0.032217	0.057282	0.10394	0.044976	0.19331	0.17774	0.13395	0.14555	0.11131	0.099577	0.05483	-4.0354	-4.1625	-4.7208	-4.1583	-4.6771	-4.7146	-4.1396	-4.7625	-4.3854	-4.1042	-5.1833	-4.0021	-4.3646	-4.8938	-3.8833	-4.8958	443.253	214.341	475.269	248.406	149.123	199.902	356.521	437.252	433.863	307.119	443.831	142.755	455.463	381.703	364.292	425.321	0.0011887	0.00069051	0.00031812	867	8.7401e-06	9.8198e-06	893.05	334.13	7.6781e-06	2.5282e-06	408.3	172.29	141.16	70.387	5.2705e-06	91.148	0.00088293	0.00085782	0.00023678	881.62	9.2589e-06	9.3571e-06	900.12	338.9	9.21e-06	9.4041e-06	413.36	174.68	142.76	71.495	9.4483e-06	92.204	160.132	252.766	212.054	133.025	230.144	269.270	131.869	138.375	288.762	272.062	136.166	140.700	142.811	148.471	293.787	145.061	-8191	255	
1363.335	1	1	0	0	0.066082	0.13594	0.12142	0.16745	0.048258	0.094023	0.26659	0.12919	0.22093	0.26081	0.11345	0.25203	0.096659	0.17561	0.11801	0.056102	-4.1937	-4.175	-4.8521	-4.3125	-4.2354	-4.7312	-4.0458	-4.7125	-4.4479	-4.1396	-5.1354	-4.4896	-4.5125	-4.9854	-3.8729	-4.7167	200.545	395.625	382.146	361.521	345.640	283.547	405.284	124.033	364.905	292.591	178.448	417.207	278.261	395.716	455.359	378.129	0.0011913	0.0011167	0.00014108	865.81	4.0086e-06	4.5554e-06	891.49	334.54	5.5335e-06	4.8991e-06	406.56	172.84	139.75	69.834	7.3308e-06	90.309	0.00087122	0.00085595	0.00023386	881	9.3257e-06	9.3581e-06	899.74	338.56	9.2968e-06	9.5793e-06	412.42	174.44	141.83	71.07	9.5625e-06	91.741	164.454	215.989	244.214	132.998	246.492	381.266	131.645	138.492	269.970	235.186	136.125	140.754	142.905	148.627	241.266	145.015	-8191	255	
1363.431	1	1	0	0	0.070343	0.10181	0.055511	0.28017	0.069309	0.10402	0.10524	0.19551	0.052006	0.10554	0.18538	0.23444	0.08452	0.09199	0.094313	0.066822	-4.5333	-4.1875	-4.9958	-4.2479	-4.1979	-4.9417	-4.1438	-4.7146	-4.6562	-3.85	-4.8583	-4.4125	-4.2729	-5.0667	-4.0792	-4.8167	467.120	254.345	164.540	446.146	215.197	212.487	441.582	454.771	197.213	445.551	462.151	120.682	476.316	153.077	126.234	467.423	0.001188	0.00038924	0.00018658	866.24	7.4942e-06	9.2003e-06	889.51	333.7	7.991e-06	7.161e-06	406.43	172.59	140.41	70.154	9.7947e-06	91.393	0.00087617	0.00085427	0.00023627	879.96	9.3814e-06	9.2437e-06	900.52	337.42	9.1955e-06	9.4483e-06	411.52	174.48	141.85	71.243	9.5613e-06	92.596	156.832	210.239	201.990	132.726	274.240	273.954	131.599	138.611	262.555	265.425	136.264	140.830	142.528	148.694	270.282	144.920	-8191	255	
1363.552	1	1	0	0	0.027144	0.092024	0.15644	0.17319	0.19528	0.060792	0.203	0.045747	0.19589	0.15096	0.148	0.1326	0.1677	0.2973	0.089602	0.13091	-4.3896	-3.8917	-4.6896	-4.3646	-4.1271	-4.7896	-4.2958	-4.5521	-4.7292	-3.8833	-4.7021	-4.6729	-4.1312	-4.8812	-4.0042	-4.4917	263.620	127.888	173.337	454.196	186.410	242.951	394.367	273.229	171.217	131.175	283.314	196.579	424.423	446.126	141.850	475.285	0.0012047	0.00046664	9.5024e-05	871.44	7.6833e-06	1.8811e-06	892.43	333.49	4.9058e-06	3.6808e-06	407.48	173.33	139.69	69.987	7.4942e-06	90.864	0.00087744	0.00084927	0.00023467	878.77	9.1445e-06	9.2421e-06	899.8	337.88	9.0512e-06	9.1646e-06	411.45	174.75	141.67	71.245	9.1654e-06	91.915	159.389	244.443	238.596	132.900	286.740	231.573	131.910	138.312	244.721	272.853	136.268	140.664	142.681	148.334	228.871	144.897	-8191	255	
1363.624	1	1	0	0	0.10756	0.1674	0.22828	0.29134	0.11226	0.11789	0.20502	0.18908	0.15259	0.11679	0.16957	0.21171	0.15876	0.21558	0.1135	0.16846	-4.5792	-4.0437	-4.6854	-4.5896	-3.7938	-4.7771	-4.3646	-4.3479	-4.6312	-4.05	-4.5813	-4.6188	-4.0938	-5.0292	-4.3875	-4.3604	330.118	252.542	190.183	152.500	214.566	389.877	317.831	374.613	190.632	306.441	342.823	200.444	330.734	370.017	320.979	425.730	0.0011796	0.0012913	0.00016888	865.4	1.7551e-06	7.4667e-06	883.97	334.6	5.9066e-06	5.4684e-06	405.06	172.77	140.7	70.852	1.0269e-05	91.247	0.00085415	0.00083755	0.0002274	878.91	9.2789e-06	9.166e-06	896.33	338.51	9.3486e-06	9.2843e-06	411.52	174.32	142.4	71.787	9.4577e-06	92.399	158.572	226.197	240.743	133.064	279.026	300.843	131.901	138.301	239.225	270.535	136.202	140.738	142.507	148.506	238.558	144.839	-8191	255	
1363.720	1	1	0	0	0.12098	0.084436	0.11306	0.3127	0.046369	0.090525	0.17616	0.10646	0.077865	0.21256	0.13145	0.2536	0.067248	0.15181	0.1478	0.15115	-4.2771	-4.0583	-4.6646	-4.6375	-4	-4.8583	-4.4229	-4.3917	-4.8292	-4.0208	-4.3875	-4.7958	-4.1813	-5.1104	-4.3583	-4.1833	393.391	216.257	436.284	479.320	297.723	174.057	377.570	201.581	271.014	315.213	350.752	180.059	436.501	448.570	183.145	451.841	0.001142	0.0013506	0.00023011	867.55	3.2069e-06	7.2785e-06	890	336.43	6.5579e-06	5.7584e-06	411.06	173.91	140.48	71.014	8.3324e-06	91.664	0.00088858	0.00086697	0.00023936	879.16	9.4401e-06	9.5224e-06	899.38	340	9.6352e-06	9.6302e-06	413.91	175.42	142.77	72.108	9.5493e-06	92.967	160.269	204.103	217.829	132.951	317.776	350.378	131.836	138.376	256.230	315.657	136.145	140.932	142.746	148.414	274.546	144.653	-8191	255	
1363.816	1	1	0	0	0.20026	0.057602	0.05316	0.19761	0.12583	0.23139	0.12371	0.14785	0.079508	0.1132	0.30685	0.25252	0.084765	0.31529	0.27423	0.20039	-4.5687	-4.075	-4.4187	-4.8771	-3.8083	-4.5708	-4.5563	-3.8979	-4.825	-4.1542	-4.4229	-5.0208	-4.1521	-4.8917	-4.7333	-4.3167	358.228	160.872	208.838	419.414	377.554	234.823	184.075	182.965	316.670	443.710	125.398	439.307	211.544	142.243	139.516	363.204	0.0010928	0.00073767	0.00019548	868.28	5.2687e-06	7.0932e-06	889.23	334.96	6.4382e-06	1.1866e-05	408.12	173.21	140.09	70.441	8.8008e-06	91.652	0.00089775	0.00087335	0.00024212	880.92	9.5175e-06	9.5444e-06	900.16	339.34	9.5294e-06	9.5058e-06	413.76	175.43	142.28	71.656	9.4189e-06	92.778	159.841	180.354	237.811	132.985	238.180	296.087	131.761	138.075	279.793	261.749	136.112	140.867	142.533	148.486	279.164	145.036	-8191	255	
1363.912	1	1	0	0	0.21982	0.067082	0.061155	0.13023	0.059674	0.060819	0.15993	0.16231	0.13473	0.15287	0.11839	0.15085	0.20866	0.25474	0.11725	0.22653	-4.7562	-4.1438	-4.1562	-4.9604	-3.8917	-4.5792	-4.7063	-4.1229	-4.8417	-4.4417	-4.3167	-5.1	-4.0646	-4.525	-4.7	-4.0792	197.733	188.361	346.919	478.085	344.530	394.698	253.445	145.275	298.119	304.189	164.852	418.293	455.162	140.073	402.615	337.433	0.0011469	0.00095359	0.00028937	869.71	2.7157e-06	1.3053e-05	891.36	332.53	6.453e-06	3.1677e-06	406.52	172.59	139.46	70.174	8.3696e-06	90.736	0.00088694	0.00085424	0.00024415	880.23	9.4976e-06	9.5094e-06	899.21	337.29	9.5708e-06	9.5489e-06	412.46	174.82	141.77	71.361	9.6646e-06	92.044	159.280	179.666	199.459	133.035	238.422	235.960	131.956	138.275	284.892	311.289	136.196	140.769	142.534	148.337	286.549	145.004	-8191	255	
1364.031	1	1	0	0	0.12832	0.026406	0.21229	0.12283	0.17903	0.11138	0.10614	0.25101	0.17961	0.11488	0.25892	0.31747	0.14092	0.19496	0.20856	0.1466	-4.5604	-4.3667	-4.1229	-5.0188	-3.9458	-4.3042	-4.7312	-4	-4.6521	-4.1792	-4.1583	-5.0521	-4.2979	-4.6083	-4.7958	-4.1833	143.751	385.068	331.405	477.760	311.243	291.072	460.894	382.188	346.942	269.347	477.498	476.830	267.897	461.166	396.792	430.423	0.0012084	0.00060429	0.00017636	866.57	8.0698e-06	6.8974e-06	890.03	332.94	9.2107e-06	1.7793e-06	405.46	172.48	139.75	69.847	8.536e-06	90.208	0.00090039	0.00087611	0.00024745	880.06	9.6776e-06	9.9398e-06	898.04	337.92	9.7896e-06	9.8718e-06	412.45	174.81	142.1	71.394	9.9087e-06	91.895	159.989	243.284	213.251	133.122	242.617	261.280	131.903	138.423	209.108	194.795	136.399	140.652	142.567	148.281	280.443	144.848	-8191	255	
1364.127	1	1	0	0	0.168	0.087648	0.069535	0.15584	0.16352	0.055623	0.42028	0.16694	0.14744	0.18489	0.035046	0.15928	0.34928	0.17208	0.26638	0.063505	-4.4688	-4.3625	-3.9688	-4.9208	-4.3167	-4.2333	-4.9062	-4.0396	-4.6125	-4.8604	-4.1146	-5.0583	-4.25	-4.4771	-4.7063	-4.1396	443.298	418.573	159.579	479.061	475.705	272.510	408.840	450.407	282.932	236.503	121.933	139.342	453.827	418.122	262.491	421.868	0.0011835	0.0011315	0.00023169	861.33	2.5134e-06	4.7579e-06	893.76	332.78	7.0925e-06	3.8741e-06	406.45	173.71	139.91	70.378	4.6247e-06	91.138	0.00091109	0.00087895	0.00024924	878.83	9.645e-06	9.697e-06	898.28	337.88	9.5591e-06	9.5856e-06	412.17	175.12	142.3	71.568	9.6665e-06	92.41	159.611	197.371	220.814	133.278	385.398	211.035	131.642	138.305	263.573	279.555	136.049	140.726	142.778	148.357	313.645	144.769	-8191	255	
1364.225	1	1	0	0	0.10603	0.18188	0.42099	0.28189	0.31814	0.032088	0.14631	0.043435	0.11896	0.05508	0.15555	0.27271	0.23838	0.16774	0.13326	0.20714	-4.4292	-4.6229	-3.9229	-4.9146	-4.4896	-4.2646	-5.0437	-3.9437	-4.4146	-4.6104	-4.1604	-4.9125	-4.6771	-4.1854	-4.7521	-4.3083	434.318	133.531	155.410	423.374	412.364	244.638	378.905	476.772	435.720	124.570	460.574	132.705	462.012	473.386	330.612	448.184	0.0011212	0.0014703	0.00013603	863.73	3.2368e-06	8.4115e-06	893.45	333.12	7.4678e-06	2.6961e-07	406.78	172.78	140.14	70.386	6.0659e-06	92.02	0.00089447	0.00085866	0.00024282	878.57	9.3654e-06	9.5199e-06	899.38	337.24	9.3721e-06	9.3171e-06	411.66	175.1	142.17	71.602	9.2431e-06	92.938	161.882	211.555	162.610	132.777	204.105	273.731	131.847	138.349	282.887	154.313	136.094	141.018	142.764	148.409	249.991	144.709	-8191	255	
1364.321	1	1	0	0	0.14138	0.024509	0.094334	0.33536	0.077334	0.16586	0.061927	0.17505	0.27509	0.21686	0.064731	0.14876	0.14804	0.022957	0.10144	0.22067	-4.2229	-5.0312	-3.7646	-4.7063	-4.3	-4.0563	-5.1479	-4.2229	-4.4354	-5.0563	-3.9792	-4.7083	-4.5271	-4.3	-4.9021	-4.3458	331.499	451.054	274.592	428.346	370.805	474.933	304.910	383.028	345.615	468.804	139.513	331.699	460.951	424.303	346.433	455.570	0.001208	0.00064902	0.00012071	863.41	5.7735e-06	8.4301e-06	888.81	333.11	7.2993e-06	7.0022e-06	405.04	172.26	139.79	70.278	7.2751e-06	91.078	0.0008807	0.00084495	0.00023705	877.76	9.2712e-06	9.5803e-06	899.15	337.39	9.4384e-06	9.4165e-06	412.02	174.42	141.85	71.452	9.255e-06	92.301	160.028	167.424	217.819	132.805	223.988	304.598	132.221	138.366	274.847	305.610	136.400	140.624	142.774	148.563	309.945	144.791	-8191	255	
1364.416	1	1	0	0	0.15953	0.02114	0.1553	0.039002	0.062511	0.18068	0.2564	0.18777	0.13979	0.075702	0.10312	0.13539	0.064205	0.34889	0.31089	0.43708	-3.8688	-4.8542	-3.9521	-4.7375	-4.4729	-3.9729	-5.1521	-4.4375	-4.0813	-4.8396	-3.9771	-4.7042	-4.8396	-4.1312	-4.9313	-4.4458	265.226	279.868	372.387	258.520	142.092	455.216	135.981	357.799	266.823	275.183	151.646	447.207	431.103	433.219	265.622	387.749	0.0012138	0.00071252	0.00010238	862.25	1.0974e-05	2.9208e-06	886.99	333.05	4.5017e-06	1.1082e-05	405.53	173.42	140.05	70.5	1.0691e-05	91.145	0.00087075	0.00082333	0.00023126	875.2	9.0033e-06	9.1629e-06	895.83	336.95	9.0326e-06	9.0683e-06	411.05	174.78	142.08	71.706	9.0669e-06	92.238	163.385	175.315	247.714	132.534	262.520	306.683	131.560	138.565	290.611	271.724	136.224	140.871	142.663	148.312	274.453	145.058	-8191	255	
1364.512	1	1	0	0	0.13628	0.069365	0.11542	0.091958	0.18309	0.086131	0.13141	0.238	0.13964	0.13161	0.06295	0.12169	0.04244	0.16748	0.10882	0.11066	-3.9542	-5.0208	-4.0458	-4.5188	-4.8167	-4.1125	-4.7979	-4.5083	-4.0437	-4.9146	-4.1813	-4.6062	-4.9125	-4.0271	-4.9583	-4.7208	275.878	199.548	181.969	296.195	294.567	196.206	321.408	125.261	364.519	227.910	291.503	441.549	429.878	470.826	329.920	425.930	0.0012631	0.0009962	0.00016927	863.96	6.5905e-06	4.6099e-06	890.17	333.57	7.6022e-06	1.3455e-06	404.8	173.28	140.6	70.107	7.9139e-06	91.863	0.00085114	0.00080996	0.0002285	877.96	8.9152e-06	9.0198e-06	897.55	337.81	9.0288e-06	8.9748e-06	411.32	174.77	142.2	71.675	8.9713e-06	92.905	160.289	206.508	230.697	132.992	227.199	316.869	131.804	138.273	280.816	336.443	136.568	140.878	142.929	148.824	275.304	144.901	-8191	255	
1364.632	1	1	0	0	0.23847	0.1385	0.11915	0.068828	0.12414	0.05642	0.16182	0.14876	0.031914	0.20288	0.10975	0.073007	0.1545	0.15264	0.12111	0.22113	-3.9	-4.9812	-4.0229	-4.5312	-4.8729	-3.9792	-4.7771	-4.7125	-4.1438	-4.9187	-4.2229	-4.4917	-4.9354	-4.0437	-4.5667	-4.7354	184.707	463.782	256.804	164.939	139.967	256.090	472.977	432.307	397.648	350.565	368.356	296.726	463.793	371.178	299.838	424.378	0.001231	0.0009288	0.00014661	863.96	5.6542e-06	1.0618e-05	886.52	332.24	4.93e-06	6.5647e-07	408.28	174.1	140.32	70.922	4.576e-06	92.285	0.00086027	0.00080728	0.00022491	875.65	8.8085e-06	8.8826e-06	896.26	337.17	8.7613e-06	8.743e-06	412.12	175.4	142.14	72.02	8.9086e-06	93.486	159.604	216.599	263.767	132.990	250.048	253.066	131.877	138.523	232.151	381.321	136.068	140.862	142.677	148.367	285.168	144.719	-8191	255	
1364.728	1	1	0	0	0.12462	0.0085268	0.2652	0.13112	0.072811	0.088728	0.29359	0.23687	0.087223	0.22348	0.17433	0.10861	0.058597	0.14131	0.028515	0.075051	-3.9771	-4.8521	-4.4083	-4.3729	-5.0042	-3.7896	-4.6479	-4.8438	-3.9833	-4.8729	-4.3854	-4.4271	-5.1125	-4.0875	-4.3854	-5.125	185.084	336.593	250.958	391.370	390.459	171.811	418.069	436.028	346.009	428.292	365.933	375.343	290.797	156.647	243.967	445.648	0.0011406	0.00012736	0.00015112	862.08	4.678e-06	6.2432e-06	893.37	335.84	5.2248e-06	8.3821e-06	408.39	173.35	141.11	70.935	9.341e-06	92.169	0.00083657	0.00079595	0.00022158	874.43	8.6813e-06	8.8245e-06	899.44	339.41	8.8155e-06	8.6793e-06	413.6	175.34	142.44	72.122	8.7646e-06	93.143	158.047	202.944	224.537	132.627	289.034	274.194	131.600	138.349	224.605	293.310	136.274	140.709	142.596	148.301	269.556	144.921	-8191	255	
1364.825	1	1	0	0	0.16025	0.072765	0.04934	0.30166	0.03848	0.1373	0.065966	0.068266	0.066786	0.041471	0.18488	0.22647	0.31914	0.45716	0.33364	0.12344	-3.5458	-4.8063	-4.5312	-4.2583	-4.9208	-4.0896	-4.6458	-4.8	-3.8771	-4.5479	-4.5333	-4.1375	-5.1188	-4.4	-4.1604	-5.0771	450.810	274.963	267.878	121.185	181.375	386.449	349.288	156.066	172.090	282.569	412.903	199.005	440.274	478.146	145.118	414.246	0.0010678	0.00095058	0.00011623	862.54	1.0212e-05	9.966e-06	895.17	335.71	5.877e-06	8.8779e-06	411.24	174.07	141.18	71.33	1.0665e-05	91.712	0.00081824	0.00078149	0.00021644	875.64	8.4272e-06	8.5347e-06	898.72	339.23	8.5616e-06	8.595e-06	413.82	175.77	142.82	72.33	8.6965e-06	93.173	162.111	244.798	236.549	132.558	297.743	229.028	131.624	138.428	276.933	245.245	136.135	140.558	142.808	148.390	269.490	144.902	-8191	255	
1364.921	1	1	0	0	0.019685	0.20937	0.1142	0.11106	0.18876	0.09472	0.039549	0.15241	0.12254	0.088389	0.031756	0.14801	0.14673	0.26495	0.14382	0.25471	-3.5042	-4.4771	-4.4021	-4.0104	-4.7562	-4.3375	-4.3708	-4.8021	-3.9562	-4.6479	-4.8208	-3.8958	-4.9	-4.5208	-3.8542	-5.0646	402.721	200.743	148.285	430.537	132.210	391.074	376.426	425.595	265.139	248.592	439.722	179.247	246.133	141.334	217.810	414.398	0.0012185	0.00042459	0.00011955	864.07	5.5142e-06	6.97e-06	892.86	336.89	4.5101e-06	5.7189e-06	412.46	174.45	141.6	71.303	2.8365e-06	92.838	0.00081308	0.00077264	0.00021648	874.49	8.5804e-06	8.4131e-06	900.6	340.06	8.528e-06	8.5196e-06	415.89	176.15	143.31	72.499	8.5514e-06	93.871	158.009	207.727	191.743	132.852	274.077	323.591	131.707	138.208	234.047	210.635	136.194	140.521	142.814	148.448	253.285	144.976	-8191	255	
1365.017	1	1	0	0	0.084919	0.18464	0.29678	0.33375	0.15518	0.043804	0.32829	0.1567	0.25059	0.13318	0.064376	0.24964	0.33137	0.14411	0.081015	0.26324	-3.6896	-4.5062	-4.6958	-3.9313	-4.5729	-4.3979	-4.2396	-4.9208	-4.2229	-4.5833	-4.7937	-4.1479	-4.8896	-4.5667	-4.1958	-4.8458	184.009	254.756	235.968	396.348	379.243	459.594	407.513	475.420	299.340	350.870	229.681	471.429	462.524	454.347	411.791	447.926	0.0012544	0.0010568	8.9925e-05	861.91	3.6466e-06	5.3143e-06	896.21	335.51	8.6601e-06	9.0796e-06	412.76	176.57	141.73	71.528	6.5231e-06	93.329	0.00079468	0.00074773	0.00020574	873.5	7.8678e-06	7.8754e-06	900.12	339.61	7.8559e-06	7.9656e-06	415.25	177.04	143.17	72.545	7.913e-06	94.298	157.337	191.068	225.658	133.153	302.312	284.738	131.827	138.202	250.520	323.126	136.217	140.737	142.775	148.437	251.017	144.954	-8191	255	
1365.113	1	1	0	0	0.11447	0.1393	0.10155	0.14663	0.19177	0.13381	0.10461	0.15118	0.11383	0.35022	0.074921	0.038547	0.36434	0.28188	0.12208	0.09016	-3.6042	-4.3313	-4.8021	-4.0021	-4.6104	-4.4542	-4.0875	-4.9625	-4.2792	-4.4688	-4.9625	-4.0125	-4.7042	-4.7583	-3.9	-4.8896	435.801	390.053	122.570	198.130	283.840	390.322	430.040	461.655	399.573	321.815	449.638	192.017	390.980	433.833	348.665	391.098	0.0012032	0.0010199	0.00013745	868.09	8.4338e-06	5.9162e-06	897.27	338.55	8.528e-06	4.9857e-06	415.26	175.84	142.27	71.821	1.0637e-05	93.137	0.00076041	0.00072739	0.00019929	876.65	7.8929e-06	8.0986e-06	901.8	341.48	8.2608e-06	8.4349e-06	417.46	177.13	143.9	72.998	8.4897e-06	94.207	158.128	202.336	214.860	132.794	276.212	278.924	131.548	138.243	284.078	247.835	136.298	140.694	142.635	148.641	240.771	144.987	-8191	255	
1365.209	1	1	0	0	0.027335	0.10426	0.11267	0.096897	0.063103	0.13898	0.23122	0.20236	0.29829	0.071618	0.09174	0.14757	0.19856	0.12956	0.15269	0.24419	-4.0167	-4.2792	-4.9375	-4.2188	-4.7083	-4.75	-4.0875	-4.9313	-4.3125	-4.2583	-5.0062	-3.9667	-4.5958	-4.6375	-3.875	-4.9729	411.036	146.302	446.368	166.450	276.909	466.870	133.183	138.247	422.942	211.213	431.870	447.022	142.267	259.768	396.925	139.010	0.0011908	0.00069973	0.00016261	864.32	8.5362e-06	3.9028e-06	892.58	339.08	3.8284e-06	6.017e-06	413.59	176.15	142.64	71.524	3.5382e-06	92.843	0.00078605	0.00075713	0.00020826	875.67	8.2312e-06	8.1394e-06	899.34	341.59	8.0804e-06	8.2765e-06	416.76	177.05	143.97	72.713	8.577e-06	93.813	157.125	216.627	209.232	132.726	320.058	268.761	131.850	138.641	266.539	247.327	136.199	140.650	142.496	148.413	287.678	144.689	-8191	255	
1365.328	1	1	0	0	0.21974	0.16956	0.032585	0.16436	0.039523	0.11197	0.21321	0.10303	0.083258	0.26857	0.13231	0.15782	0.21746	0.1896	0.31007	0.18381	-4.1458	-4.1729	-4.975	-4.2271	-4.2438	-4.7438	-3.9875	-4.8063	-4.3125	-4.1292	-5.1771	-4.1979	-4.3667	-4.85	-3.9979	-4.8583	125.640	184.059	192.311	275.268	280.572	353.630	423.139	446.265	354.709	382.438	154.600	469.100	458.209	434.457	435.450	348.345	0.0011858	0.00086464	0.00014569	868.04	6.5236e-06	1.2202e-05	894.12	335.93	4.9009e-06	6.3437e-06	412.17	175.41	142.43	71.746	6.6711e-06	93.448	0.00079595	0.00076493	0.00021131	876.22	8.1823e-06	8.1287e-06	900.23	339.98	7.9805e-06	8.0516e-06	416.01	176.96	143.79	72.722	7.8997e-06	94.089	160.002	205.830	221.428	132.872	236.412	256.610	131.795	138.256	289.836	294.110	136.196	140.736	142.609	148.534	273.195	145.033	-8191	255	
1365.424	1	1	0	0	0.24429	0.32538	0.0048688	0.24257	0.21478	0.10976	0.29254	0.12207	0.055903	0.087814	0.044137	0.2355	0.079164	0.27728	0.065319	0.15976	-4.2604	-4.2271	-4.7708	-4.2021	-4.2271	-4.9042	-4.2375	-4.7083	-4.4604	-4.1438	-5.1125	-4.4979	-4.3271	-5.0396	-3.975	-4.6604	416.708	201.329	340.176	131.684	286.155	275.859	416.410	453.021	134.269	164.286	396.503	459.459	349.838	478.953	230.496	414.176	0.0011483	0.0008488	0.00013561	863.64	4.6437e-06	7.3301e-06	901.11	338.29	3.8302e-06	4.4435e-06	417.44	177.77	142.56	72.027	9.9937e-06	94.306	0.00074854	0.00071156	0.00019541	872.09	7.7742e-06	7.7315e-06	902.67	341.34	7.7829e-06	8.0027e-06	419.08	178.41	144.38	73.177	8.0378e-06	95.086	163.273	199.343	252.794	132.856	259.181	356.019	131.897	138.431	229.576	304.019	136.233	140.799	142.649	148.438	258.388	144.987	-8191	255	
1365.496	1	1	0	0	0.12521	0.17559	0.049108	0.18317	0.18564	0.087596	0.31362	0.22203	0.082709	0.037244	0.0041169	0.11416	0.14957	0.13059	0.25916	0.17679	-4.3583	-3.8667	-4.8729	-4.5333	-4.2771	-4.9292	-4.1667	-4.5437	-4.7521	-3.9604	-5.0021	-4.4854	-4.2042	-5.1188	-4.1104	-4.4292	359.618	294.020	332.773	469.684	443.231	438.952	478.332	476.637	184.680	474.850	289.943	381.068	425.198	429.351	449.372	131.715	0.0012308	0.00061327	8.7127e-05	861.9	6.6899e-06	5.1537e-06	898.55	338.15	4.9015e-06	6.7472e-06	414.39	175.94	142.85	72.095	4.835e-06	93.509	0.00076602	0.00073324	0.00020174	873.42	7.9113e-06	7.959e-06	900.86	341.09	7.8864e-06	8.1074e-06	417.77	177.63	144.29	73.013	7.9705e-06	94.321	160.831	207.624	195.218	133.081	323.047	259.216	131.956	138.205	279.588	247.691	136.051	140.632	142.727	148.708	340.875	144.895	-8191	255	
1365.592	1	1	0	0	0.27791	0.11791	0.14446	0.089195	0.084389	0.034813	0.21623	0.32925	0.034497	0.27344	0.1027	0.072782	0.066414	0.30209	0.20231	0.094458	-4.2125	-3.9417	-4.625	-4.4354	-4.0375	-5.0271	-4.3021	-4.3729	-4.7	-3.9208	-5.0146	-4.7875	-4.1979	-4.8833	-4.2833	-4.3896	214.623	333.635	389.315	353.876	479.679	384.418	441.401	448.395	317.893	351.121	454.265	426.278	246.699	476.859	125.796	251.005	0.0012583	0.00030917	0.00015002	861.36	9.4614e-06	6.6505e-06	895.29	337.92	7.3294e-06	5.692e-06	414.06	175.68	141.99	71.551	7.9963e-06	92.837	0.00077616	0.00072514	0.00020054	873.94	8.069e-06	7.8948e-06	898.29	341.07	7.8879e-06	7.9747e-06	415.78	176.89	143.41	72.635	8.0426e-06	93.617	156.628	137.643	219.827	132.944	277.001	285.699	131.928	138.480	268.580	291.135	136.291	140.611	142.687	148.373	254.228	144.932	-8191	255	
1365.713	1	1	0	0	0.096766	0.064988	0.049879	0.23415	0.3016	0.070406	0.19647	0.14431	0.14609	0.092978	0.24198	0.092908	0.13086	0.30223	0.16607	0.25622	-4.5125	-3.8146	-4.4417	-4.8083	-3.9188	-4.7229	-4.4958	-4.1792	-4.75	-3.8854	-4.625	-4.6583	-4.2375	-5.0188	-4.4187	-4.3313	479.135	299.282	434.517	436.327	242.228	154.473	143.124	359.585	345.589	333.032	127.754	403.966	395.206	122.962	253.593	426.661	0.0011679	0.0014144	0.00015426	861.93	9.8715e-06	7.5003e-06	893.52	335.72	5.2372e-06	6.9479e-06	412.63	174.94	141.63	71.627	4.6967e-06	92.833	0.00077048	0.00073065	0.00020518	871.48	8.05e-06	7.9797e-06	898.05	339.36	7.7008e-06	7.6968e-06	415.15	176.44	142.97	72.519	7.474e-06	93.823	160.896	234.935	209.779	132.947	270.730	304.133	131.941	138.628	242.508	261.277	136.474	141.045	142.740	148.617	266.426	145.123	-8191	255	
1365.809	1	1	0	0	0.046905	0.12412	0.11066	0.044757	0.11092	0.18669	0.24731	0.10416	0.1321	0.11062	0.2365	0.22026	0.18115	0.16353	0.15428	0.34033	-4.7271	-3.9604	-4.4021	-4.7458	-4.1104	-4.8896	-4.5792	-4.3208	-4.9	-4.0458	-4.4125	-4.6708	-3.9771	-4.9667	-4.3875	-4.2479	274.814	325.583	307.712	219.598	425.653	425.768	412.462	272.576	469.773	283.002	453.280	405.487	422.682	469.095	387.406	472.465	0.0011442	0.0010017	0.00014185	862.6	1.0838e-05	4.6014e-06	896.22	336.7	4.7915e-06	6.3947e-06	410.28	176.27	142.15	71.863	5.1142e-06	93.863	0.0007273	0.00067372	0.00018772	870.78	7.4065e-06	7.4011e-06	899.46	339.06	7.2793e-06	7.3061e-06	415.76	177.35	143.54	72.947	7.6274e-06	94.757	161.989	194.778	232.308	132.957	248.302	234.485	132.027	138.573	293.221	238.676	136.370	140.890	142.871	148.388	268.649	144.826	-8191	255	
1365.905	1	1	0	0	0.13497	0.23996	0.1315	0.17817	0.13835	0.063457	0.18119	0.067675	0.21993	0.13445	0.3615	0.37352	0.17819	0.17051	0.09662	0.26219	-4.7854	-4.2125	-4.2604	-4.7937	-3.9833	-4.5646	-4.6625	-4.3833	-4.9229	-4.1667	-4.4125	-4.9375	-4.0188	-4.6854	-4.6271	-4.1271	209.944	397.253	209.913	439.904	179.350	208.522	429.174	194.635	376.856	418.077	344.655	425.145	474.663	356.811	451.682	402.690	0.0012618	0.0010507	0.00031609	866.76	5.5232e-06	7.202e-06	897.55	337.2	6.5904e-06	6.4633e-06	412.6	176.5	142.25	72.027	1.0385e-05	93.705	0.00074463	0.00068485	0.00019395	871.47	7.5591e-06	7.6029e-06	899.69	340.3	7.4759e-06	7.5655e-06	416.65	177.63	143.84	73.004	7.4373e-06	94.288	160.841	188.087	234.101	132.975	270.830	283.335	131.933	138.532	260.852	323.833	136.186	140.880	142.789	148.512	267.669	144.752	-8191	255	
1366.026	1	1	0	0	0.089547	0.024635	0.2178	0.15835	0.21499	0.2386	0.11481	0.11606	0.17633	0.162	0.2923	0.13898	0.10388	0.17307	0.14004	0.037311	-4.5354	-4.1021	-3.9354	-4.9646	-3.9208	-4.4333	-4.9812	-4.2063	-4.875	-4.4583	-4.3458	-5.025	-4.1021	-4.5417	-4.7521	-3.9813	370.260	134.373	470.576	443.778	280.553	214.024	413.905	306.972	248.195	321.683	440.006	346.074	153.700	256.087	367.048	135.154	0.0011954	0.000869	0.00014165	861	6.7703e-06	1.0695e-05	893.03	338.25	8.5143e-06	6.2028e-06	413.85	176.98	142.77	72.302	1.0609e-05	93.094	0.00071523	0.00066484	0.00018905	870.35	7.2768e-06	7.2756e-06	899.39	341.05	7.1886e-06	7.2311e-06	416.85	177.15	143.77	73.018	7.2011e-06	94.009	161.421	250.641	217.547	133.132	258.608	272.998	131.792	138.313	261.723	213.034	136.138	140.845	142.608	148.496	252.414	144.924	-8191	255	
1366.097	1	1	0	0	0.18198	0.16396	0.21879	0.23057	0.23322	0.28434	0.3337	0.24502	0.17997	0.057821	0.1622	0.27314	0.056992	0.24848	0.052225	0.03064	-4.3938	-4.4938	-4.0104	-4.8729	-4.0229	-4.4042	-4.8375	-4.0208	-4.8562	-4.4375	-3.975	-5.0417	-4.275	-4.1896	-4.9917	-4.1542	410.021	423.534	335.262	357.813	152.382	262.232	393.622	324.724	238.124	358.374	306.845	194.953	401.776	380.128	362.451	363.477	0.0011582	0.001009	0.00016419	869.7	2.1251e-06	9.2434e-06	896.11	338.17	6.9386e-06	1.1028e-05	414.76	176.92	143.48	72.08	8.0225e-06	93.869	0.00068738	0.00062965	0.00017781	872.07	6.902e-06	6.9336e-06	898.57	341.02	6.8994e-06	6.8481e-06	418.04	177.8	144.4	73.181	7.0568e-06	94.619	159.315	238.787	197.509	133.032	283.193	244.948	131.909	138.509	255.766	255.551	136.357	140.789	142.592	148.423	285.317	144.880	-8191	255	
1366.193	1	1	0	0	0.093767	0.039324	0.061422	0.19748	0.12305	0.17949	0.098179	0.26584	0.17856	0.083426	0.13879	0.094859	0.21448	0.31004	0.1657	0.18797	-4.375	-4.3979	-3.9979	-5.0354	-4.2271	-4.2167	-4.9708	-4.0875	-4.5979	-4.5146	-4.0625	-5.0625	-4.4104	-4.4583	-5.0271	-4.3729	326.506	372.611	371.252	175.177	186.303	237.309	425.515	445.216	314.045	457.714	382.353	346.292	149.427	137.219	140.020	137.690	0.0012202	0.0010202	0.0002067	868.04	7.3486e-06	3.0569e-06	898.75	339.07	6.4123e-06	5.5832e-06	417.25	177.69	142.76	72.512	1.0942e-05	94.883	0.00068974	0.00063551	0.00017923	873.58	6.9691e-06	7.0959e-06	901.17	342.09	7.2113e-06	7.0988e-06	418.89	178.71	144.33	73.408	7.1341e-06	95.376	159.892	227.411	218.119	132.798	258.413	197.341	131.877	138.438	242.119	280.287	136.116	140.684	142.716	148.464	255.409	144.839	-8191	255	
1366.312	1	1	0	0	0.14641	0.14637	0.15035	0.15453	0.18614	0.084869	0.24123	0.17151	0.21828	0.11857	0.32694	0.16266	0.075579	0.045543	0.05705	0.066887	-4.2354	-4.6479	-3.9229	-4.7896	-4.2521	-4.0854	-5.0813	-4.2708	-4.1854	-4.8354	-4.2917	-4.975	-4.5021	-4.0854	-4.8167	-4.3229	148.434	458.873	243.624	247.888	197.197	291.815	336.103	141.439	285.352	297.750	393.407	146.156	145.445	297.173	236.008	179.286	0.001223	0.00085879	0.00014376	869.76	3.5846e-06	6.3546e-06	902.34	340.44	5.2904e-06	9.8482e-06	416.99	177.47	143.19	72.485	8.0278e-06	93.932	0.00071051	0.00064751	0.0001815	874.34	7.1229e-06	7.1321e-06	903.86	341.8	7.1402e-06	7.0381e-06	419.1	178.1	144.18	73.343	7.2195e-06	94.462	157.863	209.219	232.482	133.080	234.703	295.284	131.954	138.350	247.438	265.160	136.338	140.637	142.932	148.434	295.733	144.878	-8191	255	
1366.408	1	1	0	0	0.16017	0.13227	0.12874	0.24186	0.1367	0.048253	0.15444	0.04473	0.23863	0.074896	0.11469	0.080149	0.29184	0.13785	0.062754	0.11617	-4.0208	-4.9229	-3.9313	-4.7375	-4.4125	-3.9646	-4.9354	-4.2083	-4.4375	-4.8083	-3.9688	-4.6729	-4.7625	-4.0521	-4.6917	-4.4437	201.587	206.659	435.650	264.966	348.345	273.746	372.145	128.297	191.593	458.384	160.606	400.606	450.281	123.563	193.163	380.524	0.0011731	0.00029604	0.00020749	867.75	6.4195e-06	7.2397e-06	899.71	338.91	5.7031e-06	1.3469e-05	415.74	177.02	143.31	72.094	5.1015e-06	93.635	0.00071029	0.00065001	0.00018191	874	7.1303e-06	7.2991e-06	902	341.58	7.2547e-06	7.1132e-06	417.74	177.95	144.44	73.07	7.08e-06	94.452	158.240	258.667	221.232	133.031	217.886	245.731	131.944	138.477	245.719	280.330	135.953	140.784	142.514	148.297	314.275	145.042	-8191	255	
1366.505	1	1	0	0	0.051648	0.064733	0.11385	0.189	0.026488	0.11135	0.10022	0.14073	0.08253	0.157	0.15762	0.14432	0.26422	0.22493	0.060342	0.28966	-3.9875	-4.7729	-3.975	-4.5167	-4.5521	-4.0292	-4.9437	-4.4563	-4.0104	-4.7625	-4.0938	-4.625	-4.8979	-4.2917	-4.6104	-4.5458	250.166	480.406	179.400	469.486	284.467	184.737	149.750	423.253	226.043	134.108	442.360	409.439	155.898	134.786	386.886	396.234	0.0012791	0.00080785	0.00013371	864.75	7.3487e-06	5.487e-06	900.46	337.81	8.46e-06	6.6463e-06	415.36	176.87	143.16	71.916	6.9023e-06	93.692	0.00070432	0.00064632	0.00017944	872.31	7.1455e-06	7.2148e-06	902.53	340.78	7.1839e-06	7.0946e-06	417.67	178.22	144.17	72.77	7.3312e-06	94.505	155.717	230.408	246.916	132.762	261.141	243.480	131.882	138.732	239.079	266.098	136.376	140.552	142.837	148.387	256.189	144.918	-8191	255	
1366.625	1	1	0	0	0.29672	0.158	0.20133	0.26595	0.17507	0.074835	0.078319	0.044768	0.1462	0.068733	0.063535	0.37485	0.10656	0.24714	0.16199	0.24959	-3.8958	-4.9146	-4.1021	-4.5125	-4.8854	-3.7687	-4.925	-4.6125	-4.0062	-4.9625	-4.2917	-4.4146	-5.0229	-4.2208	-4.6667	-4.7729	271.581	398.617	177.093	444.877	385.458	292.719	449.369	435.639	308.940	459.675	393.951	434.053	410.645	423.483	348.169	409.621	0.0012274	0.00080028	0.00026913	865.36	7.5916e-06	8.3196e-06	900.68	338.27	6.3848e-06	4.8673e-06	416.73	177.75	142.97	71.965	4.7644e-06	94.205	0.00071762	0.0006582	0.00018309	874.26	7.172e-06	7.24e-06	903.21	340.3	7.4088e-06	7.3168e-06	418.1	178.45	144.17	72.957	7.6526e-06	95.005	156.706	190.020	210.359	132.795	274.165	275.410	131.969	138.606	254.999	260.480	136.224	140.877	142.771	148.477	236.272	145.170	-8191	255	
1366.721	1	1	0	0	0.12078	0.066478	0.31488	0.13798	0.27375	0.1633	0.064712	0.27518	0.085576	0.22786	0.30061	0.16917	0.094844	0.25937	0.21041	0.27051	-3.8312	-5.0042	-4.2	-4.3562	-5.0229	-4.0312	-4.8292	-4.6417	-4.1396	-4.9354	-4.4313	-4.2604	-5.0042	-4	-4.3958	-4.6771	444.141	143.396	474.761	275.517	416.702	337.969	279.598	174.908	376.481	417.150	388.288	453.803	123.202	458.489	426.875	440.289	0.0012299	0.00085999	0.00018658	860.87	2.4173e-06	7.8406e-06	894.17	336.53	8.113e-06	7.4334e-06	413.02	176.18	142.21	71.508	9.9639e-06	92.869	0.00075313	0.00070601	0.00019756	873.06	7.9592e-06	7.9582e-06	901.76	341.14	8.1134e-06	8.1144e-06	417.23	177.37	143.63	72.69	8.0864e-06	94.053	160.860	212.296	231.127	132.744	293.706	240.052	131.839	138.609	253.662	254.529	136.290	140.682	142.593	148.571	285.588	144.793	-8191	255	
1366.793	1	1	0	0	0.12525	0.19412	0.062758	0.33588	0.063885	0.24916	0.1858	0.29197	0.10475	0.076924	0.058302	0.16749	0.086968	0.33663	0.25702	0.13528	-3.5354	-4.9208	-4.3604	-4.1417	-4.9313	-4.3	-4.6125	-4.7958	-3.7771	-4.8042	-4.6771	-4.1979	-4.9958	-4.3625	-4.3063	-5.0146	446.699	313.296	451.456	412.983	269.773	137.766	394.951	445.086	466.525	182.210	423.063	418.428	346.191	123.245	328.448	306.193	0.0011586	0.00045687	0.00026985	860.94	4.7026e-06	3.5804e-06	897.97	336.12	1.0305e-05	3.5084e-06	411.95	175.42	141.29	71.347	5.2675e-06	92.236	0.00077414	0.00072658	0.00019925	872.05	7.7399e-06	7.8131e-06	899.76	338.95	7.6888e-06	7.797e-06	415.21	176.28	142.91	72.18	7.9033e-06	93.418	159.211	207.575	219.848	132.728	233.714	302.528	131.843	138.673	247.739	241.444	136.328	140.454	143.105	148.367	307.505	145.071	-8191	255	
1366.889	1	1	0	0	0.17254	0.038703	0.37478	0.34685	0.1002	0.27174	0.13065	0.25549	0.11805	0.15217	0.03182	0.21414	0.14792	0.15762	0.076683	0.26135	-3.5896	-4.7271	-4.4167	-4.0708	-4.9917	-4.1104	-4.4167	-4.9875	-3.9833	-4.7708	-4.7896	-3.8229	-5.0542	-4.4125	-4.2208	-4.8708	471.442	344.590	433.390	419.424	430.940	205.278	277.965	449.841	390.536	397.580	395.009	365.138	465.831	461.526	337.971	384.004	0.0011867	0.00082444	0.00023387	856.12	5.4947e-06	3.6794e-06	890.76	334.76	6.2301e-06	7.5582e-06	412.04	175.29	141.1	71.184	3.8456e-06	92.883	0.00075843	0.0007196	0.00019958	870.19	7.9519e-06	7.9547e-06	898.24	337.98	7.922e-06	7.9923e-06	415.38	176.45	142.69	72.356	8.018e-06	93.852	155.580	208.920	233.565	132.879	270.415	217.958	132.014	138.678	229.112	278.971	136.371	140.723	143.191	148.490	300.822	145.073	-8191	255	
1367.010	1	1	0	0	0.077132	0.305	0.24098	0.12777	0.03244	0.1561	0.25787	0.37378	0.14174	0.2634	0.11722	0.086184	0.29499	0.18601	0.31806	0.17506	-3.8083	-4.7271	-4.5062	-4.0521	-4.7625	-4.4375	-4.3917	-4.8917	-3.9771	-4.6542	-4.6667	-3.9708	-4.8958	-4.4354	-4.025	-5.1354	477.508	406.893	290.545	397.486	412.455	200.391	347.332	461.586	135.229	129.820	422.293	125.131	458.923	444.675	254.634	417.316	0.0011592	0.0010412	8.8651e-05	860.07	9.9279e-06	9.6962e-06	897.17	335.18	9.1151e-06	5.3748e-06	410.9	176.48	141.67	71.499	7.9777e-06	93.432	0.00076552	0.00072057	0.00020087	870.31	7.8222e-06	7.9163e-06	901.42	338.88	7.8193e-06	7.9384e-06	415.35	177.08	142.98	72.421	7.939e-06	94.355	159.377	236.438	270.210	132.819	280.496	289.467	131.679	138.652	230.396	273.476	136.348	140.737	142.777	148.378	283.295	144.891	-8191	255	
1367.104	1	1	0	0	0.1233	0.17907	0.075309	0.18932	0.12133	0.09576	0.14588	0.23658	0.13595	0.1576	0.11589	0.084856	0.16131	0.4105	0.19382	0.20066	-3.7833	-4.2688	-4.6208	-4.0896	-4.6458	-4.4146	-4.1396	-5.1875	-3.8583	-4.3854	-5.0667	-4.25	-4.9667	-4.7375	-3.95	-5.0917	280.885	331.133	121.566	478.747	185.450	360.636	449.632	417.658	129.923	274.953	406.800	436.712	120.989	445.467	171.821	397.111	0.0011523	0.00064834	4.7521e-05	861.72	6.2479e-06	7.6752e-06	894.71	334.5	9.1023e-06	4.6679e-06	411.96	175.35	141.06	71.237	7.4485e-06	92.806	0.00075418	0.00071679	0.00019628	869.74	7.6722e-06	7.7909e-06	900.38	338.14	7.8129e-06	8.0535e-06	415.6	176.15	142.52	72.185	8.0305e-06	93.729	156.557	181.075	256.700	132.847	267.650	252.470	131.835	138.489	279.958	230.149	136.613	140.842	142.677	148.546	261.891	145.080	-8191	255	
1367.200	1	1	0	0	0.18904	0.098816	0.18463	0.019756	0.041167	0.21696	0.085496	0.092289	0.11565	0.080101	0.11696	0.20122	0.15409	0.4954	0.13086	0.24627	-3.7917	-4.1333	-4.9333	-3.9062	-4.5708	-4.6021	-4.2792	-4.8187	-4.2854	-4.2771	-5.0271	-3.9417	-4.4917	-4.8146	-3.9417	-5.0146	221.477	335.848	466.839	261.458	143.736	426.162	127.107	339.857	144.728	254.573	420.320	411.628	409.538	445.073	304.729	360.381	0.0012433	5.7501e-05	0.00023667	857.52	4.9653e-06	4.9655e-06	894	334.63	7.9718e-06	7.0461e-06	412.28	174.13	140.52	70.905	3.9713e-06	92.341	0.00075752	0.0007175	0.00020064	868.69	7.6912e-06	7.8437e-06	896.82	337.62	7.6727e-06	7.916e-06	414.32	175.53	141.98	71.865	7.7803e-06	93.233	159.074	326.639	195.948	132.987	245.825	244.494	131.888	138.369	282.453	278.271	136.517	140.803	142.962	148.435	249.780	144.928	-8191	255	
1367.297	1	1	0	0	0.077587	0.19415	0.23429	0.15134	0.030793	0.17614	0.24971	0.26656	0.12556	0.013419	0.12278	0.14469	0.2186	0.24883	0.29486	0.059143	-4.0375	-4.1458	-4.8042	-4.0458	-4.4812	-4.7875	-4.0583	-4.8146	-4.4292	-4.1771	-4.9708	-4.1729	-4.5604	-5.0437	-3.5625	-5	194.271	137.207	142.799	460.985	256.839	140.756	368.993	411.476	203.416	359.183	120.974	127.422	472.500	125.173	409.531	417.785	0.0011252	0.00084551	0.00012092	856.95	5.5083e-06	8.4865e-06	892.81	334.56	7.773e-06	7.9703e-06	412.09	174.91	140.28	71.679	7.2168e-07	92.989	0.00074568	0.00070303	0.00019613	865.91	7.8507e-06	7.7948e-06	898.2	337.52	7.6616e-06	7.8323e-06	414.94	175.9	142.27	72.397	7.9618e-06	93.863	155.916	196.679	203.091	133.113	257.659	256.310	131.990	138.486	266.365	302.597	136.191	140.817	142.880	148.523	169.096	144.881	-8191	255	
1367.393	1	1	0	0	0.060675	0.17158	0.11059	0.036927	0.095356	0.11746	0.1318	0.20182	0.11244	0.14037	0.052591	0.28024	0.15087	0.13685	0.040578	0.1504	-4.2375	-3.8833	-5.0458	-4.2271	-4.25	-4.9229	-4.0687	-4.8792	-4.4521	-3.9875	-5.0771	-4.2833	-4.2542	-5.1062	-3.8083	-4.6562	399.330	150.978	370.032	123.326	375.759	290.382	400.897	396.757	287.799	339.599	431.092	152.376	187.064	142.072	219.199	395.187	0.0012785	0.0009604	0.00019671	860.02	4.8054e-06	7.0919e-06	889.37	336.08	6.0173e-06	5.0004e-06	411.71	175.82	140.94	71.139	5.5894e-06	93.355	0.00075041	0.00071447	0.00019729	868.35	7.6794e-06	7.711e-06	897.45	339.02	7.7666e-06	7.7423e-06	415.73	176.95	142.69	72.413	7.9427e-06	94.322	165.228	214.509	215.966	132.667	265.640	303.619	131.850	138.488	246.300	199.539	136.284	140.737	142.533	148.551	269.532	144.796	-8191	255	
1367.489	1	1	0	0	0.068376	0.22923	0.19268	0.11859	0.012704	0.17512	0.17736	0.058744	0.12751	0.16722	0.19316	0.039003	0.021037	0.25072	0.058581	0.1512	-4.225	-3.8667	-4.975	-4.2937	-4.0958	-4.7479	-4.1125	-4.7625	-4.775	-3.9042	-4.8875	-4.5208	-4.2771	-5.0771	-3.6937	-4.7208	254.459	424.598	308.783	413.254	429.394	129.988	387.735	333.137	298.359	282.430	164.302	468.959	148.790	437.375	461.580	315.600	0.0012814	0.00091951	0.00027428	858.37	3.7011e-06	3.9534e-06	893.22	333.97	4.9998e-06	7.0736e-06	412.95	174.8	140.79	71.311	6.0715e-06	92.805	0.00075657	0.00071694	0.00019679	868.27	7.8124e-06	7.7266e-06	898.18	337.35	7.7206e-06	7.7683e-06	415.41	175.78	142.31	72.211	7.9372e-06	93.741	159.179	223.923	243.876	132.958	238.187	312.051	132.191	138.472	243.320	315.267	136.174	140.900	142.566	148.619	296.415	144.789	-8191	255	
1367.585	1	1	0	0	0.10174	0.25838	0.16186	0.14312	0.022999	0.11171	0.15798	0.087648	0.12442	0.3124	0.22296	0.086119	0.13519	0.20664	0.13998	0.073997	-4.625	-4.0542	-4.6208	-4.3229	-3.9562	-4.9042	-4.2917	-4.4104	-4.7271	-3.8979	-4.8604	-4.7604	-3.9313	-4.9187	-4.2104	-4.5583	226.447	191.067	362.375	171.887	404.778	404.726	422.741	448.953	440.735	423.671	126.404	378.191	146.852	449.710	216.134	142.811	0.0012114	0.00085468	0.0001816	859	4.8013e-06	4.422e-06	889.63	335.1	8.2883e-06	6.3098e-06	411.04	175.27	141.59	71.693	4.3206e-06	92.692	0.00075229	0.00071098	0.00019659	867.89	7.8811e-06	7.7967e-06	897.87	338.64	7.7022e-06	7.866e-06	414.91	176.36	142.77	72.509	7.8531e-06	93.924	158.449	199.135	210.156	133.155	278.358	256.127	131.934	138.466	257.605	287.151	136.322	140.775	142.473	148.388	218.017	144.856	-8191	255	
1367.706	1	1	0	0	0.077459	0.27473	0.14568	0.13054	0.14011	0.27046	0.29837	0.13812	0.12875	0.040651	0.11278	0.23899	0.077534	0.27463	0.26501	0.22528	-4.4604	-4.0479	-4.6062	-4.7667	-4.1792	-4.9458	-4.2875	-4.4	-4.8063	-4.0813	-4.8042	-4.6104	-4.1646	-5.125	-4.475	-4.5875	227.504	158.633	212.320	334.958	324.369	385.786	473.766	452.883	411.966	258.607	461.939	451.752	145.582	449.724	201.280	383.773	0.001146	0.00067398	0.00012989	861.64	3.6111e-06	5.5276e-06	897.12	336.76	1.0047e-05	3.7867e-06	413.33	175.35	142	71.672	7.6761e-06	93.096	0.00075341	0.00071084	0.00019563	871.04	7.789e-06	7.5052e-06	899.12	338.99	7.5336e-06	7.6529e-06	416.59	176.59	143.13	72.634	7.5522e-06	94.337	160.084	214.025	226.262	133.028	228.071	259.579	132.152	138.467	272.918	275.664	136.277	140.804	142.475	148.585	284.773	144.861	-8191	255	
1367.802	1	1	0	0	0.1712	0.10901	0.058182	0.26801	0.24493	0.1477	0.1639	0.16208	0.093635	0.068101	0.17489	0.30955	0.15115	0.23589	0.13792	0.16619	-4.8604	-4.1312	-4.5292	-4.9792	-3.8917	-4.7292	-4.475	-4.2958	-4.9313	-4.0146	-4.4896	-4.6896	-3.9792	-4.7521	-4.5292	-4.2458	320.938	191.125	396.703	453.364	177.900	433.272	435.003	399.538	408.841	336.269	412.959	463.990	149.837	451.014	404.986	156.159	0.0011993	0.00092795	9.379e-05	861.54	5.2345e-06	4.2518e-06	896.81	336.64	6.3402e-06	7.4801e-06	413.64	176.37	141.11	71.853	7.3081e-06	93.746	0.00073275	0.00069165	0.00019333	868.84	7.6085e-06	7.5958e-06	901.05	339.63	7.5313e-06	7.5282e-06	417.63	177.3	142.74	72.792	7.5957e-06	94.923	160.638	214.637	221.624	132.894	253.081	270.347	131.879	138.339	248.706	283.139	136.189	140.771	142.582	148.498	244.044	144.920	-8191	255	
1367.898	1	1	0	0	0.15366	0.1805	0.10721	0.26211	0.3365	0.21842	0.11576	0.16027	0.19024	0.040622	0.03498	0.174	0.092509	0.10914	0.094548	0.18935	-4.6625	-4.0625	-4.3187	-4.8958	-3.95	-4.8604	-4.8021	-3.9625	-4.8208	-4.3438	-4.4208	-4.8146	-4	-4.7646	-4.5708	-4.2083	378.845	371.866	179.570	467.580	205.282	122.099	278.454	210.965	272.611	259.255	249.082	149.934	139.722	383.780	158.708	460.490	0.0012387	0.0016118	0.00018982	863.2	4.8675e-06	2.4971e-06	894.67	336.21	8.1197e-06	7.5036e-06	414.95	176.12	141.69	71.774	6.5454e-06	93.291	0.00072035	0.00067623	0.00018986	868.7	7.4439e-06	7.5361e-06	899.21	339.32	7.4635e-06	7.4975e-06	417.2	176.71	142.56	72.576	7.4782e-06	94.146	161.926	217.942	219.510	132.891	243.023	288.031	131.926	138.615	256.635	328.486	136.382	140.841	142.916	148.530	264.045	145.069	-8191	255	
1367.994	1	1	0	0	0.19242	0.095666	0.29762	0.15759	0.22843	0.054017	0.20204	0.11278	0.21214	0.12025	0.10157	0.13855	0.15174	0.18716	0.12196	0.17362	-4.6083	-4.3854	-4.1125	-5.0396	-3.9042	-4.5271	-4.9396	-3.9833	-4.9417	-4.4583	-4.2229	-4.8938	-3.9813	-4.8667	-4.6833	-4.1292	227.531	248.674	340.703	236.396	430.865	392.718	384.268	135.058	163.052	347.575	417.054	356.589	420.067	340.977	387.555	427.550	0.0011518	0.0006693	0.00024268	859.85	5.3406e-06	8.0726e-06	895.92	335.97	8.7089e-06	2.869e-06	415.77	175.16	141.78	71.834	5.8211e-06	93.658	0.00072045	0.00067059	0.00018796	867.36	7.3088e-06	7.3635e-06	897.86	339.1	7.3633e-06	7.359e-06	416.6	176.52	142.95	72.769	7.5529e-06	94.29	159.997	222.779	235.404	133.258	226.226	296.573	132.045	138.201	229.936	328.065	136.377	140.974	142.707	148.268	252.595	144.833	-8191	255	
1368.090	1	1	0	0	0.12587	0.068212	0.19245	0.16811	0.13054	0.18413	0.070432	0.095245	0.14221	0.37136	0.25743	0.15158	0.18143	0.26906	0.18067	0.030764	-4.6146	-4.4333	-3.9646	-5.1792	-4.0604	-4.2625	-4.9208	-4.0104	-4.6687	-4.5521	-4.2063	-4.8667	-4.3542	-4.35	-4.8583	-4.0958	376.774	156.635	238.652	415.358	209.078	195.027	453.298	385.288	435.070	368.380	330.351	449.793	193.307	456.176	370.703	409.072	0.0011823	0.00079531	0.00021525	860.54	4.4924e-06	6.98e-06	893.24	337.04	6.3449e-06	5.6471e-06	412.5	175.97	142.31	71.679	4.5398e-06	93.31	0.00072563	0.00068738	0.00019339	867.77	7.4619e-06	7.5081e-06	898.72	339.1	7.3777e-06	7.3853e-06	416.37	176.64	143.01	72.696	7.5442e-06	94.341	158.602	229.128	195.877	132.840	271.928	285.719	132.040	138.562	237.780	270.849	136.222	141.074	142.826	148.331	248.448	145.034	-8191	255	
1368.186	1	1	0	0	0.13851	0.11254	0.076233	0.035788	0.11794	0.20006	0.32582	0.17722	0.12483	0.069405	0.18382	0.088666	0.15584	0.056624	0.22091	0.21258	-4.4979	-4.4125	-4.0917	-4.9271	-4.2438	-4.2167	-4.9771	-4.0771	-4.5354	-4.7604	-4.1667	-5.0396	-4.3271	-4.2937	-4.9396	-4.2771	470.392	290.603	442.007	391.786	218.988	277.383	422.866	123.233	138.749	432.746	421.659	457.407	426.580	274.400	410.264	373.726	0.0012209	0.00093756	0.00022813	858.86	4.8596e-06	7.3039e-06	894.3	335.96	7.2563e-06	6.8589e-06	414.1	177.13	141.89	71.859	1.4173e-06	94.124	0.00071972	0.000674	0.00019134	866.65	7.3492e-06	7.4843e-06	899.34	337.93	7.3784e-06	7.3631e-06	417.28	177.49	142.92	72.819	7.395e-06	94.952	156.489	195.893	227.030	132.886	208.977	255.244	132.012	138.475	262.258	264.406	136.354	140.751	142.788	148.436	355.725	145.020	-8191	255	
1368.305	1	1	0	0	0.15593	0.15785	0.057573	0.36008	0.090495	0.059481	0.064386	0.031896	0.2223	0.082556	0.37852	0.055085	0.20082	0.13888	0.10566	0.073668	-4.3187	-4.5188	-4.0896	-5.0083	-4.1	-4.2688	-4.9896	-4.0979	-4.5	-4.6583	-4.0167	-5.0271	-4.6833	-4.1021	-4.9729	-4.3812	138.602	406.223	300.040	462.657	437.689	398.603	288.047	220.326	141.974	189.013	404.443	469.450	419.044	456.782	262.237	127.875	0.0012483	0.00094436	0.00017541	857.3	6.7036e-06	7.3704e-06	894.83	337.61	4.0123e-06	4.1176e-06	415.8	177.24	141.47	72.194	5.7552e-06	93.872	0.00072915	0.00066516	0.00019026	866.49	7.4163e-06	7.4362e-06	899.96	339.88	7.5535e-06	7.5241e-06	417.78	177.55	143	73.049	7.5472e-06	94.645	161.740	185.925	168.170	132.968	239.887	263.670	132.046	138.449	247.460	255.968	136.298	141.124	142.798	148.452	265.562	144.992	-8191	255	
1368.401	1	1	0	0	0.031919	0.11133	0.11206	0.24471	0.13429	0.075325	0.19309	0.12317	0.071306	0.13101	0.18469	0.15941	0.081396	0.16334	0.11943	0.19437	-4.0625	-4.6188	-4.1521	-4.8604	-4.4896	-4.225	-4.9479	-4.3313	-4.3375	-4.7812	-4.0396	-4.7521	-4.6521	-4.2646	-4.8083	-4.3417	456.829	443.485	454.268	460.189	465.072	244.202	390.468	440.301	121.515	316.273	418.463	191.223	120.820	476.300	333.981	420.463	0.0011266	0.00095386	0.00016994	859.3	4.5326e-06	6.8389e-06	892.94	336.95	5.8318e-06	3.3226e-06	414.98	176.19	141.64	71.989	5.232e-06	94.139	0.00072738	0.00067852	0.00019035	865.94	7.3677e-06	7.5354e-06	898.43	339.49	7.4665e-06	7.3538e-06	417.35	177.27	143.16	73.044	7.5253e-06	94.762	159.027	229.685	205.085	133.140	260.033	222.545	132.195	138.387	263.578	240.024	136.330	140.909	142.886	148.588	238.510	144.929	-8191	255	
1368.498	1	1	0	0	0.16497	0.12231	0.14955	0.090831	0.24173	0.19635	0.231	0.061207	0.13086	0.27696	0.22778	0.26056	0.23125	0.21966	0.20832	0.21049	-3.8896	-5.0479	-4.0125	-4.6958	-4.7021	-4.1042	-4.7937	-4.4062	-4.1625	-4.9271	-4.0583	-4.3854	-5.0458	-4.1542	-4.8542	-4.5667	164.773	414.889	444.852	121.050	147.400	275.909	404.981	400.872	143.322	303.498	413.855	427.907	157.404	440.257	478.628	422.156	0.0012476	0.00076946	0.0001783	860.61	2.4208e-06	6.6761e-06	893.56	337.92	6.2739e-06	2.3727e-06	415.74	176.17	141.93	71.977	5.8048e-06	93.845	0.00074127	0.00068227	0.00019121	867.93	7.3528e-06	7.5138e-06	899.13	340.01	7.5185e-06	7.317e-06	418.24	177.44	143.28	73.04	7.4372e-06	94.868	160.170	218.226	216.077	133.102	235.647	239.657	132.090	138.464	223.797	229.403	136.372	140.838	142.680	148.273	290.168	145.031	-8191	255	
1368.594	1	1	0	0	0.1417	0.12378	0.11196	0.28155	0.11608	0.11701	0.13488	0.1313	0.063548	0.10223	0.13584	0.18372	0.20068	0.20145	0.22456	0.036276	-3.6708	-5.0646	-4.1167	-4.4479	-4.6667	-3.9	-4.9792	-4.4583	-4.1771	-4.875	-4.0271	-4.5771	-5.0792	-3.9333	-4.6417	-4.875	409.936	392.070	251.243	417.387	382.288	294.444	382.740	454.260	363.025	262.335	395.202	150.292	385.595	260.338	246.626	255.469	0.0012192	0.00076032	0.00017031	861.43	7.9325e-06	6.4793e-06	897.93	338.57	6.2323e-06	6.6739e-06	416.15	177.56	142.34	72.235	7.1836e-06	94.776	0.00072663	0.00067525	0.00018314	868.04	7.25e-06	7.3975e-06	899.85	340.99	7.3936e-06	7.3793e-06	419.74	178.63	143.67	73.171	7.2817e-06	95.571	160.964	196.482	202.503	132.962	264.419	241.839	131.950	138.411	240.083	286.714	136.372	140.920	142.933	148.578	269.800	145.204	-8191	255	
1368.690	1	1	0	0	0.16538	0.23355	0.043792	0.063837	0.2809	0.12429	0.15981	0.084993	0.098912	0.12792	0.16084	0.063277	0.29653	0.18618	0.079268	0.16602	-3.6271	-5.0292	-4.0563	-4.4271	-4.8313	-3.9938	-4.9083	-4.6875	-3.8375	-5.0917	-4.4375	-4.1937	-4.9417	-4.0813	-4.4604	-4.6896	476.738	123.483	296.290	159.856	285.954	123.484	339.664	382.121	420.036	254.203	165.043	458.213	434.678	454.477	142.855	383.579	0.0011853	0.0014797	0.00014407	866.06	4.0945e-06	9.0151e-07	893.71	337.6	3.4244e-06	7.3097e-06	417.54	177.66	142.57	72.16	8.1956e-06	94.144	0.00070139	0.00064962	0.00018156	869.21	7.0636e-06	7.2124e-06	899.68	340.44	7.3079e-06	7.3534e-06	419.2	178.31	143.8	73.065	7.5685e-06	95.057	158.773	220.651	224.764	132.904	257.638	223.996	131.868	138.388	257.479	273.738	136.139	140.932	142.855	148.488	274.298	144.790	-8191	255	
#DATA ENDS
